2024/7/11 	 10:44:08 
 This file comes from Vt only measurement 	 1.000000E-1 
 Voltage Sensitivity 	 0.000000E+0 
 Sampling rate 	 200 
 Number of samples per channel 	 -1 
 No filter from Labview 	 	 	 
 	 
 ***End_of_Header*** 
 	 Time 	  Voltage 	 Filtered Voltage 	 
	0.000000	0.109845
	0.005000	0.048601
	0.010000	0.096952
	0.015000	0.161419
	0.020000	0.113068
	0.025000	0.045378
	0.030000	0.103398
	0.035000	0.167865
	0.040000	0.109845
	0.045000	0.045378
	0.050000	0.096952
	0.055000	0.171089
	0.060000	0.116292
	0.065000	0.048601
	0.070000	0.109845
	0.075000	0.167865
	0.080000	0.119515
	0.085000	0.055048
	0.090000	0.106622
	0.095000	0.167865
	0.100000	0.109845
	0.105000	0.051825
	0.110000	0.109845
	0.115000	0.171089
	0.120000	0.116292
	0.125000	0.051825
	0.130000	0.106622
	0.135000	0.174312
	0.140000	0.122738
	0.145000	0.055048
	0.150000	0.106622
	0.155000	0.174312
	0.160000	0.119515
	0.165000	0.051825
	0.170000	0.103398
	0.175000	0.167865
	0.180000	0.119515
	0.185000	0.051825
	0.190000	0.109845
	0.195000	0.177536
	0.200000	0.113068
	0.205000	0.048601
	0.210000	0.116292
	0.215000	0.171089
	0.220000	0.119515
	0.225000	0.055048
	0.230000	0.109845
	0.235000	0.171089
	0.240000	0.116292
	0.245000	0.048601
	0.250000	0.106622
	0.255000	0.174312
	0.260000	0.119515
	0.265000	0.058271
	0.270000	0.113068
	0.275000	0.171089
	0.280000	0.113068
	0.285000	0.055048
	0.290000	0.103398
	0.295000	0.177536
	0.300000	0.113068
	0.305000	0.055048
	0.310000	0.106622
	0.315000	0.164642
	0.320000	0.109845
	0.325000	0.048601
	0.330000	0.109845
	0.335000	0.174312
	0.340000	0.113068
	0.345000	0.051825
	0.350000	0.113068
	0.355000	0.174312
	0.360000	0.106622
	0.365000	0.048601
	0.370000	0.113068
	0.375000	0.167865
	0.380000	0.116292
	0.385000	0.048601
	0.390000	0.106622
	0.395000	0.164642
	0.400000	0.109845
	0.405000	0.045378
	0.410000	0.106622
	0.415000	0.167865
	0.420000	0.113068
	0.425000	0.042154
	0.430000	0.106622
	0.435000	0.164642
	0.440000	0.113068
	0.445000	0.055048
	0.450000	0.106622
	0.455000	0.167865
	0.460000	0.109845
	0.465000	0.048601
	0.470000	0.103398
	0.475000	0.174312
	0.480000	0.109845
	0.485000	0.042154
	0.490000	0.109845
	0.495000	0.161419
	0.500000	0.109845
	0.505000	0.048601
	0.510000	0.103398
	0.515000	0.164642
	0.520000	0.103398
	0.525000	0.048601
	0.530000	0.109845
	0.535000	0.164642
	0.540000	0.106622
	0.545000	0.051825
	0.550000	0.106622
	0.555000	0.167865
	0.560000	0.109845
	0.565000	0.042154
	0.570000	0.103398
	0.575000	0.174312
	0.580000	0.106622
	0.585000	0.048601
	0.590000	0.106622
	0.595000	0.167865
	0.600000	0.109845
	0.605000	0.048601
	0.610000	0.103398
	0.615000	0.164642
	0.620000	0.103398
	0.625000	0.051825
	0.630000	0.103398
	0.635000	0.167865
	0.640000	0.103398
	0.645000	0.051825
	0.650000	0.103398
	0.655000	0.164642
	0.660000	0.106622
	0.665000	0.048601
	0.670000	0.106622
	0.675000	0.171089
	0.680000	0.109845
	0.685000	0.051825
	0.690000	0.106622
	0.695000	0.171089
	0.700000	0.106622
	0.705000	0.048601
	0.710000	0.109845
	0.715000	0.171089
	0.720000	0.109845
	0.725000	0.048601
	0.730000	0.106622
	0.735000	0.164642
	0.740000	0.103398
	0.745000	0.055048
	0.750000	0.103398
	0.755000	0.158195
	0.760000	0.109845
	0.765000	0.045378
	0.770000	0.113068
	0.775000	0.164642
	0.780000	0.103398
	0.785000	0.048601
	0.790000	0.113068
	0.795000	0.171089
	0.800000	0.113068
	0.805000	0.048601
	0.810000	0.113068
	0.815000	0.171089
	0.820000	0.103398
	0.825000	0.055048
	0.830000	0.119515
	0.835000	0.177536
	0.840000	0.109845
	0.845000	0.051825
	0.850000	0.116292
	0.855000	0.174312
	0.860000	0.106622
	0.865000	0.051825
	0.870000	0.113068
	0.875000	0.167865
	0.880000	0.109845
	0.885000	0.048601
	0.890000	0.113068
	0.895000	0.174312
	0.900000	0.109845
	0.905000	0.048601
	0.910000	0.119515
	0.915000	0.174312
	0.920000	0.106622
	0.925000	0.055048
	0.930000	0.113068
	0.935000	0.171089
	0.940000	0.109845
	0.945000	0.058271
	0.950000	0.113068
	0.955000	0.171089
	0.960000	0.113068
	0.965000	0.048601
	0.970000	0.119515
	0.975000	0.174312
	0.980000	0.100175
	0.985000	0.051825
	0.990000	0.113068
	0.995000	0.174312
	1.000000	0.113068
	1.005000	0.051825
	1.010000	0.119515
	1.015000	0.167865
	1.020000	0.103398
	1.025000	0.055048
	1.030000	0.119515
	1.035000	0.174312
	1.040000	0.106622
	1.045000	0.051825
	1.050000	0.119515
	1.055000	0.171089
	1.060000	0.106622
	1.065000	0.048601
	1.070000	0.113068
	1.075000	0.174312
	1.080000	0.109845
	1.085000	0.048601
	1.090000	0.109845
	1.095000	0.164642
	1.100000	0.096952
	1.105000	0.051825
	1.110000	0.109845
	1.115000	0.174312
	1.120000	0.103398
	1.125000	0.051825
	1.130000	0.113068
	1.135000	0.164642
	1.140000	0.109845
	1.145000	0.048601
	1.150000	0.113068
	1.155000	0.164642
	1.160000	0.096952
	1.165000	0.042154
	1.170000	0.113068
	1.175000	0.161419
	1.180000	0.103398
	1.185000	0.042154
	1.190000	0.109845
	1.195000	0.167865
	1.200000	0.103398
	1.205000	0.048601
	1.210000	0.106622
	1.215000	0.171089
	1.220000	0.103398
	1.225000	0.048601
	1.230000	0.109845
	1.235000	0.161419
	1.240000	0.106622
	1.245000	0.045378
	1.250000	0.116292
	1.255000	0.164642
	1.260000	0.096952
	1.265000	0.048601
	1.270000	0.113068
	1.275000	0.171089
	1.280000	0.100175
	1.285000	0.045378
	1.290000	0.119515
	1.295000	0.167865
	1.300000	0.096952
	1.305000	0.045378
	1.310000	0.116292
	1.315000	0.174312
	1.320000	0.096952
	1.325000	0.051825
	1.330000	0.122738
	1.335000	0.158195
	1.340000	0.100175
	1.345000	0.048601
	1.350000	0.119515
	1.355000	0.164642
	1.360000	0.100175
	1.365000	0.045378
	1.370000	0.109845
	1.375000	0.164642
	1.380000	0.103398
	1.385000	0.048601
	1.390000	0.119515
	1.395000	0.164642
	1.400000	0.100175
	1.405000	0.051825
	1.410000	0.113068
	1.415000	0.167865
	1.420000	0.100175
	1.425000	0.048601
	1.430000	0.119515
	1.435000	0.164642
	1.440000	0.103398
	1.445000	0.045378
	1.450000	0.109845
	1.455000	0.164642
	1.460000	0.096952
	1.465000	0.042154
	1.470000	0.109845
	1.475000	0.167865
	1.480000	0.106622
	1.485000	0.042154
	1.490000	0.116292
	1.495000	0.171089
	1.500000	0.100175
	1.505000	0.051825
	1.510000	0.113068
	1.515000	0.167865
	1.520000	0.096952
	1.525000	0.048601
	1.530000	0.109845
	1.535000	0.167865
	1.540000	0.093728
	1.545000	0.048601
	1.550000	0.116292
	1.555000	0.161419
	1.560000	0.100175
	1.565000	0.048601
	1.570000	0.109845
	1.575000	0.174312
	1.580000	0.096952
	1.585000	0.045378
	1.590000	0.103398
	1.595000	0.174312
	1.600000	0.090505
	1.605000	0.048601
	1.610000	0.116292
	1.615000	0.171089
	1.620000	0.100175
	1.625000	0.045378
	1.630000	0.116292
	1.635000	0.164642
	1.640000	0.093728
	1.645000	0.051825
	1.650000	0.116292
	1.655000	0.167865
	1.660000	0.100175
	1.665000	0.045378
	1.670000	0.119515
	1.675000	0.161419
	1.680000	0.100175
	1.685000	0.051825
	1.690000	0.116292
	1.695000	0.167865
	1.700000	0.096952
	1.705000	0.045378
	1.710000	0.113068
	1.715000	0.164642
	1.720000	0.100175
	1.725000	0.051825
	1.730000	0.132408
	1.735000	0.183982
	1.740000	0.113068
	1.745000	0.064718
	1.750000	0.142079
	1.755000	0.200099
	1.760000	0.138855
	1.765000	0.096952
	1.770000	0.171089
	1.775000	0.229109
	1.780000	0.167865
	1.785000	0.125962
	1.790000	0.196876
	1.795000	0.251673
	1.800000	0.183982
	1.805000	0.142079
	1.810000	0.212992
	1.815000	0.264566
	1.820000	0.200099
	1.825000	0.151749
	1.830000	0.229109
	1.835000	0.271013
	1.840000	0.206546
	1.845000	0.158195
	1.850000	0.229109
	1.855000	0.280683
	1.860000	0.203322
	1.865000	0.164642
	1.870000	0.232333
	1.875000	0.287130
	1.880000	0.206546
	1.885000	0.164642
	1.890000	0.238779
	1.895000	0.283906
	1.900000	0.209769
	1.905000	0.167865
	1.910000	0.232333
	1.915000	0.280683
	1.920000	0.209769
	1.925000	0.161419
	1.930000	0.232333
	1.935000	0.271013
	1.940000	0.193652
	1.945000	0.158195
	1.950000	0.225886
	1.955000	0.264566
	1.960000	0.190429
	1.965000	0.148525
	1.970000	0.216216
	1.975000	0.264566
	1.980000	0.196876
	1.985000	0.138855
	1.990000	0.219439
	1.995000	0.254896
	2.000000	0.187206
	2.005000	0.138855
	2.010000	0.216216
	2.015000	0.254896
	2.020000	0.183982
	2.025000	0.135632
	2.030000	0.212992
	2.035000	0.261343
	2.040000	0.180759
	2.045000	0.138855
	2.050000	0.216216
	2.055000	0.261343
	2.060000	0.187206
	2.065000	0.151749
	2.070000	0.212992
	2.075000	0.264566
	2.080000	0.190429
	2.085000	0.148525
	2.090000	0.222663
	2.095000	0.271013
	2.100000	0.193652
	2.105000	0.151749
	2.110000	0.229109
	2.115000	0.267790
	2.120000	0.200099
	2.125000	0.158195
	2.130000	0.235556
	2.135000	0.280683
	2.140000	0.203322
	2.145000	0.161419
	2.150000	0.242003
	2.155000	0.283906
	2.160000	0.219439
	2.165000	0.177536
	2.170000	0.251673
	2.175000	0.290353
	2.180000	0.216216
	2.185000	0.187206
	2.190000	0.251673
	2.195000	0.300023
	2.200000	0.225886
	2.205000	0.183982
	2.210000	0.264566
	2.215000	0.306470
	2.220000	0.238779
	2.225000	0.193652
	2.230000	0.271013
	2.235000	0.322587
	2.240000	0.245226
	2.245000	0.203322
	2.250000	0.274236
	2.255000	0.319363
	2.260000	0.254896
	2.265000	0.209769
	2.270000	0.283906
	2.275000	0.325810
	2.280000	0.258119
	2.285000	0.219439
	2.290000	0.293576
	2.295000	0.332257
	2.300000	0.261343
	2.305000	0.216216
	2.310000	0.296800
	2.315000	0.335480
	2.320000	0.271013
	2.325000	0.232333
	2.330000	0.300023
	2.335000	0.348374
	2.340000	0.274236
	2.345000	0.232333
	2.350000	0.306470
	2.355000	0.351597
	2.360000	0.267790
	2.365000	0.235556
	2.370000	0.309693
	2.375000	0.348374
	2.380000	0.274236
	2.385000	0.232333
	2.390000	0.303247
	2.395000	0.341927
	2.400000	0.267790
	2.405000	0.232333
	2.410000	0.296800
	2.415000	0.329033
	2.420000	0.261343
	2.425000	0.222663
	2.430000	0.300023
	2.435000	0.338703
	2.440000	0.267790
	2.445000	0.216216
	2.450000	0.293576
	2.455000	0.329033
	2.460000	0.264566
	2.465000	0.212992
	2.470000	0.283906
	2.475000	0.319363
	2.480000	0.248449
	2.485000	0.212992
	2.490000	0.283906
	2.495000	0.322587
	2.500000	0.248449
	2.505000	0.209769
	2.510000	0.283906
	2.515000	0.319363
	2.520000	0.245226
	2.525000	0.216216
	2.530000	0.296800
	2.535000	0.329033
	2.540000	0.261343
	2.545000	0.225886
	2.550000	0.296800
	2.555000	0.345150
	2.560000	0.264566
	2.565000	0.232333
	2.570000	0.303247
	2.575000	0.348374
	2.580000	0.287130
	2.585000	0.261343
	2.590000	0.335480
	2.595000	0.380607
	2.600000	0.312917
	2.605000	0.277460
	2.610000	0.361267
	2.615000	0.403171
	2.620000	0.341927
	2.625000	0.306470
	2.630000	0.380607
	2.635000	0.416064
	2.640000	0.351597
	2.645000	0.316140
	2.650000	0.393501
	2.655000	0.425734
	2.660000	0.354820
	2.665000	0.312917
	2.670000	0.387054
	2.675000	0.412841
	2.680000	0.345150
	2.685000	0.296800
	2.690000	0.367714
	2.695000	0.403171
	2.700000	0.322587
	2.705000	0.277460
	2.710000	0.351597
	2.715000	0.367714
	2.720000	0.283906
	2.725000	0.238779
	2.730000	0.290353
	2.735000	0.309693
	2.740000	0.216216
	2.745000	0.171089
	2.750000	0.232333
	2.755000	0.258119
	2.760000	0.180759
	2.765000	0.148525
	2.770000	0.216216
	2.775000	0.258119
	2.780000	0.187206
	2.785000	0.167865
	2.790000	0.245226
	2.795000	0.280683
	2.800000	0.212992
	2.805000	0.187206
	2.810000	0.261343
	2.815000	0.312917
	2.820000	0.238779
	2.825000	0.212992
	2.830000	0.290353
	2.835000	0.322587
	2.840000	0.245226
	2.845000	0.225886
	2.850000	0.296800
	2.855000	0.322587
	2.860000	0.251673
	2.865000	0.229109
	2.870000	0.309693
	2.875000	0.341927
	2.880000	0.283906
	2.885000	0.258119
	2.890000	0.348374
	2.895000	0.396724
	2.900000	0.348374
	2.905000	0.332257
	2.910000	0.428957
	2.915000	0.486978
	2.920000	0.445074
	2.925000	0.435404
	2.930000	0.525658
	2.935000	0.580455
	2.940000	0.528882
	2.945000	0.509541
	2.950000	0.590125
	2.955000	0.625582
	2.960000	0.557892
	2.965000	0.538552
	2.970000	0.612689
	2.975000	0.644923
	2.980000	0.564339
	2.985000	0.544998
	2.990000	0.612689
	2.995000	0.644923
	3.000000	0.574009
	3.005000	0.541775
	3.010000	0.606242
	3.015000	0.641699
	3.020000	0.570785
	3.025000	0.544998
	3.030000	0.612689
	3.035000	0.638476
	3.040000	0.564339
	3.045000	0.538552
	3.050000	0.606242
	3.055000	0.632029
	3.060000	0.554668
	3.065000	0.535328
	3.070000	0.599796
	3.075000	0.625582
	3.080000	0.561115
	3.085000	0.528882
	3.090000	0.593349
	3.095000	0.619136
	3.100000	0.548222
	3.105000	0.528882
	3.110000	0.593349
	3.115000	0.632029
	3.120000	0.561115
	3.125000	0.528882
	3.130000	0.603019
	3.135000	0.628806
	3.140000	0.564339
	3.145000	0.541775
	3.150000	0.606242
	3.155000	0.638476
	3.160000	0.564339
	3.165000	0.538552
	3.170000	0.609466
	3.175000	0.641699
	3.180000	0.564339
	3.185000	0.538552
	3.190000	0.609466
	3.195000	0.632029
	3.200000	0.567562
	3.205000	0.535328
	3.210000	0.603019
	3.215000	0.635252
	3.220000	0.554668
	3.225000	0.525658
	3.230000	0.593349
	3.235000	0.606242
	3.240000	0.541775
	3.245000	0.506318
	3.250000	0.574009
	3.255000	0.599796
	3.260000	0.525658
	3.265000	0.490201
	3.270000	0.554668
	3.275000	0.570785
	3.280000	0.496648
	3.285000	0.461191
	3.290000	0.525658
	3.295000	0.538552
	3.300000	0.461191
	3.305000	0.435404
	3.310000	0.496648
	3.315000	0.509541
	3.320000	0.438628
	3.325000	0.409617
	3.330000	0.467638
	3.335000	0.499871
	3.340000	0.419287
	3.345000	0.380607
	3.350000	0.454744
	3.355000	0.464414
	3.360000	0.390277
	3.365000	0.354820
	3.370000	0.425734
	3.375000	0.448298
	3.380000	0.364490
	3.385000	0.335480
	3.390000	0.399947
	3.395000	0.422511
	3.400000	0.332257
	3.405000	0.303247
	3.410000	0.377384
	3.415000	0.390277
	3.420000	0.325810
	3.425000	0.283906
	3.430000	0.361267
	3.435000	0.380607
	3.440000	0.293576
	3.445000	0.267790
	3.450000	0.335480
	3.455000	0.348374
	3.460000	0.277460
	3.465000	0.242003
	3.470000	0.312917
	3.475000	0.329033
	3.480000	0.251673
	3.485000	0.222663
	3.490000	0.290353
	3.495000	0.316140
	3.500000	0.232333
	3.505000	0.203322
	3.510000	0.280683
	3.515000	0.300023
	3.520000	0.212992
	3.525000	0.180759
	3.530000	0.258119
	3.535000	0.277460
	3.540000	0.196876
	3.545000	0.180759
	3.550000	0.238779
	3.555000	0.271013
	3.560000	0.190429
	3.565000	0.161419
	3.570000	0.242003
	3.575000	0.264566
	3.580000	0.177536
	3.585000	0.154972
	3.590000	0.225886
	3.595000	0.245226
	3.600000	0.161419
	3.605000	0.132408
	3.610000	0.206546
	3.615000	0.235556
	3.620000	0.148525
	3.625000	0.116292
	3.630000	0.196876
	3.635000	0.216216
	3.640000	0.138855
	3.645000	0.109845
	3.650000	0.183982
	3.655000	0.209769
	3.660000	0.125962
	3.665000	0.103398
	3.670000	0.174312
	3.675000	0.203322
	3.680000	0.116292
	3.685000	0.084058
	3.690000	0.167865
	3.695000	0.196876
	3.700000	0.103398
	3.705000	0.093728
	3.710000	0.161419
	3.715000	0.180759
	3.720000	0.093728
	3.725000	0.084058
	3.730000	0.151749
	3.735000	0.180759
	3.740000	0.090505
	3.745000	0.071165
	3.750000	0.158195
	3.755000	0.164642
	3.760000	0.084058
	3.765000	0.071165
	3.770000	0.145302
	3.775000	0.161419
	3.780000	0.084058
	3.785000	0.064718
	3.790000	0.138855
	3.795000	0.158195
	3.800000	0.080835
	3.805000	0.055048
	3.810000	0.129185
	3.815000	0.158195
	3.820000	0.071165
	3.825000	0.048601
	3.830000	0.119515
	3.835000	0.151749
	3.840000	0.064718
	3.845000	0.048601
	3.850000	0.116292
	3.855000	0.145302
	3.860000	0.064718
	3.865000	0.045378
	3.870000	0.125962
	3.875000	0.145302
	3.880000	0.058271
	3.885000	0.051825
	3.890000	0.122738
	3.895000	0.145302
	3.900000	0.067941
	3.905000	0.045378
	3.910000	0.125962
	3.915000	0.142079
	3.920000	0.061495
	3.925000	0.045378
	3.930000	0.125962
	3.935000	0.138855
	3.940000	0.055048
	3.945000	0.035708
	3.950000	0.122738
	3.955000	0.142079
	3.960000	0.055048
	3.965000	0.048601
	3.970000	0.113068
	3.975000	0.138855
	3.980000	0.064718
	3.985000	0.042154
	3.990000	0.129185
	3.995000	0.142079
	4.000000	0.055048
	4.005000	0.042154
	4.010000	0.122738
	4.015000	0.148525
	4.020000	0.061495
	4.025000	0.042154
	4.030000	0.125962
	4.035000	0.138855
	4.040000	0.061495
	4.045000	0.045378
	4.050000	0.132408
	4.055000	0.148525
	4.060000	0.067941
	4.065000	0.042154
	4.070000	0.119515
	4.075000	0.148525
	4.080000	0.058271
	4.085000	0.045378
	4.090000	0.119515
	4.095000	0.138855
	4.100000	0.061495
	4.105000	0.048601
	4.110000	0.129185
	4.115000	0.145302
	4.120000	0.061495
	4.125000	0.048601
	4.130000	0.129185
	4.135000	0.148525
	4.140000	0.061495
	4.145000	0.045378
	4.150000	0.122738
	4.155000	0.148525
	4.160000	0.061495
	4.165000	0.051825
	4.170000	0.132408
	4.175000	0.142079
	4.180000	0.064718
	4.185000	0.042154
	4.190000	0.132408
	4.195000	0.148525
	4.200000	0.061495
	4.205000	0.055048
	4.210000	0.132408
	4.215000	0.138855
	4.220000	0.061495
	4.225000	0.048601
	4.230000	0.132408
	4.235000	0.148525
	4.240000	0.064718
	4.245000	0.051825
	4.250000	0.125962
	4.255000	0.145302
	4.260000	0.067941
	4.265000	0.055048
	4.270000	0.122738
	4.275000	0.148525
	4.280000	0.064718
	4.285000	0.051825
	4.290000	0.129185
	4.295000	0.138855
	4.300000	0.051825
	4.305000	0.048601
	4.310000	0.125962
	4.315000	0.142079
	4.320000	0.045378
	4.325000	0.038931
	4.330000	0.119515
	4.335000	0.129185
	4.340000	0.051825
	4.345000	0.042154
	4.350000	0.106622
	4.355000	0.129185
	4.360000	0.042154
	4.365000	0.029261
	4.370000	0.109845
	4.375000	0.122738
	4.380000	0.038931
	4.385000	0.019591
	4.390000	0.109845
	4.395000	0.122738
	4.400000	0.038931
	4.405000	0.032484
	4.410000	0.109845
	4.415000	0.125962
	4.420000	0.035708
	4.425000	0.029261
	4.430000	0.113068
	4.435000	0.125962
	4.440000	0.035708
	4.445000	0.029261
	4.450000	0.106622
	4.455000	0.122738
	4.460000	0.035708
	4.465000	0.019591
	4.470000	0.109845
	4.475000	0.113068
	4.480000	0.032484
	4.485000	0.016368
	4.490000	0.100175
	4.495000	0.116292
	4.500000	0.032484
	4.505000	0.026038
	4.510000	0.103398
	4.515000	0.119515
	4.520000	0.032484
	4.525000	0.019591
	4.530000	0.116292
	4.535000	0.122738
	4.540000	0.042154
	4.545000	0.026038
	4.550000	0.106622
	4.555000	0.119515
	4.560000	0.038931
	4.565000	0.026038
	4.570000	0.109845
	4.575000	0.116292
	4.580000	0.038931
	4.585000	0.029261
	4.590000	0.113068
	4.595000	0.119515
	4.600000	0.038931
	4.605000	0.026038
	4.610000	0.113068
	4.615000	0.119515
	4.620000	0.045378
	4.625000	0.026038
	4.630000	0.113068
	4.635000	0.125962
	4.640000	0.038931
	4.645000	0.032484
	4.650000	0.119515
	4.655000	0.122738
	4.660000	0.038931
	4.665000	0.035708
	4.670000	0.119515
	4.675000	0.135632
	4.680000	0.038931
	4.685000	0.042154
	4.690000	0.119515
	4.695000	0.129185
	4.700000	0.038931
	4.705000	0.042154
	4.710000	0.119515
	4.715000	0.135632
	4.720000	0.045378
	4.725000	0.035708
	4.730000	0.125962
	4.735000	0.132408
	4.740000	0.042154
	4.745000	0.038931
	4.750000	0.129185
	4.755000	0.129185
	4.760000	0.045378
	4.765000	0.035708
	4.770000	0.129185
	4.775000	0.132408
	4.780000	0.051825
	4.785000	0.038931
	4.790000	0.135632
	4.795000	0.135632
	4.800000	0.045378
	4.805000	0.038931
	4.810000	0.125962
	4.815000	0.135632
	4.820000	0.051825
	4.825000	0.038931
	4.830000	0.125962
	4.835000	0.132408
	4.840000	0.051825
	4.845000	0.035708
	4.850000	0.116292
	4.855000	0.129185
	4.860000	0.045378
	4.865000	0.042154
	4.870000	0.119515
	4.875000	0.125962
	4.880000	0.035708
	4.885000	0.035708
	4.890000	0.119515
	4.895000	0.129185
	4.900000	0.038931
	4.905000	0.026038
	4.910000	0.122738
	4.915000	0.129185
	4.920000	0.038931
	4.925000	0.029261
	4.930000	0.116292
	4.935000	0.122738
	4.940000	0.032484
	4.945000	0.029261
	4.950000	0.119515
	4.955000	0.122738
	4.960000	0.038931
	4.965000	0.026038
	4.970000	0.119515
	4.975000	0.122738
	4.980000	0.042154
	4.985000	0.032484
	4.990000	0.125962
	4.995000	0.125962
	5.000000	0.038931
	5.005000	0.029261
	5.010000	0.119515
	5.015000	0.122738
	5.020000	0.035708
	5.025000	0.026038
	5.030000	0.125962
	5.035000	0.125962
	5.040000	0.038931
	5.045000	0.035708
	5.050000	0.129185
	5.055000	0.119515
	5.060000	0.035708
	5.065000	0.035708
	5.070000	0.119515
	5.075000	0.122738
	5.080000	0.038931
	5.085000	0.032484
	5.090000	0.122738
	5.095000	0.125962
	5.100000	0.032484
	5.105000	0.032484
	5.110000	0.122738
	5.115000	0.122738
	5.120000	0.032484
	5.125000	0.032484
	5.130000	0.116292
	5.135000	0.125962
	5.140000	0.042154
	5.145000	0.038931
	5.150000	0.122738
	5.155000	0.132408
	5.160000	0.038931
	5.165000	0.042154
	5.170000	0.125962
	5.175000	0.125962
	5.180000	0.042154
	5.185000	0.035708
	5.190000	0.132408
	5.195000	0.125962
	5.200000	0.035708
	5.205000	0.045378
	5.210000	0.129185
	5.215000	0.129185
	5.220000	0.045378
	5.225000	0.038931
	5.230000	0.125962
	5.235000	0.122738
	5.240000	0.042154
	5.245000	0.045378
	5.250000	0.125962
	5.255000	0.125962
	5.260000	0.042154
	5.265000	0.042154
	5.270000	0.122738
	5.275000	0.129185
	5.280000	0.045378
	5.285000	0.035708
	5.290000	0.129185
	5.295000	0.125962
	5.300000	0.045378
	5.305000	0.045378
	5.310000	0.129185
	5.315000	0.132408
	5.320000	0.038931
	5.325000	0.051825
	5.330000	0.135632
	5.335000	0.125962
	5.340000	0.042154
	5.345000	0.045378
	5.350000	0.122738
	5.355000	0.132408
	5.360000	0.051825
	5.365000	0.045378
	5.370000	0.125962
	5.375000	0.135632
	5.380000	0.045378
	5.385000	0.051825
	5.390000	0.129185
	5.395000	0.132408
	5.400000	0.038931
	5.405000	0.045378
	5.410000	0.129185
	5.415000	0.132408
	5.420000	0.048601
	5.425000	0.048601
	5.430000	0.132408
	5.435000	0.132408
	5.440000	0.048601
	5.445000	0.051825
	5.450000	0.138855
	5.455000	0.129185
	5.460000	0.038931
	5.465000	0.045378
	5.470000	0.129185
	5.475000	0.132408
	5.480000	0.045378
	5.485000	0.055048
	5.490000	0.132408
	5.495000	0.132408
	5.500000	0.045378
	5.505000	0.051825
	5.510000	0.135632
	5.515000	0.129185
	5.520000	0.045378
	5.525000	0.048601
	5.530000	0.135632
	5.535000	0.135632
	5.540000	0.051825
	5.545000	0.045378
	5.550000	0.145302
	5.555000	0.135632
	5.560000	0.048601
	5.565000	0.048601
	5.570000	0.132408
	5.575000	0.129185
	5.580000	0.045378
	5.585000	0.051825
	5.590000	0.135632
	5.595000	0.125962
	5.600000	0.045378
	5.605000	0.045378
	5.610000	0.135632
	5.615000	0.132408
	5.620000	0.045378
	5.625000	0.048601
	5.630000	0.129185
	5.635000	0.129185
	5.640000	0.038931
	5.645000	0.042154
	5.650000	0.116292
	5.655000	0.116292
	5.660000	0.026038
	5.665000	0.035708
	5.670000	0.116292
	5.675000	0.109845
	5.680000	0.026038
	5.685000	0.032484
	5.690000	0.113068
	5.695000	0.103398
	5.700000	0.022814
	5.705000	0.035708
	5.710000	0.113068
	5.715000	0.109845
	5.720000	0.022814
	5.725000	0.019591
	5.730000	0.109845
	5.735000	0.100175
	5.740000	0.013144
	5.745000	0.026038
	5.750000	0.113068
	5.755000	0.106622
	5.760000	0.016368
	5.765000	0.026038
	5.770000	0.113068
	5.775000	0.100175
	5.780000	0.016368
	5.785000	0.022814
	5.790000	0.116292
	5.795000	0.113068
	5.800000	0.022814
	5.805000	0.026038
	5.810000	0.109845
	5.815000	0.106622
	5.820000	0.019591
	5.825000	0.029261
	5.830000	0.119515
	5.835000	0.113068
	5.840000	0.032484
	5.845000	0.032484
	5.850000	0.135632
	5.855000	0.122738
	5.860000	0.038931
	5.865000	0.045378
	5.870000	0.142079
	5.875000	0.129185
	5.880000	0.051825
	5.885000	0.064718
	5.890000	0.148525
	5.895000	0.148525
	5.900000	0.061495
	5.905000	0.087281
	5.910000	0.177536
	5.915000	0.167865
	5.920000	0.084058
	5.925000	0.090505
	5.930000	0.177536
	5.935000	0.183982
	5.940000	0.090505
	5.945000	0.116292
	5.950000	0.203322
	5.955000	0.196876
	5.960000	0.113068
	5.965000	0.113068
	5.970000	0.209769
	5.975000	0.206546
	5.980000	0.125962
	5.985000	0.129185
	5.990000	0.225886
	5.995000	0.212992
	6.000000	0.125962
	6.005000	0.135632
	6.010000	0.235556
	6.015000	0.232333
	6.020000	0.142079
	6.025000	0.151749
	6.030000	0.242003
	6.035000	0.229109
	6.040000	0.142079
	6.045000	0.154972
	6.050000	0.245226
	6.055000	0.232333
	6.060000	0.151749
	6.065000	0.158195
	6.070000	0.254896
	6.075000	0.238779
	6.080000	0.158195
	6.085000	0.167865
	6.090000	0.261343
	6.095000	0.248449
	6.100000	0.164642
	6.105000	0.183982
	6.110000	0.267790
	6.115000	0.261343
	6.120000	0.177536
	6.125000	0.193652
	6.130000	0.277460
	6.135000	0.264566
	6.140000	0.183982
	6.145000	0.183982
	6.150000	0.283906
	6.155000	0.271013
	6.160000	0.180759
	6.165000	0.196876
	6.170000	0.280683
	6.175000	0.274236
	6.180000	0.193652
	6.185000	0.203322
	6.190000	0.290353
	6.195000	0.277460
	6.200000	0.193652
	6.205000	0.212992
	6.210000	0.296800
	6.215000	0.290353
	6.220000	0.209769
	6.225000	0.212992
	6.230000	0.300023
	6.235000	0.287130
	6.240000	0.203322
	6.245000	0.219439
	6.250000	0.309693
	6.255000	0.303247
	6.260000	0.219439
	6.265000	0.232333
	6.270000	0.319363
	6.275000	0.306470
	6.280000	0.222663
	6.285000	0.235556
	6.290000	0.322587
	6.295000	0.312917
	6.300000	0.229109
	6.305000	0.245226
	6.310000	0.341927
	6.315000	0.325810
	6.320000	0.238779
	6.325000	0.258119
	6.330000	0.338703
	6.335000	0.325810
	6.340000	0.245226
	6.345000	0.267790
	6.350000	0.348374
	6.355000	0.329033
	6.360000	0.251673
	6.365000	0.271013
	6.370000	0.345150
	6.375000	0.335480
	6.380000	0.248449
	6.385000	0.280683
	6.390000	0.358044
	6.395000	0.348374
	6.400000	0.258119
	6.405000	0.277460
	6.410000	0.367714
	6.415000	0.351597
	6.420000	0.274236
	6.425000	0.287130
	6.430000	0.374160
	6.435000	0.361267
	6.440000	0.277460
	6.445000	0.293576
	6.450000	0.380607
	6.455000	0.367714
	6.460000	0.287130
	6.465000	0.303247
	6.470000	0.377384
	6.475000	0.370937
	6.480000	0.290353
	6.485000	0.303247
	6.490000	0.380607
	6.495000	0.370937
	6.500000	0.283906
	6.505000	0.293576
	6.510000	0.367714
	6.515000	0.351597
	6.520000	0.267790
	6.525000	0.283906
	6.530000	0.361267
	6.535000	0.345150
	6.540000	0.261343
	6.545000	0.280683
	6.550000	0.364490
	6.555000	0.345150
	6.560000	0.267790
	6.565000	0.287130
	6.570000	0.364490
	6.575000	0.358044
	6.580000	0.287130
	6.585000	0.300023
	6.590000	0.387054
	6.595000	0.380607
	6.600000	0.303247
	6.605000	0.325810
	6.610000	0.409617
	6.615000	0.396724
	6.620000	0.329033
	6.625000	0.361267
	6.630000	0.435404
	6.635000	0.432181
	6.640000	0.354820
	6.645000	0.383830
	6.650000	0.461191
	6.655000	0.445074
	6.660000	0.367714
	6.665000	0.396724
	6.670000	0.474085
	6.675000	0.464414
	6.680000	0.380607
	6.685000	0.406394
	6.690000	0.483755
	6.695000	0.467638
	6.700000	0.393501
	6.705000	0.406394
	6.710000	0.483755
	6.715000	0.470861
	6.720000	0.387054
	6.725000	0.396724
	6.730000	0.483755
	6.735000	0.464414
	6.740000	0.383830
	6.745000	0.399947
	6.750000	0.477308
	6.755000	0.448298
	6.760000	0.354820
	6.765000	0.377384
	6.770000	0.451521
	6.775000	0.432181
	6.780000	0.341927
	6.785000	0.348374
	6.790000	0.422511
	6.795000	0.399947
	6.800000	0.322587
	6.805000	0.329033
	6.810000	0.399947
	6.815000	0.370937
	6.820000	0.293576
	6.825000	0.296800
	6.830000	0.364490
	6.835000	0.332257
	6.840000	0.254896
	6.845000	0.254896
	6.850000	0.316140
	6.855000	0.280683
	6.860000	0.190429
	6.865000	0.196876
	6.870000	0.261343
	6.875000	0.242003
	6.880000	0.164642
	6.885000	0.180759
	6.890000	0.258119
	6.895000	0.238779
	6.900000	0.161419
	6.905000	0.187206
	6.910000	0.264566
	6.915000	0.245226
	6.920000	0.177536
	6.925000	0.203322
	6.930000	0.277460
	6.935000	0.267790
	6.940000	0.187206
	6.945000	0.219439
	6.950000	0.306470
	6.955000	0.303247
	6.960000	0.232333
	6.965000	0.261343
	6.970000	0.341927
	6.975000	0.341927
	6.980000	0.277460
	6.985000	0.322587
	6.990000	0.419287
	6.995000	0.419287
	7.000000	0.354820
	7.005000	0.409617
	7.010000	0.503095
	7.015000	0.512765
	7.020000	0.464414
	7.025000	0.503095
	7.030000	0.599796
	7.035000	0.580455
	7.040000	0.538552
	7.045000	0.564339
	7.050000	0.635252
	7.055000	0.625582
	7.060000	0.551445
	7.065000	0.567562
	7.070000	0.628806
	7.075000	0.615912
	7.080000	0.538552
	7.085000	0.544998
	7.090000	0.619136
	7.095000	0.590125
	7.100000	0.503095
	7.105000	0.515988
	7.110000	0.580455
	7.115000	0.554668
	7.120000	0.470861
	7.125000	0.486978
	7.130000	0.551445
	7.135000	0.525658
	7.140000	0.451521
	7.145000	0.470861
	7.150000	0.532105
	7.155000	0.519212
	7.160000	0.441851
	7.165000	0.451521
	7.170000	0.532105
	7.175000	0.496648
	7.180000	0.435404
	7.185000	0.451521
	7.190000	0.522435
	7.195000	0.493425
	7.200000	0.422511
	7.205000	0.441851
	7.210000	0.506318
	7.215000	0.486978
	7.220000	0.406394
	7.225000	0.432181
	7.230000	0.503095
	7.235000	0.470861
	7.240000	0.399947
	7.245000	0.419287
	7.250000	0.486978
	7.255000	0.461191
	7.260000	0.387054
	7.265000	0.396724
	7.270000	0.467638
	7.275000	0.441851
	7.280000	0.358044
	7.285000	0.380607
	7.290000	0.451521
	7.295000	0.412841
	7.300000	0.338703
	7.305000	0.361267
	7.310000	0.422511
	7.315000	0.399947
	7.320000	0.312917
	7.325000	0.335480
	7.330000	0.399947
	7.335000	0.361267
	7.340000	0.277460
	7.345000	0.303247
	7.350000	0.361267
	7.355000	0.325810
	7.360000	0.248449
	7.365000	0.271013
	7.370000	0.335480
	7.375000	0.306470
	7.380000	0.222663
	7.385000	0.242003
	7.390000	0.306470
	7.395000	0.274236
	7.400000	0.190429
	7.405000	0.209769
	7.410000	0.274236
	7.415000	0.245226
	7.420000	0.167865
	7.425000	0.183982
	7.430000	0.261343
	7.435000	0.225886
	7.440000	0.148525
	7.445000	0.164642
	7.450000	0.225886
	7.455000	0.203322
	7.460000	0.119515
	7.465000	0.148525
	7.470000	0.212992
	7.475000	0.183982
	7.480000	0.109845
	7.485000	0.135632
	7.490000	0.203322
	7.495000	0.167865
	7.500000	0.093728
	7.505000	0.116292
	7.510000	0.196876
	7.515000	0.164642
	7.520000	0.087281
	7.525000	0.109845
	7.530000	0.190429
	7.535000	0.158195
	7.540000	0.084058
	7.545000	0.100175
	7.550000	0.171089
	7.555000	0.138855
	7.560000	0.064718
	7.565000	0.087281
	7.570000	0.158195
	7.575000	0.122738
	7.580000	0.051825
	7.585000	0.077611
	7.590000	0.151749
	7.595000	0.119515
	7.600000	0.042154
	7.605000	0.071165
	7.610000	0.138855
	7.615000	0.113068
	7.620000	0.032484
	7.625000	0.055048
	7.630000	0.129185
	7.635000	0.103398
	7.640000	0.019591
	7.645000	0.051825
	7.650000	0.125962
	7.655000	0.096952
	7.660000	0.022814
	7.665000	0.038931
	7.670000	0.119515
	7.675000	0.087281
	7.680000	0.009921
	7.685000	0.038931
	7.690000	0.106622
	7.695000	0.080835
	7.700000	0.006697
	7.705000	0.038931
	7.710000	0.103398
	7.715000	0.067941
	7.720000	-0.006196
	7.725000	0.022814
	7.730000	0.093728
	7.735000	0.058271
	7.740000	-0.015866
	7.745000	0.019591
	7.750000	0.080835
	7.755000	0.055048
	7.760000	-0.022313
	7.765000	0.003474
	7.770000	0.077611
	7.775000	0.038931
	7.780000	-0.035206
	7.785000	-0.009419
	7.790000	0.064718
	7.795000	0.026038
	7.800000	-0.044876
	7.805000	-0.015866
	7.810000	0.058271
	7.815000	0.022814
	7.820000	-0.054546
	7.825000	-0.019089
	7.830000	0.055048
	7.835000	0.013144
	7.840000	-0.060993
	7.845000	-0.031983
	7.850000	0.045378
	7.855000	0.013144
	7.860000	-0.060993
	7.865000	-0.019089
	7.870000	0.042154
	7.875000	0.013144
	7.880000	-0.057770
	7.885000	-0.025536
	7.890000	0.051825
	7.895000	0.013144
	7.900000	-0.060993
	7.905000	-0.028759
	7.910000	0.042154
	7.915000	0.013144
	7.920000	-0.060993
	7.925000	-0.038430
	7.930000	0.048601
	7.935000	0.013144
	7.940000	-0.067440
	7.945000	-0.031983
	7.950000	0.038931
	7.955000	0.013144
	7.960000	-0.067440
	7.965000	-0.031983
	7.970000	0.045378
	7.975000	0.016368
	7.980000	-0.064216
	7.985000	-0.031983
	7.990000	0.048601
	7.995000	0.016368
	8.000000	-0.060993
	8.005000	-0.022313
	8.010000	0.048601
	8.015000	0.003474
	8.020000	-0.057770
	8.025000	-0.025536
	8.030000	0.042154
	8.035000	0.006697
	8.040000	-0.060993
	8.045000	-0.025536
	8.050000	0.051825
	8.055000	0.013144
	8.060000	-0.057770
	8.065000	-0.015866
	8.070000	0.051825
	8.075000	0.016368
	8.080000	-0.057770
	8.085000	-0.022313
	8.090000	0.055048
	8.095000	0.013144
	8.100000	-0.057770
	8.105000	-0.025536
	8.110000	0.055048
	8.115000	0.019591
	8.120000	-0.060993
	8.125000	-0.019089
	8.130000	0.051825
	8.135000	0.019591
	8.140000	-0.057770
	8.145000	-0.019089
	8.150000	0.051825
	8.155000	0.022814
	8.160000	-0.057770
	8.165000	-0.015866
	8.170000	0.058271
	8.175000	0.016368
	8.180000	-0.057770
	8.185000	-0.015866
	8.190000	0.058271
	8.195000	0.019591
	8.200000	-0.057770
	8.205000	-0.015866
	8.210000	0.058271
	8.215000	0.032484
	8.220000	-0.054546
	8.225000	-0.022313
	8.230000	0.058271
	8.235000	0.022814
	8.240000	-0.057770
	8.245000	-0.012643
	8.250000	0.058271
	8.255000	0.019591
	8.260000	-0.054546
	8.265000	-0.009419
	8.270000	0.058271
	8.275000	0.019591
	8.280000	-0.048100
	8.285000	-0.015866
	8.290000	0.058271
	8.295000	0.022814
	8.300000	-0.054546
	8.305000	-0.009419
	8.310000	0.058271
	8.315000	0.019591
	8.320000	-0.051323
	8.325000	-0.015866
	8.330000	0.064718
	8.335000	0.013144
	8.340000	-0.051323
	8.345000	-0.015866
	8.350000	0.058271
	8.355000	0.013144
	8.360000	-0.051323
	8.365000	-0.012643
	8.370000	0.058271
	8.375000	0.016368
	8.380000	-0.048100
	8.385000	-0.019089
	8.390000	0.061495
	8.395000	0.016368
	8.400000	-0.057770
	8.405000	-0.019089
	8.410000	0.058271
	8.415000	0.013144
	8.420000	-0.051323
	8.425000	-0.015866
	8.430000	0.051825
	8.435000	0.013144
	8.440000	-0.060993
	8.445000	-0.015866
	8.450000	0.055048
	8.455000	0.016368
	8.460000	-0.057770
	8.465000	-0.009419
	8.470000	0.051825
	8.475000	0.016368
	8.480000	-0.057770
	8.485000	-0.015866
	8.490000	0.051825
	8.495000	0.009921
	8.500000	-0.057770
	8.505000	-0.015866
	8.510000	0.055048
	8.515000	0.013144
	8.520000	-0.064216
	8.525000	-0.022313
	8.530000	0.051825
	8.535000	0.013144
	8.540000	-0.060993
	8.545000	-0.019089
	8.550000	0.055048
	8.555000	0.009921
	8.560000	-0.060993
	8.565000	-0.022313
	8.570000	0.055048
	8.575000	0.006697
	8.580000	-0.057770
	8.585000	-0.015866
	8.590000	0.055048
	8.595000	0.003474
	8.600000	-0.060993
	8.605000	-0.012643
	8.610000	0.051825
	8.615000	0.006697
	8.620000	-0.060993
	8.625000	-0.028759
	8.630000	0.048601
	8.635000	0.006697
	8.640000	-0.064216
	8.645000	-0.022313
	8.650000	0.042154
	8.655000	0.009921
	8.660000	-0.057770
	8.665000	-0.012643
	8.670000	0.051825
	8.675000	0.009921
	8.680000	-0.064216
	8.685000	-0.028759
	8.690000	0.045378
	8.695000	0.006697
	8.700000	-0.067440
	8.705000	-0.022313
	8.710000	0.055048
	8.715000	0.006697
	8.720000	-0.073886
	8.725000	-0.015866
	8.730000	0.051825
	8.735000	0.003474
	8.740000	-0.067440
	8.745000	-0.015866
	8.750000	0.055048
	8.755000	0.003474
	8.760000	-0.067440
	8.765000	-0.015866
	8.770000	0.058271
	8.775000	0.003474
	8.780000	-0.060993
	8.785000	-0.028759
	8.790000	0.045378
	8.795000	0.009921
	8.800000	-0.064216
	8.805000	-0.019089
	8.810000	0.055048
	8.815000	0.003474
	8.820000	-0.070663
	8.825000	-0.022313
	8.830000	0.048601
	8.835000	0.006697
	8.840000	-0.070663
	8.845000	-0.019089
	8.850000	0.048601
	8.855000	0.009921
	8.860000	-0.064216
	8.865000	-0.019089
	8.870000	0.055048
	8.875000	0.000251
	8.880000	-0.070663
	8.885000	-0.015866
	8.890000	0.045378
	8.895000	0.006697
	8.900000	-0.064216
	8.905000	-0.012643
	8.910000	0.051825
	8.915000	0.000251
	8.920000	-0.064216
	8.925000	-0.012643
	8.930000	0.048601
	8.935000	0.000251
	8.940000	-0.070663
	8.945000	-0.019089
	8.950000	0.048601
	8.955000	0.003474
	8.960000	-0.067440
	8.965000	-0.022313
	8.970000	0.045378
	8.975000	0.006697
	8.980000	-0.060993
	8.985000	-0.022313
	8.990000	0.051825
	8.995000	0.003474
	9.000000	-0.070663
	9.005000	-0.015866
	9.010000	0.048601
	9.015000	0.013144
	9.020000	-0.067440
	9.025000	-0.015866
	9.030000	0.055048
	9.035000	0.006697
	9.040000	-0.057770
	9.045000	-0.015866
	9.050000	0.051825
	9.055000	0.013144
	9.060000	-0.064216
	9.065000	-0.012643
	9.070000	0.051825
	9.075000	0.000251
	9.080000	-0.064216
	9.085000	-0.015866
	9.090000	0.058271
	9.095000	0.003474
	9.100000	-0.060993
	9.105000	-0.012643
	9.110000	0.055048
	9.115000	0.009921
	9.120000	-0.057770
	9.125000	-0.006196
	9.130000	0.048601
	9.135000	0.006697
	9.140000	-0.060993
	9.145000	-0.019089
	9.150000	0.058271
	9.155000	0.006697
	9.160000	-0.057770
	9.165000	-0.015866
	9.170000	0.051825
	9.175000	0.003474
	9.180000	-0.064216
	9.185000	-0.019089
	9.190000	0.051825
	9.195000	0.003474
	9.200000	-0.070663
	9.205000	-0.012643
	9.210000	0.051825
	9.215000	0.003474
	9.220000	-0.064216
	9.225000	-0.022313
	9.230000	0.051825
	9.235000	0.006697
	9.240000	-0.057770
	9.245000	-0.019089
	9.250000	0.051825
	9.255000	0.009921
	9.260000	-0.067440
	9.265000	-0.012643
	9.270000	0.055048
	9.275000	0.003474
	9.280000	-0.060993
	9.285000	-0.012643
	9.290000	0.058271
	9.295000	0.003474
	9.300000	-0.064216
	9.305000	-0.006196
	9.310000	0.051825
	9.315000	0.006697
	9.320000	-0.051323
	9.325000	-0.009419
	9.330000	0.058271
	9.335000	0.006697
	9.340000	-0.057770
	9.345000	0.000251
	9.350000	0.058271
	9.355000	0.006697
	9.360000	-0.057770
	9.365000	-0.002973
	9.370000	0.061495
	9.375000	0.000251
	9.380000	-0.057770
	9.385000	-0.006196
	9.390000	0.058271
	9.395000	0.006697
	9.400000	-0.060993
	9.405000	0.000251
	9.410000	0.061495
	9.415000	0.006697
	9.420000	-0.060993
	9.425000	-0.012643
	9.430000	0.058271
	9.435000	0.003474
	9.440000	-0.064216
	9.445000	-0.015866
	9.450000	0.051825
	9.455000	0.000251
	9.460000	-0.067440
	9.465000	-0.019089
	9.470000	0.055048
	9.475000	-0.009419
	9.480000	-0.073886
	9.485000	-0.019089
	9.490000	0.045378
	9.495000	-0.002973
	9.500000	-0.067440
	9.505000	-0.022313
	9.510000	0.042154
	9.515000	-0.002973
	9.520000	-0.077110
	9.525000	-0.015866
	9.530000	0.048601
	9.535000	-0.009419
	9.540000	-0.070663
	9.545000	-0.019089
	9.550000	0.048601
	9.555000	-0.012643
	9.560000	-0.077110
	9.565000	-0.035206
	9.570000	0.045378
	9.575000	-0.006196
	9.580000	-0.080333
	9.585000	-0.019089
	9.590000	0.042154
	9.595000	-0.006196
	9.600000	-0.073886
	9.605000	-0.019089
	9.610000	0.048601
	9.615000	-0.006196
	9.620000	-0.077110
	9.625000	-0.015866
	9.630000	0.042154
	9.635000	-0.006196
	9.640000	-0.077110
	9.645000	-0.019089
	9.650000	0.045378
	9.655000	-0.009419
	9.660000	-0.073886
	9.665000	-0.009419
	9.670000	0.045378
	9.675000	0.000251
	9.680000	-0.067440
	9.685000	-0.012643
	9.690000	0.048601
	9.695000	-0.006196
	9.700000	-0.067440
	9.705000	-0.012643
	9.710000	0.051825
	9.715000	-0.006196
	9.720000	-0.070663
	9.725000	-0.015866
	9.730000	0.055048
	9.735000	-0.006196
	9.740000	-0.070663
	9.745000	-0.006196
	9.750000	0.051825
	9.755000	-0.002973
	9.760000	-0.067440
	9.765000	-0.015866
	9.770000	0.048601
	9.775000	0.003474
	9.780000	-0.070663
	9.785000	-0.002973
	9.790000	0.055048
	9.795000	0.000251
	9.800000	-0.060993
	9.805000	-0.006196
	9.810000	0.055048
	9.815000	-0.002973
	9.820000	-0.067440
	9.825000	-0.006196
	9.830000	0.058271
	9.835000	0.006697
	9.840000	-0.057770
	9.845000	-0.002973
	9.850000	0.055048
	9.855000	0.006697
	9.860000	-0.060993
	9.865000	0.000251
	9.870000	0.061495
	9.875000	0.006697
	9.880000	-0.051323
	9.885000	0.006697
	9.890000	0.067941
	9.895000	0.009921
	9.900000	-0.051323
	9.905000	0.000251
	9.910000	0.071165
	9.915000	0.019591
	9.920000	-0.057770
	9.925000	0.013144
	9.930000	0.074388
	9.935000	0.019591
	9.940000	-0.054546
	9.945000	0.006697
	9.950000	0.064718
	9.955000	0.013144
	9.960000	-0.048100
	9.965000	0.009921
	9.970000	0.067941
	9.975000	0.019591
	9.980000	-0.044876
	9.985000	0.006697
	9.990000	0.067941
	9.995000	0.013144
	10.000000	-0.048100
	10.005000	0.009921
	10.010000	0.074388
	10.015000	0.016368
	10.020000	-0.044876
	10.025000	0.019591
	10.030000	0.077611
	10.035000	0.016368
	10.040000	-0.038430
	10.045000	0.019591
	10.050000	0.077611
	10.055000	0.029261
	10.060000	-0.035206
	10.065000	0.026038
	10.070000	0.090505
	10.075000	0.032484
	10.080000	-0.028759
	10.085000	0.032484
	10.090000	0.096952
	10.095000	0.042154
	10.100000	-0.015866
	10.105000	0.051825
	10.110000	0.103398
	10.115000	0.051825
	10.120000	-0.012643
	10.125000	0.058271
	10.130000	0.122738
	10.135000	0.067941
	10.140000	0.009921
	10.145000	0.080835
	10.150000	0.148525
	10.155000	0.090505
	10.160000	0.038931
	10.165000	0.106622
	10.170000	0.174312
	10.175000	0.125962
	10.180000	0.071165
	10.185000	0.129185
	10.190000	0.206546
	10.195000	0.154972
	10.200000	0.103398
	10.205000	0.161419
	10.210000	0.238779
	10.215000	0.174312
	10.220000	0.122738
	10.225000	0.193652
	10.230000	0.254896
	10.235000	0.209769
	10.240000	0.151749
	10.245000	0.209769
	10.250000	0.277460
	10.255000	0.229109
	10.260000	0.174312
	10.265000	0.242003
	10.270000	0.303247
	10.275000	0.245226
	10.280000	0.190429
	10.285000	0.254896
	10.290000	0.316140
	10.295000	0.258119
	10.300000	0.222663
	10.305000	0.271013
	10.310000	0.332257
	10.315000	0.280683
	10.320000	0.225886
	10.325000	0.290353
	10.330000	0.345150
	10.335000	0.290353
	10.340000	0.238779
	10.345000	0.300023
	10.350000	0.348374
	10.355000	0.293576
	10.360000	0.238779
	10.365000	0.296800
	10.370000	0.354820
	10.375000	0.290353
	10.380000	0.238779
	10.385000	0.293576
	10.390000	0.354820
	10.395000	0.293576
	10.400000	0.235556
	10.405000	0.296800
	10.410000	0.354820
	10.415000	0.290353
	10.420000	0.235556
	10.425000	0.287130
	10.430000	0.348374
	10.435000	0.296800
	10.440000	0.232333
	10.445000	0.293576
	10.450000	0.338703
	10.455000	0.290353
	10.460000	0.225886
	10.465000	0.287130
	10.470000	0.341927
	10.475000	0.277460
	10.480000	0.225886
	10.485000	0.287130
	10.490000	0.335480
	10.495000	0.280683
	10.500000	0.219439
	10.505000	0.277460
	10.510000	0.329033
	10.515000	0.271013
	10.520000	0.219439
	10.525000	0.280683
	10.530000	0.332257
	10.535000	0.277460
	10.540000	0.225886
	10.545000	0.283906
	10.550000	0.338703
	10.555000	0.283906
	10.560000	0.229109
	10.565000	0.293576
	10.570000	0.341927
	10.575000	0.290353
	10.580000	0.242003
	10.585000	0.306470
	10.590000	0.364490
	10.595000	0.316140
	10.600000	0.267790
	10.605000	0.335480
	10.610000	0.393501
	10.615000	0.341927
	10.620000	0.290353
	10.625000	0.358044
	10.630000	0.419287
	10.635000	0.370937
	10.640000	0.322587
	10.645000	0.383830
	10.650000	0.435404
	10.655000	0.380607
	10.660000	0.329033
	10.665000	0.393501
	10.670000	0.445074
	10.675000	0.390277
	10.680000	0.335480
	10.685000	0.393501
	10.690000	0.451521
	10.695000	0.390277
	10.700000	0.345150
	10.705000	0.399947
	10.710000	0.451521
	10.715000	0.387054
	10.720000	0.338703
	10.725000	0.396724
	10.730000	0.438628
	10.735000	0.377384
	10.740000	0.325810
	10.745000	0.390277
	10.750000	0.428957
	10.755000	0.370937
	10.760000	0.322587
	10.765000	0.367714
	10.770000	0.419287
	10.775000	0.361267
	10.780000	0.309693
	10.785000	0.361267
	10.790000	0.419287
	10.795000	0.351597
	10.800000	0.303247
	10.805000	0.358044
	10.810000	0.403171
	10.815000	0.345150
	10.820000	0.300023
	10.825000	0.351597
	10.830000	0.396724
	10.835000	0.338703
	10.840000	0.287130
	10.845000	0.351597
	10.850000	0.396724
	10.855000	0.338703
	10.860000	0.287130
	10.865000	0.341927
	10.870000	0.387054
	10.875000	0.335480
	10.880000	0.293576
	10.885000	0.341927
	10.890000	0.387054
	10.895000	0.329033
	10.900000	0.280683
	10.905000	0.338703
	10.910000	0.387054
	10.915000	0.322587
	10.920000	0.267790
	10.925000	0.329033
	10.930000	0.367714
	10.935000	0.309693
	10.940000	0.254896
	10.945000	0.309693
	10.950000	0.345150
	10.955000	0.283906
	10.960000	0.219439
	10.965000	0.271013
	10.970000	0.306470
	10.975000	0.242003
	10.980000	0.177536
	10.985000	0.225886
	10.990000	0.267790
	10.995000	0.203322
	11.000000	0.148525
	11.005000	0.193652
	11.010000	0.238779
	11.015000	0.164642
	11.020000	0.109845
	11.025000	0.164642
	11.030000	0.200099
	11.035000	0.135632
	11.040000	0.084058
	11.045000	0.135632
	11.050000	0.174312
	11.055000	0.113068
	11.060000	0.064718
	11.065000	0.122738
	11.070000	0.167865
	11.075000	0.113068
	11.080000	0.067941
	11.085000	0.145302
	11.090000	0.196876
	11.095000	0.148525
	11.100000	0.113068
	11.105000	0.183982
	11.110000	0.238779
	11.115000	0.200099
	11.120000	0.167865
	11.125000	0.235556
	11.130000	0.283906
	11.135000	0.245226
	11.140000	0.200099
	11.145000	0.258119
	11.150000	0.319363
	11.155000	0.251673
	11.160000	0.212992
	11.165000	0.261343
	11.170000	0.296800
	11.175000	0.229109
	11.180000	0.171089
	11.185000	0.219439
	11.190000	0.248449
	11.195000	0.174312
	11.200000	0.116292
	11.205000	0.167865
	11.210000	0.196876
	11.215000	0.119515
	11.220000	0.067941
	11.225000	0.125962
	11.230000	0.171089
	11.235000	0.103398
	11.240000	0.061495
	11.245000	0.129185
	11.250000	0.180759
	11.255000	0.138855
	11.260000	0.109845
	11.265000	0.187206
	11.270000	0.248449
	11.275000	0.219439
	11.280000	0.190429
	11.285000	0.261343
	11.290000	0.325810
	11.295000	0.271013
	11.300000	0.238779
	11.305000	0.309693
	11.310000	0.364490
	11.315000	0.306470
	11.320000	0.264566
	11.325000	0.345150
	11.330000	0.387054
	11.335000	0.329033
	11.340000	0.293576
	11.345000	0.367714
	11.350000	0.416064
	11.355000	0.354820
	11.360000	0.322587
	11.365000	0.393501
	11.370000	0.451521
	11.375000	0.393501
	11.380000	0.358044
	11.385000	0.428957
	11.390000	0.483755
	11.395000	0.422511
	11.400000	0.383830
	11.405000	0.454744
	11.410000	0.499871
	11.415000	0.448298
	11.420000	0.409617
	11.425000	0.477308
	11.430000	0.528882
	11.435000	0.470861
	11.440000	0.438628
	11.445000	0.503095
	11.450000	0.551445
	11.455000	0.503095
	11.460000	0.464414
	11.465000	0.535328
	11.470000	0.593349
	11.475000	0.541775
	11.480000	0.499871
	11.485000	0.557892
	11.490000	0.612689
	11.495000	0.564339
	11.500000	0.519212
	11.505000	0.586902
	11.510000	0.628806
	11.515000	0.567562
	11.520000	0.535328
	11.525000	0.596572
	11.530000	0.635252
	11.535000	0.577232
	11.540000	0.535328
	11.545000	0.590125
	11.550000	0.638476
	11.555000	0.567562
	11.560000	0.528882
	11.565000	0.580455
	11.570000	0.632029
	11.575000	0.554668
	11.580000	0.509541
	11.585000	0.567562
	11.590000	0.606242
	11.595000	0.538552
	11.600000	0.490201
	11.605000	0.554668
	11.610000	0.593349
	11.615000	0.525658
	11.620000	0.480531
	11.625000	0.538552
	11.630000	0.570785
	11.635000	0.503095
	11.640000	0.451521
	11.645000	0.515988
	11.650000	0.551445
	11.655000	0.486978
	11.660000	0.441851
	11.665000	0.499871
	11.670000	0.535328
	11.675000	0.461191
	11.680000	0.412841
	11.685000	0.474085
	11.690000	0.509541
	11.695000	0.438628
	11.700000	0.383830
	11.705000	0.445074
	11.710000	0.470861
	11.715000	0.406394
	11.720000	0.354820
	11.725000	0.422511
	11.730000	0.451521
	11.735000	0.380607
	11.740000	0.332257
	11.745000	0.387054
	11.750000	0.432181
	11.755000	0.358044
	11.760000	0.309693
	11.765000	0.367714
	11.770000	0.409617
	11.775000	0.335480
	11.780000	0.280683
	11.785000	0.348374
	11.790000	0.387054
	11.795000	0.316140
	11.800000	0.271013
	11.805000	0.332257
	11.810000	0.361267
	11.815000	0.290353
	11.820000	0.251673
	11.825000	0.309693
	11.830000	0.348374
	11.835000	0.274236
	11.840000	0.229109
	11.845000	0.290353
	11.850000	0.329033
	11.855000	0.254896
	11.860000	0.212992
	11.865000	0.267790
	11.870000	0.303247
	11.875000	0.238779
	11.880000	0.190429
	11.885000	0.245226
	11.890000	0.283906
	11.895000	0.219439
	11.900000	0.167865
	11.905000	0.232333
	11.910000	0.261343
	11.915000	0.196876
	11.920000	0.145302
	11.925000	0.216216
	11.930000	0.251673
	11.935000	0.177536
	11.940000	0.129185
	11.945000	0.196876
	11.950000	0.232333
	11.955000	0.161419
	11.960000	0.113068
	11.965000	0.183982
	11.970000	0.212992
	11.975000	0.132408
	11.980000	0.100175
	11.985000	0.154972
	11.990000	0.193652
	11.995000	0.125962
	12.000000	0.071165
	12.005000	0.142079
	12.010000	0.171089
	12.015000	0.106622
	12.020000	0.061495
	12.025000	0.122738
	12.030000	0.158195
	12.035000	0.087281
	12.040000	0.048601
	12.045000	0.109845
	12.050000	0.145302
	12.055000	0.077611
	12.060000	0.038931
	12.065000	0.100175
	12.070000	0.142079
	12.075000	0.071165
	12.080000	0.026038
	12.085000	0.096952
	12.090000	0.129185
	12.095000	0.071165
	12.100000	0.022814
	12.105000	0.090505
	12.110000	0.135632
	12.115000	0.058271
	12.120000	0.019591
	12.125000	0.100175
	12.130000	0.129185
	12.135000	0.064718
	12.140000	0.029261
	12.145000	0.100175
	12.150000	0.142079
	12.155000	0.074388
	12.160000	0.038931
	12.165000	0.106622
	12.170000	0.145302
	12.175000	0.077611
	12.180000	0.045378
	12.185000	0.109845
	12.190000	0.148525
	12.195000	0.074388
	12.200000	0.038931
	12.205000	0.113068
	12.210000	0.148525
	12.215000	0.084058
	12.220000	0.038931
	12.225000	0.103398
	12.230000	0.145302
	12.235000	0.084058
	12.240000	0.029261
	12.245000	0.113068
	12.250000	0.148525
	12.255000	0.080835
	12.260000	0.038931
	12.265000	0.106622
	12.270000	0.142079
	12.275000	0.071165
	12.280000	0.029261
	12.285000	0.103398
	12.290000	0.145302
	12.295000	0.064718
	12.300000	0.032484
	12.305000	0.096952
	12.310000	0.135632
	12.315000	0.061495
	12.320000	0.022814
	12.325000	0.096952
	12.330000	0.132408
	12.335000	0.058271
	12.340000	0.013144
	12.345000	0.090505
	12.350000	0.129185
	12.355000	0.058271
	12.360000	0.009921
	12.365000	0.090505
	12.370000	0.125962
	12.375000	0.048601
	12.380000	0.013144
	12.385000	0.084058
	12.390000	0.116292
	12.395000	0.045378
	12.400000	0.006697
	12.405000	0.080835
	12.410000	0.113068
	12.415000	0.042154
	12.420000	0.003474
	12.425000	0.067941
	12.430000	0.113068
	12.435000	0.029261
	12.440000	0.000251
	12.445000	0.067941
	12.450000	0.103398
	12.455000	0.029261
	12.460000	-0.006196
	12.465000	0.071165
	12.470000	0.103398
	12.475000	0.032484
	12.480000	-0.012643
	12.485000	0.061495
	12.490000	0.096952
	12.495000	0.026038
	12.500000	-0.015866
	12.505000	0.071165
	12.510000	0.090505
	12.515000	0.022814
	12.520000	-0.022313
	12.525000	0.051825
	12.530000	0.090505
	12.535000	0.016368
	12.540000	-0.019089
	12.545000	0.051825
	12.550000	0.087281
	12.555000	0.013144
	12.560000	-0.025536
	12.565000	0.048601
	12.570000	0.084058
	12.575000	0.006697
	12.580000	-0.025536
	12.585000	0.048601
	12.590000	0.074388
	12.595000	0.003474
	12.600000	-0.031983
	12.605000	0.042154
	12.610000	0.077611
	12.615000	-0.002973
	12.620000	-0.035206
	12.625000	0.042154
	12.630000	0.071165
	12.635000	0.003474
	12.640000	-0.035206
	12.645000	0.029261
	12.650000	0.067941
	12.655000	-0.012643
	12.660000	-0.044876
	12.665000	0.026038
	12.670000	0.058271
	12.675000	-0.012643
	12.680000	-0.051323
	12.685000	0.019591
	12.690000	0.058271
	12.695000	-0.025536
	12.700000	-0.054546
	12.705000	0.016368
	12.710000	0.051825
	12.715000	-0.028759
	12.720000	-0.070663
	12.725000	0.019591
	12.730000	0.042154
	12.735000	-0.038430
	12.740000	-0.064216
	12.745000	0.003474
	12.750000	0.032484
	12.755000	-0.044876
	12.760000	-0.073886
	12.765000	-0.002973
	12.770000	0.029261
	12.775000	-0.041653
	12.780000	-0.077110
	12.785000	-0.006196
	12.790000	0.026038
	12.795000	-0.044876
	12.800000	-0.083557
	12.805000	-0.009419
	12.810000	0.029261
	12.815000	-0.044876
	12.820000	-0.080333
	12.825000	-0.012643
	12.830000	0.029261
	12.835000	-0.048100
	12.840000	-0.080333
	12.845000	0.000251
	12.850000	0.029261
	12.855000	-0.044876
	12.860000	-0.080333
	12.865000	-0.006196
	12.870000	0.029261
	12.875000	-0.044876
	12.880000	-0.077110
	12.885000	0.003474
	12.890000	0.029261
	12.895000	-0.048100
	12.900000	-0.070663
	12.905000	0.009921
	12.910000	0.032484
	12.915000	-0.048100
	12.920000	-0.077110
	12.925000	0.006697
	12.930000	0.032484
	12.935000	-0.048100
	12.940000	-0.070663
	12.945000	0.009921
	12.950000	0.038931
	12.955000	-0.041653
	12.960000	-0.070663
	12.965000	0.006697
	12.970000	0.038931
	12.975000	-0.041653
	12.980000	-0.070663
	12.985000	0.009921
	12.990000	0.038931
	12.995000	-0.035206
	13.000000	-0.060993
	13.005000	0.006697
	13.010000	0.038931
	13.015000	-0.035206
	13.020000	-0.064216
	13.025000	0.006697
	13.030000	0.042154
	13.035000	-0.041653
	13.040000	-0.070663
	13.045000	0.013144
	13.050000	0.045378
	13.055000	-0.035206
	13.060000	-0.067440
	13.065000	0.013144
	13.070000	0.035708
	13.075000	-0.044876
	13.080000	-0.077110
	13.085000	0.009921
	13.090000	0.038931
	13.095000	-0.035206
	13.100000	-0.070663
	13.105000	0.006697
	13.110000	0.038931
	13.115000	-0.044876
	13.120000	-0.073886
	13.125000	0.003474
	13.130000	0.042154
	13.135000	-0.038430
	13.140000	-0.070663
	13.145000	0.006697
	13.150000	0.035708
	13.155000	-0.044876
	13.160000	-0.067440
	13.165000	0.006697
	13.170000	0.032484
	13.175000	-0.038430
	13.180000	-0.067440
	13.185000	0.016368
	13.190000	0.038931
	13.195000	-0.041653
	13.200000	-0.070663
	13.205000	0.006697
	13.210000	0.035708
	13.215000	-0.048100
	13.220000	-0.064216
	13.225000	0.009921
	13.230000	0.045378
	13.235000	-0.041653
	13.240000	-0.070663
	13.245000	0.006697
	13.250000	0.038931
	13.255000	-0.044876
	13.260000	-0.070663
	13.265000	0.013144
	13.270000	0.035708
	13.275000	-0.044876
	13.280000	-0.067440
	13.285000	0.019591
	13.290000	0.035708
	13.295000	-0.044876
	13.300000	-0.064216
	13.305000	0.016368
	13.310000	0.038931
	13.315000	-0.031983
	13.320000	-0.060993
	13.325000	0.006697
	13.330000	0.042154
	13.335000	-0.028759
	13.340000	-0.060993
	13.345000	0.019591
	13.350000	0.045378
	13.355000	-0.031983
	13.360000	-0.054546
	13.365000	0.022814
	13.370000	0.048601
	13.375000	-0.028759
	13.380000	-0.057770
	13.385000	0.019591
	13.390000	0.048601
	13.395000	-0.025536
	13.400000	-0.057770
	13.405000	0.026038
	13.410000	0.042154
	13.415000	-0.022313
	13.420000	-0.054546
	13.425000	0.019591
	13.430000	0.048601
	13.435000	-0.031983
	13.440000	-0.057770
	13.445000	0.032484
	13.450000	0.048601
	13.455000	-0.025536
	13.460000	-0.051323
	13.465000	0.022814
	13.470000	0.048601
	13.475000	-0.031983
	13.480000	-0.054546
	13.485000	0.026038
	13.490000	0.055048
	13.495000	-0.038430
	13.500000	-0.054546
	13.505000	0.026038
	13.510000	0.048601
	13.515000	-0.031983
	13.520000	-0.041653
	13.525000	0.026038
	13.530000	0.051825
	13.535000	-0.028759
	13.540000	-0.051323
	13.545000	0.026038
	13.550000	0.051825
	13.555000	-0.028759
	13.560000	-0.048100
	13.565000	0.032484
	13.570000	0.051825
	13.575000	-0.025536
	13.580000	-0.048100
	13.585000	0.035708
	13.590000	0.051825
	13.595000	-0.022313
	13.600000	-0.048100
	13.605000	0.032484
	13.610000	0.058271
	13.615000	-0.025536
	13.620000	-0.048100
	13.625000	0.029261
	13.630000	0.051825
	13.635000	-0.019089
	13.640000	-0.048100
	13.645000	0.032484
	13.650000	0.055048
	13.655000	-0.019089
	13.660000	-0.041653
	13.665000	0.032484
	13.670000	0.061495
	13.675000	-0.019089
	13.680000	-0.038430
	13.685000	0.035708
	13.690000	0.055048
	13.695000	-0.025536
	13.700000	-0.044876
	13.705000	0.032484
	13.710000	0.051825
	13.715000	-0.022313
	13.720000	-0.041653
	13.725000	0.032484
	13.730000	0.051825
	13.735000	-0.025536
	13.740000	-0.051323
	13.745000	0.032484
	13.750000	0.058271
	13.755000	-0.025536
	13.760000	-0.048100
	13.765000	0.032484
	13.770000	0.051825
	13.775000	-0.025536
	13.780000	-0.051323
	13.785000	0.035708
	13.790000	0.055048
	13.795000	-0.028759
	13.800000	-0.051323
	13.805000	0.032484
	13.810000	0.048601
	13.815000	-0.031983
	13.820000	-0.048100
	13.825000	0.035708
	13.830000	0.055048
	13.835000	-0.035206
	13.840000	-0.048100
	13.845000	0.029261
	13.850000	0.055048
	13.855000	-0.031983
	13.860000	-0.044876
	13.865000	0.032484
	13.870000	0.048601
	13.875000	-0.025536
	13.880000	-0.048100
	13.885000	0.029261
	13.890000	0.045378
	13.895000	-0.028759
	13.900000	-0.048100
	13.905000	0.035708
	13.910000	0.042154
	13.915000	-0.028759
	13.920000	-0.051323
	13.925000	0.022814
	13.930000	0.048601
	13.935000	-0.028759
	13.940000	-0.054546
	13.945000	0.026038
	13.950000	0.051825
	13.955000	-0.035206
	13.960000	-0.048100
	13.965000	0.026038
	13.970000	0.045378
	13.975000	-0.038430
	13.980000	-0.054546
	13.985000	0.022814
	13.990000	0.045378
	13.995000	-0.035206
	14.000000	-0.051323
	14.005000	0.022814
	14.010000	0.048601
	14.015000	-0.038430
	14.020000	-0.057770
	14.025000	0.032484
	14.030000	0.045378
	14.035000	-0.038430
	14.040000	-0.057770
	14.045000	0.026038
	14.050000	0.048601
	14.055000	-0.041653
	14.060000	-0.054546
	14.065000	0.038931
	14.070000	0.048601
	14.075000	-0.038430
	14.080000	-0.057770
	14.085000	0.026038
	14.090000	0.048601
	14.095000	-0.038430
	14.100000	-0.054546
	14.105000	0.026038
	14.110000	0.045378
	14.115000	-0.038430
	14.120000	-0.051323
	14.125000	0.032484
	14.130000	0.038931
	14.135000	-0.041653
	14.140000	-0.044876
	14.145000	0.032484
	14.150000	0.045378
	14.155000	-0.038430
	14.160000	-0.051323
	14.165000	0.029261
	14.170000	0.045378
	14.175000	-0.048100
	14.180000	-0.054546
	14.185000	0.026038
	14.190000	0.045378
	14.195000	-0.044876
	14.200000	-0.051323
	14.205000	0.022814
	14.210000	0.045378
	14.215000	-0.044876
	14.220000	-0.057770
	14.225000	0.022814
	14.230000	0.032484
	14.235000	-0.051323
	14.240000	-0.067440
	14.245000	0.013144
	14.250000	0.032484
	14.255000	-0.051323
	14.260000	-0.070663
	14.265000	0.019591
	14.270000	0.032484
	14.275000	-0.054546
	14.280000	-0.070663
	14.285000	0.016368
	14.290000	0.022814
	14.295000	-0.057770
	14.300000	-0.070663
	14.305000	0.003474
	14.310000	0.022814
	14.315000	-0.067440
	14.320000	-0.064216
	14.325000	0.016368
	14.330000	0.022814
	14.335000	-0.054546
	14.340000	-0.067440
	14.345000	0.013144
	14.350000	0.029261
	14.355000	-0.057770
	14.360000	-0.067440
	14.365000	0.016368
	14.370000	0.022814
	14.375000	-0.054546
	14.380000	-0.060993
	14.385000	0.026038
	14.390000	0.022814
	14.395000	-0.054546
	14.400000	-0.067440
	14.405000	0.026038
	14.410000	0.026038
	14.415000	-0.054546
	14.420000	-0.057770
	14.425000	0.022814
	14.430000	0.032484
	14.435000	-0.051323
	14.440000	-0.060993
	14.445000	0.019591
	14.450000	0.032484
	14.455000	-0.048100
	14.460000	-0.064216
	14.465000	0.026038
	14.470000	0.038931
	14.475000	-0.060993
	14.480000	-0.060993
	14.485000	0.022814
	14.490000	0.032484
	14.495000	-0.048100
	14.500000	-0.057770
	14.505000	0.029261
	14.510000	0.038931
	14.515000	-0.041653
	14.520000	-0.057770
	14.525000	0.032484
	14.530000	0.029261
	14.535000	-0.048100
	14.540000	-0.057770
	14.545000	0.032484
	14.550000	0.029261
	14.555000	-0.044876
	14.560000	-0.054546
	14.565000	0.022814
	14.570000	0.038931
	14.575000	-0.051323
	14.580000	-0.057770
	14.585000	0.026038
	14.590000	0.042154
	14.595000	-0.048100
	14.600000	-0.054546
	14.605000	0.032484
	14.610000	0.035708
	14.615000	-0.044876
	14.620000	-0.060993
	14.625000	0.032484
	14.630000	0.035708
	14.635000	-0.041653
	14.640000	-0.051323
	14.645000	0.035708
	14.650000	0.048601
	14.655000	-0.041653
	14.660000	-0.041653
	14.665000	0.029261
	14.670000	0.042154
	14.675000	-0.038430
	14.680000	-0.044876
	14.685000	0.035708
	14.690000	0.045378
	14.695000	-0.041653
	14.700000	-0.051323
	14.705000	0.032484
	14.710000	0.042154
	14.715000	-0.044876
	14.720000	-0.054546
	14.725000	0.035708
	14.730000	0.042154
	14.735000	-0.051323
	14.740000	-0.051323
	14.745000	0.026038
	14.750000	0.045378
	14.755000	-0.048100
	14.760000	-0.048100
	14.765000	0.035708
	14.770000	0.035708
	14.775000	-0.035206
	14.780000	-0.038430
	14.785000	0.042154
	14.790000	0.045378
	14.795000	-0.038430
	14.800000	-0.044876
	14.805000	0.045378
	14.810000	0.048601
	14.815000	-0.031983
	14.820000	-0.041653
	14.825000	0.048601
	14.830000	0.045378
	14.835000	-0.031983
	14.840000	-0.035206
	14.845000	0.045378
	14.850000	0.051825
	14.855000	-0.031983
	14.860000	-0.028759
	14.865000	0.051825
	14.870000	0.061495
	14.875000	-0.019089
	14.880000	-0.019089
	14.885000	0.067941
	14.890000	0.067941
	14.895000	-0.015866
	14.900000	-0.015866
	14.905000	0.071165
	14.910000	0.077611
	14.915000	-0.009419
	14.920000	-0.009419
	14.925000	0.080835
	14.930000	0.084058
	14.935000	0.003474
	14.940000	-0.006196
	14.945000	0.090505
	14.950000	0.090505
	14.955000	0.009921
	14.960000	0.006697
	14.965000	0.090505
	14.970000	0.103398
	14.975000	0.016368
	14.980000	0.016368
	14.985000	0.096952
	14.990000	0.106622
	14.995000	0.026038
	15.000000	0.022814
	15.005000	0.103398
	15.010000	0.103398
	15.015000	0.022814
	15.020000	0.019591
	15.025000	0.106622
	15.030000	0.106622
	15.035000	0.032484
	15.040000	0.029261
	15.045000	0.113068
	15.050000	0.109845
	15.055000	0.029261
	15.060000	0.038931
	15.065000	0.119515
	15.070000	0.116292
	15.075000	0.035708
	15.080000	0.038931
	15.085000	0.125962
	15.090000	0.125962
	15.095000	0.045378
	15.100000	0.045378
	15.105000	0.135632
	15.110000	0.135632
	15.115000	0.051825
	15.120000	0.055048
	15.125000	0.138855
	15.130000	0.142079
	15.135000	0.064718
	15.140000	0.067941
	15.145000	0.151749
	15.150000	0.154972
	15.155000	0.067941
	15.160000	0.077611
	15.165000	0.161419
	15.170000	0.164642
	15.175000	0.077611
	15.180000	0.077611
	15.185000	0.161419
	15.190000	0.167865
	15.195000	0.080835
	15.200000	0.087281
	15.205000	0.167865
	15.210000	0.174312
	15.215000	0.090505
	15.220000	0.100175
	15.225000	0.180759
	15.230000	0.177536
	15.235000	0.096952
	15.240000	0.100175
	15.245000	0.187206
	15.250000	0.193652
	15.255000	0.109845
	15.260000	0.113068
	15.265000	0.193652
	15.270000	0.196876
	15.275000	0.116292
	15.280000	0.116292
	15.285000	0.196876
	15.290000	0.200099
	15.295000	0.113068
	15.300000	0.116292
	15.305000	0.203322
	15.310000	0.203322
	15.315000	0.119515
	15.320000	0.116292
	15.325000	0.200099
	15.330000	0.200099
	15.335000	0.113068
	15.340000	0.122738
	15.345000	0.200099
	15.350000	0.203322
	15.355000	0.113068
	15.360000	0.109845
	15.365000	0.200099
	15.370000	0.203322
	15.375000	0.116292
	15.380000	0.109845
	15.385000	0.196876
	15.390000	0.190429
	15.395000	0.113068
	15.400000	0.116292
	15.405000	0.196876
	15.410000	0.196876
	15.415000	0.116292
	15.420000	0.116292
	15.425000	0.190429
	15.430000	0.200099
	15.435000	0.113068
	15.440000	0.119515
	15.445000	0.193652
	15.450000	0.193652
	15.455000	0.109845
	15.460000	0.116292
	15.465000	0.203322
	15.470000	0.196876
	15.475000	0.113068
	15.480000	0.119515
	15.485000	0.209769
	15.490000	0.206546
	15.495000	0.116292
	15.500000	0.125962
	15.505000	0.206546
	15.510000	0.209769
	15.515000	0.125962
	15.520000	0.135632
	15.525000	0.209769
	15.530000	0.206546
	15.535000	0.132408
	15.540000	0.132408
	15.545000	0.216216
	15.550000	0.212992
	15.555000	0.132408
	15.560000	0.142079
	15.565000	0.222663
	15.570000	0.225886
	15.575000	0.142079
	15.580000	0.145302
	15.585000	0.232333
	15.590000	0.232333
	15.595000	0.151749
	15.600000	0.161419
	15.605000	0.235556
	15.610000	0.238779
	15.615000	0.151749
	15.620000	0.158195
	15.625000	0.235556
	15.630000	0.232333
	15.635000	0.158195
	15.640000	0.151749
	15.645000	0.235556
	15.650000	0.235556
	15.655000	0.151749
	15.660000	0.158195
	15.665000	0.248449
	15.670000	0.238779
	15.675000	0.164642
	15.680000	0.174312
	15.685000	0.248449
	15.690000	0.251673
	15.695000	0.167865
	15.700000	0.183982
	15.705000	0.261343
	15.710000	0.258119
	15.715000	0.187206
	15.720000	0.193652
	15.725000	0.277460
	15.730000	0.267790
	15.735000	0.196876
	15.740000	0.203322
	15.745000	0.283906
	15.750000	0.283906
	15.755000	0.196876
	15.760000	0.212992
	15.765000	0.303247
	15.770000	0.293576
	15.775000	0.216216
	15.780000	0.232333
	15.785000	0.312917
	15.790000	0.306470
	15.795000	0.225886
	15.800000	0.245226
	15.805000	0.325810
	15.810000	0.325810
	15.815000	0.235556
	15.820000	0.238779
	15.825000	0.322587
	15.830000	0.319363
	15.835000	0.235556
	15.840000	0.251673
	15.845000	0.322587
	15.850000	0.319363
	15.855000	0.238779
	15.860000	0.245226
	15.865000	0.322587
	15.870000	0.316140
	15.875000	0.235556
	15.880000	0.235556
	15.885000	0.309693
	15.890000	0.296800
	15.895000	0.222663
	15.900000	0.222663
	15.905000	0.280683
	15.910000	0.261343
	15.915000	0.171089
	15.920000	0.158195
	15.925000	0.222663
	15.930000	0.203322
	15.935000	0.100175
	15.940000	0.096952
	15.945000	0.161419
	15.950000	0.142079
	15.955000	0.048601
	15.960000	0.045378
	15.965000	0.119515
	15.970000	0.100175
	15.975000	0.029261
	15.980000	0.032484
	15.985000	0.103398
	15.990000	0.096952
	15.995000	0.029261
	16.000000	0.042154
	16.005000	0.122738
	16.010000	0.125962
	16.015000	0.055048
	16.020000	0.080835
	16.025000	0.171089
	16.030000	0.180759
	16.035000	0.125962
	16.040000	0.151749
	16.045000	0.245226
	16.050000	0.251673
	16.055000	0.200099
	16.060000	0.222663
	16.065000	0.306470
	16.070000	0.306470
	16.075000	0.229109
	16.080000	0.245226
	16.085000	0.329033
	16.090000	0.316140
	16.095000	0.232333
	16.100000	0.242003
	16.105000	0.306470
	16.110000	0.290353
	16.115000	0.200099
	16.120000	0.193652
	16.125000	0.245226
	16.130000	0.219439
	16.135000	0.125962
	16.140000	0.113068
	16.145000	0.167865
	16.150000	0.135632
	16.155000	0.045378
	16.160000	0.048601
	16.165000	0.109845
	16.170000	0.080835
	16.175000	0.003474
	16.180000	0.000251
	16.185000	0.071165
	16.190000	0.055048
	16.195000	-0.031983
	16.200000	-0.022313
	16.205000	0.051825
	16.210000	0.038931
	16.215000	-0.041653
	16.220000	-0.031983
	16.225000	0.045378
	16.230000	0.032484
	16.235000	-0.041653
	16.240000	-0.028759
	16.245000	0.051825
	16.250000	0.038931
	16.255000	-0.038430
	16.260000	-0.028759
	16.265000	0.051825
	16.270000	0.045378
	16.275000	-0.035206
	16.280000	-0.031983
	16.285000	0.051825
	16.290000	0.045378
	16.295000	-0.044876
	16.300000	-0.035206
	16.305000	0.051825
	16.310000	0.038931
	16.315000	-0.044876
	16.320000	-0.031983
	16.325000	0.042154
	16.330000	0.032484
	16.335000	-0.051323
	16.340000	-0.038430
	16.345000	0.045378
	16.350000	0.022814
	16.355000	-0.057770
	16.360000	-0.051323
	16.365000	0.026038
	16.370000	0.009921
	16.375000	-0.073886
	16.380000	-0.067440
	16.385000	0.006697
	16.390000	-0.012643
	16.395000	-0.096450
	16.400000	-0.090003
	16.405000	-0.006196
	16.410000	-0.031983
	16.415000	-0.109343
	16.420000	-0.099673
	16.425000	-0.019089
	16.430000	-0.038430
	16.435000	-0.128684
	16.440000	-0.109343
	16.445000	-0.031983
	16.450000	-0.051323
	16.455000	-0.135130
	16.460000	-0.128684
	16.465000	-0.044876
	16.470000	-0.060993
	16.475000	-0.148024
	16.480000	-0.128684
	16.485000	-0.051323
	16.490000	-0.067440
	16.495000	-0.154470
	16.500000	-0.148024
	16.505000	-0.060993
	16.510000	-0.080333
	16.515000	-0.160917
	16.520000	-0.144800
	16.525000	-0.070663
	16.530000	-0.080333
	16.535000	-0.167364
	16.540000	-0.151247
	16.545000	-0.067440
	16.550000	-0.083557
	16.555000	-0.170587
	16.560000	-0.154470
	16.565000	-0.077110
	16.570000	-0.083557
	16.575000	-0.177034
	16.580000	-0.151247
	16.585000	-0.077110
	16.590000	-0.096450
	16.595000	-0.180257
	16.600000	-0.160917
	16.605000	-0.083557
	16.610000	-0.106120
	16.615000	-0.183481
	16.620000	-0.170587
	16.625000	-0.093227
	16.630000	-0.106120
	16.635000	-0.193151
	16.640000	-0.167364
	16.645000	-0.093227
	16.650000	-0.102897
	16.655000	-0.186704
	16.660000	-0.167364
	16.665000	-0.083557
	16.670000	-0.096450
	16.675000	-0.186704
	16.680000	-0.160917
	16.685000	-0.083557
	16.690000	-0.109343
	16.695000	-0.189927
	16.700000	-0.170587
	16.705000	-0.086780
	16.710000	-0.102897
	16.715000	-0.193151
	16.720000	-0.167364
	16.725000	-0.093227
	16.730000	-0.109343
	16.735000	-0.189927
	16.740000	-0.167364
	16.745000	-0.083557
	16.750000	-0.106120
	16.755000	-0.186704
	16.760000	-0.170587
	16.765000	-0.096450
	16.770000	-0.122237
	16.775000	-0.193151
	16.780000	-0.180257
	16.785000	-0.090003
	16.790000	-0.115790
	16.795000	-0.193151
	16.800000	-0.170587
	16.805000	-0.096450
	16.810000	-0.112567
	16.815000	-0.186704
	16.820000	-0.167364
	16.825000	-0.090003
	16.830000	-0.112567
	16.835000	-0.199597
	16.840000	-0.173811
	16.845000	-0.090003
	16.850000	-0.106120
	16.855000	-0.189927
	16.860000	-0.173811
	16.865000	-0.090003
	16.870000	-0.112567
	16.875000	-0.193151
	16.880000	-0.170587
	16.885000	-0.090003
	16.890000	-0.099673
	16.895000	-0.183481
	16.900000	-0.167364
	16.905000	-0.083557
	16.910000	-0.099673
	16.915000	-0.189927
	16.920000	-0.167364
	16.925000	-0.086780
	16.930000	-0.106120
	16.935000	-0.186704
	16.940000	-0.164141
	16.945000	-0.080333
	16.950000	-0.106120
	16.955000	-0.180257
	16.960000	-0.160917
	16.965000	-0.083557
	16.970000	-0.102897
	16.975000	-0.189927
	16.980000	-0.167364
	16.985000	-0.083557
	16.990000	-0.096450
	16.995000	-0.189927
	17.000000	-0.160917
	17.005000	-0.083557
	17.010000	-0.099673
	17.015000	-0.183481
	17.020000	-0.154470
	17.025000	-0.080333
	17.030000	-0.102897
	17.035000	-0.183481
	17.040000	-0.157694
	17.045000	-0.077110
	17.050000	-0.086780
	17.055000	-0.186704
	17.060000	-0.164141
	17.065000	-0.077110
	17.070000	-0.099673
	17.075000	-0.177034
	17.080000	-0.154470
	17.085000	-0.073886
	17.090000	-0.102897
	17.095000	-0.183481
	17.100000	-0.164141
	17.105000	-0.073886
	17.110000	-0.096450
	17.115000	-0.180257
	17.120000	-0.148024
	17.125000	-0.060993
	17.130000	-0.099673
	17.135000	-0.180257
	17.140000	-0.144800
	17.145000	-0.070663
	17.150000	-0.086780
	17.155000	-0.177034
	17.160000	-0.141577
	17.165000	-0.070663
	17.170000	-0.090003
	17.175000	-0.170587
	17.180000	-0.138354
	17.185000	-0.064216
	17.190000	-0.083557
	17.195000	-0.167364
	17.200000	-0.144800
	17.205000	-0.060993
	17.210000	-0.093227
	17.215000	-0.167364
	17.220000	-0.135130
	17.225000	-0.060993
	17.230000	-0.080333
	17.235000	-0.160917
	17.240000	-0.135130
	17.245000	-0.054546
	17.250000	-0.083557
	17.255000	-0.160917
	17.260000	-0.138354
	17.265000	-0.048100
	17.270000	-0.083557
	17.275000	-0.157694
	17.280000	-0.125460
	17.285000	-0.048100
	17.290000	-0.070663
	17.295000	-0.160917
	17.300000	-0.128684
	17.305000	-0.051323
	17.310000	-0.070663
	17.315000	-0.154470
	17.320000	-0.122237
	17.325000	-0.044876
	17.330000	-0.073886
	17.335000	-0.151247
	17.340000	-0.128684
	17.345000	-0.041653
	17.350000	-0.070663
	17.355000	-0.144800
	17.360000	-0.119014
	17.365000	-0.044876
	17.370000	-0.067440
	17.375000	-0.144800
	17.380000	-0.115790
	17.385000	-0.038430
	17.390000	-0.067440
	17.395000	-0.154470
	17.400000	-0.122237
	17.405000	-0.044876
	17.410000	-0.067440
	17.415000	-0.144800
	17.420000	-0.112567
	17.425000	-0.041653
	17.430000	-0.057770
	17.435000	-0.144800
	17.440000	-0.115790
	17.445000	-0.038430
	17.450000	-0.064216
	17.455000	-0.138354
	17.460000	-0.112567
	17.465000	-0.031983
	17.470000	-0.060993
	17.475000	-0.141577
	17.480000	-0.109343
	17.485000	-0.035206
	17.490000	-0.057770
	17.495000	-0.141577
	17.500000	-0.109343
	17.505000	-0.028759
	17.510000	-0.054546
	17.515000	-0.135130
	17.520000	-0.102897
	17.525000	-0.025536
	17.530000	-0.060993
	17.535000	-0.135130
	17.540000	-0.102897
	17.545000	-0.028759
	17.550000	-0.054546
	17.555000	-0.135130
	17.560000	-0.099673
	17.565000	-0.025536
	17.570000	-0.054546
	17.575000	-0.131907
	17.580000	-0.106120
	17.585000	-0.022313
	17.590000	-0.048100
	17.595000	-0.131907
	17.600000	-0.106120
	17.605000	-0.028759
	17.610000	-0.057770
	17.615000	-0.138354
	17.620000	-0.099673
	17.625000	-0.025536
	17.630000	-0.051323
	17.635000	-0.125460
	17.640000	-0.099673
	17.645000	-0.025536
	17.650000	-0.054546
	17.655000	-0.131907
	17.660000	-0.102897
	17.665000	-0.025536
	17.670000	-0.054546
	17.675000	-0.135130
	17.680000	-0.102897
	17.685000	-0.019089
	17.690000	-0.054546
	17.695000	-0.131907
	17.700000	-0.099673
	17.705000	-0.025536
	17.710000	-0.054546
	17.715000	-0.135130
	17.720000	-0.096450
	17.725000	-0.022313
	17.730000	-0.060993
	17.735000	-0.135130
	17.740000	-0.096450
	17.745000	-0.028759
	17.750000	-0.051323
	17.755000	-0.138354
	17.760000	-0.102897
	17.765000	-0.025536
	17.770000	-0.054546
	17.775000	-0.135130
	17.780000	-0.102897
	17.785000	-0.025536
	17.790000	-0.057770
	17.795000	-0.141577
	17.800000	-0.102897
	17.805000	-0.022313
	17.810000	-0.054546
	17.815000	-0.141577
	17.820000	-0.096450
	17.825000	-0.025536
	17.830000	-0.054546
	17.835000	-0.144800
	17.840000	-0.102897
	17.845000	-0.019089
	17.850000	-0.054546
	17.855000	-0.128684
	17.860000	-0.096450
	17.865000	-0.019089
	17.870000	-0.064216
	17.875000	-0.128684
	17.880000	-0.099673
	17.885000	-0.019089
	17.890000	-0.060993
	17.895000	-0.135130
	17.900000	-0.099673
	17.905000	-0.022313
	17.910000	-0.057770
	17.915000	-0.135130
	17.920000	-0.102897
	17.925000	-0.022313
	17.930000	-0.057770
	17.935000	-0.141577
	17.940000	-0.102897
	17.945000	-0.031983
	17.950000	-0.064216
	17.955000	-0.138354
	17.960000	-0.096450
	17.965000	-0.031983
	17.970000	-0.064216
	17.975000	-0.141577
	17.980000	-0.106120
	17.985000	-0.031983
	17.990000	-0.057770
	17.995000	-0.138354
	18.000000	-0.109343
	18.005000	-0.028759
	18.010000	-0.070663
	18.015000	-0.141577
	18.020000	-0.102897
	18.025000	-0.025536
	18.030000	-0.060993
	18.035000	-0.141577
	18.040000	-0.109343
	18.045000	-0.031983
	18.050000	-0.060993
	18.055000	-0.144800
	18.060000	-0.112567
	18.065000	-0.031983
	18.070000	-0.060993
	18.075000	-0.144800
	18.080000	-0.106120
	18.085000	-0.035206
	18.090000	-0.070663
	18.095000	-0.141577
	18.100000	-0.102897
	18.105000	-0.028759
	18.110000	-0.064216
	18.115000	-0.141577
	18.120000	-0.102897
	18.125000	-0.031983
	18.130000	-0.057770
	18.135000	-0.138354
	18.140000	-0.090003
	18.145000	-0.019089
	18.150000	-0.057770
	18.155000	-0.138354
	18.160000	-0.096450
	18.165000	-0.022313
	18.170000	-0.060993
	18.175000	-0.128684
	18.180000	-0.099673
	18.185000	-0.019089
	18.190000	-0.054546
	18.195000	-0.128684
	18.200000	-0.090003
	18.205000	-0.022313
	18.210000	-0.057770
	18.215000	-0.128684
	18.220000	-0.090003
	18.225000	-0.012643
	18.230000	-0.048100
	18.235000	-0.131907
	18.240000	-0.093227
	18.245000	-0.019089
	18.250000	-0.048100
	18.255000	-0.128684
	18.260000	-0.090003
	18.265000	-0.019089
	18.270000	-0.051323
	18.275000	-0.128684
	18.280000	-0.083557
	18.285000	-0.015866
	18.290000	-0.051323
	18.295000	-0.122237
	18.300000	-0.090003
	18.305000	-0.015866
	18.310000	-0.048100
	18.315000	-0.125460
	18.320000	-0.083557
	18.325000	-0.009419
	18.330000	-0.054546
	18.335000	-0.122237
	18.340000	-0.086780
	18.345000	-0.006196
	18.350000	-0.044876
	18.355000	-0.115790
	18.360000	-0.080333
	18.365000	0.000251
	18.370000	-0.044876
	18.375000	-0.115790
	18.380000	-0.077110
	18.385000	-0.002973
	18.390000	-0.035206
	18.395000	-0.115790
	18.400000	-0.073886
	18.405000	0.003474
	18.410000	-0.028759
	18.415000	-0.115790
	18.420000	-0.067440
	18.425000	0.003474
	18.430000	-0.035206
	18.435000	-0.112567
	18.440000	-0.067440
	18.445000	0.003474
	18.450000	-0.031983
	18.455000	-0.106120
	18.460000	-0.060993
	18.465000	0.013144
	18.470000	-0.031983
	18.475000	-0.112567
	18.480000	-0.064216
	18.485000	0.003474
	18.490000	-0.035206
	18.495000	-0.106120
	18.500000	-0.067440
	18.505000	0.006697
	18.510000	-0.038430
	18.515000	-0.115790
	18.520000	-0.070663
	18.525000	0.000251
	18.530000	-0.048100
	18.535000	-0.125460
	18.540000	-0.073886
	18.545000	-0.006196
	18.550000	-0.051323
	18.555000	-0.122237
	18.560000	-0.080333
	18.565000	-0.009419
	18.570000	-0.048100
	18.575000	-0.125460
	18.580000	-0.086780
	18.585000	0.000251
	18.590000	-0.057770
	18.595000	-0.131907
	18.600000	-0.086780
	18.605000	-0.012643
	18.610000	-0.051323
	18.615000	-0.135130
	18.620000	-0.083557
	18.625000	-0.015866
	18.630000	-0.060993
	18.635000	-0.135130
	18.640000	-0.083557
	18.645000	-0.019089
	18.650000	-0.057770
	18.655000	-0.135130
	18.660000	-0.086780
	18.665000	-0.019089
	18.670000	-0.067440
	18.675000	-0.138354
	18.680000	-0.090003
	18.685000	-0.012643
	18.690000	-0.064216
	18.695000	-0.138354
	18.700000	-0.090003
	18.705000	-0.022313
	18.710000	-0.054546
	18.715000	-0.135130
	18.720000	-0.090003
	18.725000	-0.015866
	18.730000	-0.064216
	18.735000	-0.131907
	18.740000	-0.096450
	18.745000	-0.022313
	18.750000	-0.067440
	18.755000	-0.144800
	18.760000	-0.093227
	18.765000	-0.025536
	18.770000	-0.070663
	18.775000	-0.141577
	18.780000	-0.102897
	18.785000	-0.025536
	18.790000	-0.070663
	18.795000	-0.144800
	18.800000	-0.099673
	18.805000	-0.025536
	18.810000	-0.070663
	18.815000	-0.151247
	18.820000	-0.102897
	18.825000	-0.025536
	18.830000	-0.073886
	18.835000	-0.141577
	18.840000	-0.096450
	18.845000	-0.022313
	18.850000	-0.060993
	18.855000	-0.141577
	18.860000	-0.086780
	18.865000	-0.015866
	18.870000	-0.073886
	18.875000	-0.141577
	18.880000	-0.090003
	18.885000	-0.025536
	18.890000	-0.060993
	18.895000	-0.138354
	18.900000	-0.093227
	18.905000	-0.015866
	18.910000	-0.067440
	18.915000	-0.131907
	18.920000	-0.083557
	18.925000	-0.012643
	18.930000	-0.054546
	18.935000	-0.128684
	18.940000	-0.083557
	18.945000	-0.015866
	18.950000	-0.054546
	18.955000	-0.125460
	18.960000	-0.077110
	18.965000	-0.006196
	18.970000	-0.051323
	18.975000	-0.122237
	18.980000	-0.080333
	18.985000	-0.006196
	18.990000	-0.060993
	18.995000	-0.125460
	19.000000	-0.077110
	19.005000	-0.006196
	19.010000	-0.057770
	19.015000	-0.128684
	19.020000	-0.077110
	19.025000	-0.002973
	19.030000	-0.054546
	19.035000	-0.128684
	19.040000	-0.073886
	19.045000	-0.009419
	19.050000	-0.054546
	19.055000	-0.128684
	19.060000	-0.077110
	19.065000	-0.006196
	19.070000	-0.057770
	19.075000	-0.125460
	19.080000	-0.080333
	19.085000	-0.006196
	19.090000	-0.057770
	19.095000	-0.115790
	19.100000	-0.077110
	19.105000	-0.002973
	19.110000	-0.051323
	19.115000	-0.115790
	19.120000	-0.077110
	19.125000	0.003474
	19.130000	-0.048100
	19.135000	-0.112567
	19.140000	-0.070663
	19.145000	-0.002973
	19.150000	-0.057770
	19.155000	-0.122237
	19.160000	-0.073886
	19.165000	-0.006196
	19.170000	-0.051323
	19.175000	-0.125460
	19.180000	-0.077110
	19.185000	-0.006196
	19.190000	-0.057770
	19.195000	-0.131907
	19.200000	-0.080333
	19.205000	-0.002973
	19.210000	-0.064216
	19.215000	-0.135130
	19.220000	-0.070663
	19.225000	-0.012643
	19.230000	-0.064216
	19.235000	-0.141577
	19.240000	-0.083557
	19.245000	-0.015866
	19.250000	-0.070663
	19.255000	-0.131907
	19.260000	-0.080333
	19.265000	-0.012643
	19.270000	-0.064216
	19.275000	-0.131907
	19.280000	-0.077110
	19.285000	-0.012643
	19.290000	-0.057770
	19.295000	-0.128684
	19.300000	-0.070663
	19.305000	-0.009419
	19.310000	-0.054546
	19.315000	-0.119014
	19.320000	-0.060993
	19.325000	-0.002973
	19.330000	-0.057770
	19.335000	-0.119014
	19.340000	-0.057770
	19.345000	0.016368
	19.350000	-0.048100
	19.355000	-0.106120
	19.360000	-0.051323
	19.365000	0.016368
	19.370000	-0.035206
	19.375000	-0.106120
	19.380000	-0.044876
	19.385000	0.019591
	19.390000	-0.031983
	19.395000	-0.106120
	19.400000	-0.035206
	19.405000	0.029261
	19.410000	-0.028759
	19.415000	-0.090003
	19.420000	-0.031983
	19.425000	0.032484
	19.430000	-0.015866
	19.435000	-0.083557
	19.440000	-0.025536
	19.445000	0.045378
	19.450000	-0.006196
	19.455000	-0.073886
	19.460000	-0.019089
	19.465000	0.048601
	19.470000	0.000251
	19.475000	-0.067440
	19.480000	-0.012643
	19.485000	0.058271
	19.490000	0.003474
	19.495000	-0.064216
	19.500000	0.000251
	19.505000	0.064718
	19.510000	0.013144
	19.515000	-0.048100
	19.520000	0.013144
	19.525000	0.080835
	19.530000	0.026038
	19.535000	-0.041653
	19.540000	0.029261
	19.545000	0.096952
	19.550000	0.038931
	19.555000	-0.022313
	19.560000	0.035708
	19.565000	0.106622
	19.570000	0.055048
	19.575000	-0.009419
	19.580000	0.055048
	19.585000	0.119515
	19.590000	0.064718
	19.595000	0.003474
	19.600000	0.064718
	19.605000	0.132408
	19.610000	0.074388
	19.615000	0.013144
	19.620000	0.067941
	19.625000	0.138855
	19.630000	0.084058
	19.635000	0.019591
	19.640000	0.090505
	19.645000	0.148525
	19.650000	0.100175
	19.655000	0.032484
	19.660000	0.093728
	19.665000	0.158195
	19.670000	0.103398
	19.675000	0.045378
	19.680000	0.103398
	19.685000	0.164642
	19.690000	0.116292
	19.695000	0.051825
	19.700000	0.106622
	19.705000	0.171089
	19.710000	0.129185
	19.715000	0.061495
	19.720000	0.122738
	19.725000	0.180759
	19.730000	0.125962
	19.735000	0.067941
	19.740000	0.125962
	19.745000	0.187206
	19.750000	0.138855
	19.755000	0.077611
	19.760000	0.142079
	19.765000	0.200099
	19.770000	0.142079
	19.775000	0.084058
	19.780000	0.138855
	19.785000	0.203322
	19.790000	0.145302
	19.795000	0.087281
	19.800000	0.148525
	19.805000	0.206546
	19.810000	0.148525
	19.815000	0.090505
	19.820000	0.154972
	19.825000	0.206546
	19.830000	0.148525
	19.835000	0.090505
	19.840000	0.154972
	19.845000	0.209769
	19.850000	0.145302
	19.855000	0.093728
	19.860000	0.145302
	19.865000	0.212992
	19.870000	0.148525
	19.875000	0.093728
	19.880000	0.145302
	19.885000	0.212992
	19.890000	0.145302
	19.895000	0.090505
	19.900000	0.151749
	19.905000	0.200099
	19.910000	0.148525
	19.915000	0.090505
	19.920000	0.142079
	19.925000	0.206546
	19.930000	0.145302
	19.935000	0.087281
	19.940000	0.145302
	19.945000	0.196876
	19.950000	0.135632
	19.955000	0.080835
	19.960000	0.135632
	19.965000	0.200099
	19.970000	0.135632
	19.975000	0.077611
	19.980000	0.132408
	19.985000	0.193652
	19.990000	0.135632
	19.995000	0.077611
	20.000000	0.129185
	20.005000	0.193652
	20.010000	0.132408
	20.015000	0.071165
	20.020000	0.138855
	20.025000	0.187206
	20.030000	0.125962
	20.035000	0.077611
	20.040000	0.138855
	20.045000	0.187206
	20.050000	0.129185
	20.055000	0.077611
	20.060000	0.132408
	20.065000	0.190429
	20.070000	0.129185
	20.075000	0.064718
	20.080000	0.132408
	20.085000	0.187206
	20.090000	0.125962
	20.095000	0.071165
	20.100000	0.132408
	20.105000	0.190429
	20.110000	0.125962
	20.115000	0.067941
	20.120000	0.129185
	20.125000	0.180759
	20.130000	0.132408
	20.135000	0.067941
	20.140000	0.129185
	20.145000	0.190429
	20.150000	0.129185
	20.155000	0.077611
	20.160000	0.138855
	20.165000	0.196876
	20.170000	0.142079
	20.175000	0.093728
	20.180000	0.158195
	20.185000	0.216216
	20.190000	0.154972
	20.195000	0.106622
	20.200000	0.174312
	20.205000	0.229109
	20.210000	0.174312
	20.215000	0.122738
	20.220000	0.183982
	20.225000	0.242003
	20.230000	0.177536
	20.235000	0.135632
	20.240000	0.203322
	20.245000	0.258119
	20.250000	0.196876
	20.255000	0.142079
	20.260000	0.209769
	20.265000	0.271013
	20.270000	0.209769
	20.275000	0.161419
	20.280000	0.229109
	20.285000	0.280683
	20.290000	0.229109
	20.295000	0.177536
	20.300000	0.245226
	20.305000	0.296800
	20.310000	0.232333
	20.315000	0.193652
	20.320000	0.248449
	20.325000	0.296800
	20.330000	0.235556
	20.335000	0.187206
	20.340000	0.245226
	20.345000	0.280683
	20.350000	0.222663
	20.355000	0.167865
	20.360000	0.219439
	20.365000	0.274236
	20.370000	0.206546
	20.375000	0.148525
	20.380000	0.209769
	20.385000	0.251673
	20.390000	0.190429
	20.395000	0.135632
	20.400000	0.187206
	20.405000	0.232333
	20.410000	0.167865
	20.415000	0.103398
	20.420000	0.161419
	20.425000	0.200099
	20.430000	0.138855
	20.435000	0.074388
	20.440000	0.132408
	20.445000	0.177536
	20.450000	0.103398
	20.455000	0.048601
	20.460000	0.106622
	20.465000	0.142079
	20.470000	0.077611
	20.475000	0.013144
	20.480000	0.064718
	20.485000	0.100175
	20.490000	0.026038
	20.495000	-0.044876
	20.500000	-0.012643
	20.505000	0.029261
	20.510000	-0.051323
	20.515000	-0.122237
	20.520000	-0.060993
	20.525000	-0.022313
	20.530000	-0.090003
	20.535000	-0.141577
	20.540000	-0.060993
	20.545000	-0.006196
	20.550000	-0.057770
	20.555000	-0.102897
	20.560000	-0.025536
	20.565000	0.026038
	20.570000	-0.035206
	20.575000	-0.077110
	20.580000	-0.002973
	20.585000	0.042154
	20.590000	-0.012643
	20.595000	-0.060993
	20.600000	0.006697
	20.605000	0.058271
	20.610000	-0.006196
	20.615000	-0.057770
	20.620000	0.009921
	20.625000	0.067941
	20.630000	0.000251
	20.635000	-0.038430
	20.640000	0.038931
	20.645000	0.093728
	20.650000	0.042154
	20.655000	0.006697
	20.660000	0.087281
	20.665000	0.145302
	20.670000	0.100175
	20.675000	0.064718
	20.680000	0.154972
	20.685000	0.219439
	20.690000	0.171089
	20.695000	0.145302
	20.700000	0.235556
	20.705000	0.293576
	20.710000	0.261343
	20.715000	0.229109
	20.720000	0.312917
	20.725000	0.377384
	20.730000	0.335480
	20.735000	0.306470
	20.740000	0.380607
	20.745000	0.435404
	20.750000	0.377384
	20.755000	0.345150
	20.760000	0.409617
	20.765000	0.461191
	20.770000	0.390277
	20.775000	0.348374
	20.780000	0.406394
	20.785000	0.451521
	20.790000	0.390277
	20.795000	0.345150
	20.800000	0.409617
	20.805000	0.448298
	20.810000	0.383830
	20.815000	0.341927
	20.820000	0.412841
	20.825000	0.454744
	20.830000	0.380607
	20.835000	0.341927
	20.840000	0.399947
	20.845000	0.441851
	20.850000	0.383830
	20.855000	0.325810
	20.860000	0.387054
	20.865000	0.425734
	20.870000	0.351597
	20.875000	0.306470
	20.880000	0.354820
	20.885000	0.393501
	20.890000	0.322587
	20.895000	0.277460
	20.900000	0.325810
	20.905000	0.358044
	20.910000	0.277460
	20.915000	0.225886
	20.920000	0.296800
	20.925000	0.319363
	20.930000	0.242003
	20.935000	0.193652
	20.940000	0.245226
	20.945000	0.283906
	20.950000	0.203322
	20.955000	0.154972
	20.960000	0.200099
	20.965000	0.238779
	20.970000	0.158195
	20.975000	0.113068
	20.980000	0.164642
	20.985000	0.200099
	20.990000	0.125962
	20.995000	0.071165
	21.000000	0.142079
	21.005000	0.167865
	21.010000	0.093728
	21.015000	0.048601
	21.020000	0.109845
	21.025000	0.138855
	21.030000	0.067941
	21.035000	0.016368
	21.040000	0.074388
	21.045000	0.119515
	21.050000	0.045378
	21.055000	-0.006196
	21.060000	0.055048
	21.065000	0.100175
	21.070000	0.022814
	21.075000	-0.028759
	21.080000	0.038931
	21.085000	0.067941
	21.090000	-0.006196
	21.095000	-0.041653
	21.100000	0.022814
	21.105000	0.064718
	21.110000	-0.022313
	21.115000	-0.057770
	21.120000	0.009921
	21.125000	0.048601
	21.130000	-0.031983
	21.135000	-0.067440
	21.140000	-0.002973
	21.145000	0.032484
	21.150000	-0.038430
	21.155000	-0.080333
	21.160000	-0.012643
	21.165000	0.029261
	21.170000	-0.051323
	21.175000	-0.096450
	21.180000	-0.019089
	21.185000	0.009921
	21.190000	-0.060993
	21.195000	-0.093227
	21.200000	-0.035206
	21.205000	0.006697
	21.210000	-0.067440
	21.215000	-0.112567
	21.220000	-0.035206
	21.225000	-0.006196
	21.230000	-0.073886
	21.235000	-0.115790
	21.240000	-0.051323
	21.245000	-0.009419
	21.250000	-0.080333
	21.255000	-0.131907
	21.260000	-0.060993
	21.265000	-0.022313
	21.270000	-0.096450
	21.275000	-0.135130
	21.280000	-0.064216
	21.285000	-0.025536
	21.290000	-0.109343
	21.295000	-0.144800
	21.300000	-0.077110
	21.305000	-0.038430
	21.310000	-0.109343
	21.315000	-0.151247
	21.320000	-0.073886
	21.325000	-0.044876
	21.330000	-0.106120
	21.335000	-0.148024
	21.340000	-0.070663
	21.345000	-0.038430
	21.350000	-0.115790
	21.355000	-0.154470
	21.360000	-0.077110
	21.365000	-0.041653
	21.370000	-0.112567
	21.375000	-0.151247
	21.380000	-0.067440
	21.385000	-0.038430
	21.390000	-0.106120
	21.395000	-0.151247
	21.400000	-0.080333
	21.405000	-0.038430
	21.410000	-0.115790
	21.415000	-0.151247
	21.420000	-0.077110
	21.425000	-0.044876
	21.430000	-0.109343
	21.435000	-0.151247
	21.440000	-0.073886
	21.445000	-0.028759
	21.450000	-0.106120
	21.455000	-0.144800
	21.460000	-0.064216
	21.465000	-0.031983
	21.470000	-0.102897
	21.475000	-0.144800
	21.480000	-0.067440
	21.485000	-0.022313
	21.490000	-0.099673
	21.495000	-0.135130
	21.500000	-0.060993
	21.505000	-0.028759
	21.510000	-0.099673
	21.515000	-0.128684
	21.520000	-0.057770
	21.525000	-0.019089
	21.530000	-0.093227
	21.535000	-0.131907
	21.540000	-0.048100
	21.545000	-0.012643
	21.550000	-0.086780
	21.555000	-0.122237
	21.560000	-0.041653
	21.565000	0.000251
	21.570000	-0.080333
	21.575000	-0.115790
	21.580000	-0.035206
	21.585000	0.000251
	21.590000	-0.080333
	21.595000	-0.115790
	21.600000	-0.038430
	21.605000	-0.009419
	21.610000	-0.080333
	21.615000	-0.119014
	21.620000	-0.041653
	21.625000	-0.002973
	21.630000	-0.090003
	21.635000	-0.122237
	21.640000	-0.044876
	21.645000	-0.019089
	21.650000	-0.099673
	21.655000	-0.131907
	21.660000	-0.044876
	21.665000	-0.022313
	21.670000	-0.093227
	21.675000	-0.128684
	21.680000	-0.060993
	21.685000	-0.025536
	21.690000	-0.109343
	21.695000	-0.138354
	21.700000	-0.064216
	21.705000	-0.038430
	21.710000	-0.112567
	21.715000	-0.141577
	21.720000	-0.073886
	21.725000	-0.044876
	21.730000	-0.119014
	21.735000	-0.157694
	21.740000	-0.080333
	21.745000	-0.051323
	21.750000	-0.125460
	21.755000	-0.167364
	21.760000	-0.090003
	21.765000	-0.064216
	21.770000	-0.135130
	21.775000	-0.170587
	21.780000	-0.099673
	21.785000	-0.067440
	21.790000	-0.135130
	21.795000	-0.177034
	21.800000	-0.102897
	21.805000	-0.064216
	21.810000	-0.148024
	21.815000	-0.183481
	21.820000	-0.102897
	21.825000	-0.073886
	21.830000	-0.151247
	21.835000	-0.186704
	21.840000	-0.102897
	21.845000	-0.073886
	21.850000	-0.160917
	21.855000	-0.193151
	21.860000	-0.112567
	21.865000	-0.080333
	21.870000	-0.164141
	21.875000	-0.196374
	21.880000	-0.112567
	21.885000	-0.083557
	21.890000	-0.164141
	21.895000	-0.193151
	21.900000	-0.122237
	21.905000	-0.083557
	21.910000	-0.167364
	21.915000	-0.196374
	21.920000	-0.122237
	21.925000	-0.090003
	21.930000	-0.173811
	21.935000	-0.196374
	21.940000	-0.125460
	21.945000	-0.086780
	21.950000	-0.173811
	21.955000	-0.206044
	21.960000	-0.119014
	21.965000	-0.096450
	21.970000	-0.167364
	21.975000	-0.209268
	21.980000	-0.122237
	21.985000	-0.093227
	21.990000	-0.173811
	21.995000	-0.193151
	22.000000	-0.115790
	22.005000	-0.086780
	22.010000	-0.170587
	22.015000	-0.196374
	22.020000	-0.115790
	22.025000	-0.090003
	22.030000	-0.170587
	22.035000	-0.199597
	22.040000	-0.109343
	22.045000	-0.086780
	22.050000	-0.173811
	22.055000	-0.206044
	22.060000	-0.119014
	22.065000	-0.090003
	22.070000	-0.180257
	22.075000	-0.206044
	22.080000	-0.122237
	22.085000	-0.090003
	22.090000	-0.170587
	22.095000	-0.196374
	22.100000	-0.119014
	22.105000	-0.090003
	22.110000	-0.173811
	22.115000	-0.202821
	22.120000	-0.119014
	22.125000	-0.093227
	22.130000	-0.170587
	22.135000	-0.196374
	22.140000	-0.115790
	22.145000	-0.096450
	22.150000	-0.177034
	22.155000	-0.206044
	22.160000	-0.115790
	22.165000	-0.096450
	22.170000	-0.180257
	22.175000	-0.199597
	22.180000	-0.115790
	22.185000	-0.096450
	22.190000	-0.183481
	22.195000	-0.199597
	22.200000	-0.112567
	22.205000	-0.093227
	22.210000	-0.173811
	22.215000	-0.209268
	22.220000	-0.119014
	22.225000	-0.093227
	22.230000	-0.173811
	22.235000	-0.202821
	22.240000	-0.115790
	22.245000	-0.096450
	22.250000	-0.177034
	22.255000	-0.199597
	22.260000	-0.115790
	22.265000	-0.090003
	22.270000	-0.183481
	22.275000	-0.199597
	22.280000	-0.119014
	22.285000	-0.090003
	22.290000	-0.183481
	22.295000	-0.199597
	22.300000	-0.109343
	22.305000	-0.083557
	22.310000	-0.180257
	22.315000	-0.196374
	22.320000	-0.112567
	22.325000	-0.090003
	22.330000	-0.180257
	22.335000	-0.202821
	22.340000	-0.106120
	22.345000	-0.086780
	22.350000	-0.177034
	22.355000	-0.196374
	22.360000	-0.112567
	22.365000	-0.093227
	22.370000	-0.177034
	22.375000	-0.199597
	22.380000	-0.119014
	22.385000	-0.086780
	22.390000	-0.180257
	22.395000	-0.196374
	22.400000	-0.109343
	22.405000	-0.093227
	22.410000	-0.167364
	22.415000	-0.199597
	22.420000	-0.115790
	22.425000	-0.090003
	22.430000	-0.180257
	22.435000	-0.206044
	22.440000	-0.115790
	22.445000	-0.086780
	22.450000	-0.180257
	22.455000	-0.196374
	22.460000	-0.119014
	22.465000	-0.096450
	22.470000	-0.180257
	22.475000	-0.196374
	22.480000	-0.109343
	22.485000	-0.096450
	22.490000	-0.180257
	22.495000	-0.193151
	22.500000	-0.115790
	22.505000	-0.086780
	22.510000	-0.177034
	22.515000	-0.196374
	22.520000	-0.109343
	22.525000	-0.093227
	22.530000	-0.183481
	22.535000	-0.196374
	22.540000	-0.112567
	22.545000	-0.099673
	22.550000	-0.173811
	22.555000	-0.199597
	22.560000	-0.109343
	22.565000	-0.093227
	22.570000	-0.173811
	22.575000	-0.199597
	22.580000	-0.115790
	22.585000	-0.083557
	22.590000	-0.167364
	22.595000	-0.196374
	22.600000	-0.109343
	22.605000	-0.093227
	22.610000	-0.180257
	22.615000	-0.199597
	22.620000	-0.109343
	22.625000	-0.093227
	22.630000	-0.177034
	22.635000	-0.193151
	22.640000	-0.106120
	22.645000	-0.090003
	22.650000	-0.183481
	22.655000	-0.193151
	22.660000	-0.112567
	22.665000	-0.096450
	22.670000	-0.177034
	22.675000	-0.189927
	22.680000	-0.109343
	22.685000	-0.086780
	22.690000	-0.193151
	22.695000	-0.199597
	22.700000	-0.112567
	22.705000	-0.086780
	22.710000	-0.183481
	22.715000	-0.193151
	22.720000	-0.112567
	22.725000	-0.093227
	22.730000	-0.180257
	22.735000	-0.196374
	22.740000	-0.112567
	22.745000	-0.093227
	22.750000	-0.183481
	22.755000	-0.193151
	22.760000	-0.115790
	22.765000	-0.096450
	22.770000	-0.186704
	22.775000	-0.196374
	22.780000	-0.109343
	22.785000	-0.090003
	22.790000	-0.189927
	22.795000	-0.199597
	22.800000	-0.115790
	22.805000	-0.102897
	22.810000	-0.183481
	22.815000	-0.196374
	22.820000	-0.112567
	22.825000	-0.096450
	22.830000	-0.186704
	22.835000	-0.202821
	22.840000	-0.109343
	22.845000	-0.102897
	22.850000	-0.189927
	22.855000	-0.189927
	22.860000	-0.109343
	22.865000	-0.099673
	22.870000	-0.186704
	22.875000	-0.196374
	22.880000	-0.112567
	22.885000	-0.102897
	22.890000	-0.183481
	22.895000	-0.196374
	22.900000	-0.109343
	22.905000	-0.093227
	22.910000	-0.183481
	22.915000	-0.193151
	22.920000	-0.109343
	22.925000	-0.093227
	22.930000	-0.189927
	22.935000	-0.193151
	22.940000	-0.109343
	22.945000	-0.096450
	22.950000	-0.186704
	22.955000	-0.202821
	22.960000	-0.109343
	22.965000	-0.096450
	22.970000	-0.186704
	22.975000	-0.193151
	22.980000	-0.102897
	22.985000	-0.093227
	22.990000	-0.177034
	22.995000	-0.186704
	23.000000	-0.106120
	23.005000	-0.096450
	23.010000	-0.186704
	23.015000	-0.183481
	23.020000	-0.102897
	23.025000	-0.090003
	23.030000	-0.177034
	23.035000	-0.186704
	23.040000	-0.099673
	23.045000	-0.093227
	23.050000	-0.183481
	23.055000	-0.183481
	23.060000	-0.102897
	23.065000	-0.093227
	23.070000	-0.173811
	23.075000	-0.180257
	23.080000	-0.096450
	23.085000	-0.090003
	23.090000	-0.170587
	23.095000	-0.183481
	23.100000	-0.090003
	23.105000	-0.083557
	23.110000	-0.167364
	23.115000	-0.183481
	23.120000	-0.086780
	23.125000	-0.083557
	23.130000	-0.170587
	23.135000	-0.170587
	23.140000	-0.090003
	23.145000	-0.077110
	23.150000	-0.157694
	23.155000	-0.177034
	23.160000	-0.090003
	23.165000	-0.077110
	23.170000	-0.160917
	23.175000	-0.167364
	23.180000	-0.083557
	23.185000	-0.083557
	23.190000	-0.160917
	23.195000	-0.167364
	23.200000	-0.086780
	23.205000	-0.077110
	23.210000	-0.160917
	23.215000	-0.160917
	23.220000	-0.080333
	23.225000	-0.073886
	23.230000	-0.164141
	23.235000	-0.170587
	23.240000	-0.080333
	23.245000	-0.073886
	23.250000	-0.160917
	23.255000	-0.167364
	23.260000	-0.077110
	23.265000	-0.073886
	23.270000	-0.160917
	23.275000	-0.167364
	23.280000	-0.080333
	23.285000	-0.070663
	23.290000	-0.157694
	23.295000	-0.170587
	23.300000	-0.073886
	23.305000	-0.073886
	23.310000	-0.167364
	23.315000	-0.160917
	23.320000	-0.077110
	23.325000	-0.077110
	23.330000	-0.160917
	23.335000	-0.170587
	23.340000	-0.077110
	23.345000	-0.073886
	23.350000	-0.160917
	23.355000	-0.167364
	23.360000	-0.073886
	23.365000	-0.077110
	23.370000	-0.164141
	23.375000	-0.160917
	23.380000	-0.077110
	23.385000	-0.070663
	23.390000	-0.160917
	23.395000	-0.164141
	23.400000	-0.086780
	23.405000	-0.073886
	23.410000	-0.164141
	23.415000	-0.164141
	23.420000	-0.077110
	23.425000	-0.070663
	23.430000	-0.164141
	23.435000	-0.167364
	23.440000	-0.073886
	23.445000	-0.073886
	23.450000	-0.164141
	23.455000	-0.160917
	23.460000	-0.077110
	23.465000	-0.064216
	23.470000	-0.157694
	23.475000	-0.164141
	23.480000	-0.070663
	23.485000	-0.067440
	23.490000	-0.160917
	23.495000	-0.160917
	23.500000	-0.073886
	23.505000	-0.077110
	23.510000	-0.160917
	23.515000	-0.157694
	23.520000	-0.067440
	23.525000	-0.064216
	23.530000	-0.154470
	23.535000	-0.157694
	23.540000	-0.070663
	23.545000	-0.067440
	23.550000	-0.160917
	23.555000	-0.151247
	23.560000	-0.064216
	23.565000	-0.064216
	23.570000	-0.154470
	23.575000	-0.148024
	23.580000	-0.064216
	23.585000	-0.060993
	23.590000	-0.154470
	23.595000	-0.148024
	23.600000	-0.064216
	23.605000	-0.057770
	23.610000	-0.151247
	23.615000	-0.141577
	23.620000	-0.064216
	23.625000	-0.060993
	23.630000	-0.151247
	23.635000	-0.144800
	23.640000	-0.057770
	23.645000	-0.060993
	23.650000	-0.154470
	23.655000	-0.148024
	23.660000	-0.054546
	23.665000	-0.060993
	23.670000	-0.144800
	23.675000	-0.141577
	23.680000	-0.064216
	23.685000	-0.051323
	23.690000	-0.141577
	23.695000	-0.144800
	23.700000	-0.044876
	23.705000	-0.051323
	23.710000	-0.138354
	23.715000	-0.135130
	23.720000	-0.044876
	23.725000	-0.048100
	23.730000	-0.138354
	23.735000	-0.128684
	23.740000	-0.044876
	23.745000	-0.051323
	23.750000	-0.135130
	23.755000	-0.125460
	23.760000	-0.041653
	23.765000	-0.048100
	23.770000	-0.135130
	23.775000	-0.125460
	23.780000	-0.035206
	23.785000	-0.044876
	23.790000	-0.125460
	23.795000	-0.122237
	23.800000	-0.041653
	23.805000	-0.041653
	23.810000	-0.131907
	23.815000	-0.128684
	23.820000	-0.038430
	23.825000	-0.051323
	23.830000	-0.131907
	23.835000	-0.122237
	23.840000	-0.041653
	23.845000	-0.044876
	23.850000	-0.128684
	23.855000	-0.131907
	23.860000	-0.041653
	23.865000	-0.048100
	23.870000	-0.138354
	23.875000	-0.125460
	23.880000	-0.041653
	23.885000	-0.044876
	23.890000	-0.141577
	23.895000	-0.125460
	23.900000	-0.038430
	23.905000	-0.041653
	23.910000	-0.131907
	23.915000	-0.131907
	23.920000	-0.041653
	23.925000	-0.044876
	23.930000	-0.138354
	23.935000	-0.131907
	23.940000	-0.048100
	23.945000	-0.051323
	23.950000	-0.138354
	23.955000	-0.128684
	23.960000	-0.051323
	23.965000	-0.057770
	23.970000	-0.144800
	23.975000	-0.135130
	23.980000	-0.044876
	23.985000	-0.060993
	23.990000	-0.148024
	23.995000	-0.135130
	24.000000	-0.057770
	24.005000	-0.067440
	24.010000	-0.154470
	24.015000	-0.151247
	24.020000	-0.067440
	24.025000	-0.073886
	24.030000	-0.164141
	24.035000	-0.151247
	24.040000	-0.064216
	24.045000	-0.073886
	24.050000	-0.164141
	24.055000	-0.154470
	24.060000	-0.067440
	24.065000	-0.083557
	24.070000	-0.170587
	24.075000	-0.164141
	24.080000	-0.067440
	24.085000	-0.086780
	24.090000	-0.177034
	24.095000	-0.170587
	24.100000	-0.080333
	24.105000	-0.090003
	24.110000	-0.186704
	24.115000	-0.173811
	24.120000	-0.093227
	24.125000	-0.096450
	24.130000	-0.189927
	24.135000	-0.180257
	24.140000	-0.093227
	24.145000	-0.106120
	24.150000	-0.196374
	24.155000	-0.183481
	24.160000	-0.096450
	24.165000	-0.109343
	24.170000	-0.199597
	24.175000	-0.177034
	24.180000	-0.096450
	24.185000	-0.106120
	24.190000	-0.193151
	24.195000	-0.177034
	24.200000	-0.086780
	24.205000	-0.102897
	24.210000	-0.189927
	24.215000	-0.167364
	24.220000	-0.077110
	24.225000	-0.086780
	24.230000	-0.173811
	24.235000	-0.157694
	24.240000	-0.067440
	24.245000	-0.077110
	24.250000	-0.157694
	24.255000	-0.131907
	24.260000	-0.051323
	24.265000	-0.060993
	24.270000	-0.141577
	24.275000	-0.122237
	24.280000	-0.035206
	24.285000	-0.041653
	24.290000	-0.119014
	24.295000	-0.102897
	24.300000	-0.009419
	24.305000	-0.025536
	24.310000	-0.102897
	24.315000	-0.080333
	24.320000	0.009921
	24.325000	0.000251
	24.330000	-0.073886
	24.335000	-0.054546
	24.340000	0.026038
	24.345000	0.016368
	24.350000	-0.057770
	24.355000	-0.031983
	24.360000	0.045378
	24.365000	0.038931
	24.370000	-0.035206
	24.375000	-0.025536
	24.380000	0.064718
	24.385000	0.055048
	24.390000	-0.028759
	24.395000	-0.009419
	24.400000	0.080835
	24.405000	0.061495
	24.410000	-0.022313
	24.415000	0.000251
	24.420000	0.087281
	24.425000	0.077611
	24.430000	-0.002973
	24.435000	0.009921
	24.440000	0.100175
	24.445000	0.080835
	24.450000	0.016368
	24.455000	0.032484
	24.460000	0.119515
	24.465000	0.096952
	24.470000	0.022814
	24.475000	0.048601
	24.480000	0.125962
	24.485000	0.125962
	24.490000	0.035708
	24.495000	0.058271
	24.500000	0.145302
	24.505000	0.135632
	24.510000	0.055048
	24.515000	0.071165
	24.520000	0.158195
	24.525000	0.142079
	24.530000	0.061495
	24.535000	0.084058
	24.540000	0.161419
	24.545000	0.158195
	24.550000	0.067941
	24.555000	0.100175
	24.560000	0.174312
	24.565000	0.161419
	24.570000	0.087281
	24.575000	0.100175
	24.580000	0.180759
	24.585000	0.167865
	24.590000	0.087281
	24.595000	0.116292
	24.600000	0.190429
	24.605000	0.180759
	24.610000	0.090505
	24.615000	0.113068
	24.620000	0.200099
	24.625000	0.171089
	24.630000	0.096952
	24.635000	0.116292
	24.640000	0.196876
	24.645000	0.177536
	24.650000	0.103398
	24.655000	0.116292
	24.660000	0.203322
	24.665000	0.177536
	24.670000	0.103398
	24.675000	0.125962
	24.680000	0.203322
	24.685000	0.187206
	24.690000	0.109845
	24.695000	0.135632
	24.700000	0.216216
	24.705000	0.203322
	24.710000	0.129185
	24.715000	0.148525
	24.720000	0.232333
	24.725000	0.222663
	24.730000	0.154972
	24.735000	0.174312
	24.740000	0.258119
	24.745000	0.245226
	24.750000	0.171089
	24.755000	0.196876
	24.760000	0.277460
	24.765000	0.261343
	24.770000	0.190429
	24.775000	0.212992
	24.780000	0.290353
	24.785000	0.274236
	24.790000	0.193652
	24.795000	0.219439
	24.800000	0.303247
	24.805000	0.280683
	24.810000	0.206546
	24.815000	0.225886
	24.820000	0.303247
	24.825000	0.280683
	24.830000	0.203322
	24.835000	0.225886
	24.840000	0.303247
	24.845000	0.283906
	24.850000	0.206546
	24.855000	0.232333
	24.860000	0.300023
	24.865000	0.283906
	24.870000	0.203322
	24.875000	0.229109
	24.880000	0.300023
	24.885000	0.277460
	24.890000	0.206546
	24.895000	0.219439
	24.900000	0.293576
	24.905000	0.271013
	24.910000	0.190429
	24.915000	0.222663
	24.920000	0.290353
	24.925000	0.271013
	24.930000	0.190429
	24.935000	0.209769
	24.940000	0.290353
	24.945000	0.267790
	24.950000	0.190429
	24.955000	0.212992
	24.960000	0.287130
	24.965000	0.271013
	24.970000	0.200099
	24.975000	0.212992
	24.980000	0.287130
	24.985000	0.264566
	24.990000	0.190429
	24.995000	0.212992
	25.000000	0.274236
	25.005000	0.251673
	25.010000	0.174312
	25.015000	0.190429
	25.020000	0.258119
	25.025000	0.242003
	25.030000	0.154972
	25.035000	0.187206
	25.040000	0.251673
	25.045000	0.232333
	25.050000	0.154972
	25.055000	0.174312
	25.060000	0.251673
	25.065000	0.222663
	25.070000	0.148525
	25.075000	0.164642
	25.080000	0.238779
	25.085000	0.216216
	25.090000	0.138855
	25.095000	0.161419
	25.100000	0.232333
	25.105000	0.206546
	25.110000	0.135632
	25.115000	0.158195
	25.120000	0.222663
	25.125000	0.193652
	25.130000	0.119515
	25.135000	0.135632
	25.140000	0.203322
	25.145000	0.177536
	25.150000	0.100175
	25.155000	0.116292
	25.160000	0.180759
	25.165000	0.145302
	25.170000	0.071165
	25.175000	0.090505
	25.180000	0.154972
	25.185000	0.125962
	25.190000	0.048601
	25.195000	0.074388
	25.200000	0.135632
	25.205000	0.106622
	25.210000	0.035708
	25.215000	0.055048
	25.220000	0.116292
	25.225000	0.090505
	25.230000	0.013144
	25.235000	0.035708
	25.240000	0.096952
	25.245000	0.058271
	25.250000	-0.019089
	25.255000	0.009921
	25.260000	0.074388
	25.265000	0.038931
	25.270000	-0.035206
	25.275000	-0.019089
	25.280000	0.061495
	25.285000	0.029261
	25.290000	-0.038430
	25.295000	-0.006196
	25.300000	0.071165
	25.305000	0.042154
	25.310000	-0.025536
	25.315000	0.016368
	25.320000	0.087281
	25.325000	0.064718
	25.330000	0.000251
	25.335000	0.038931
	25.340000	0.122738
	25.345000	0.093728
	25.350000	0.026038
	25.355000	0.071165
	25.360000	0.145302
	25.365000	0.129185
	25.370000	0.067941
	25.375000	0.103398
	25.380000	0.187206
	25.385000	0.174312
	25.390000	0.109845
	25.395000	0.158195
	25.400000	0.245226
	25.405000	0.235556
	25.410000	0.180759
	25.415000	0.229109
	25.420000	0.309693
	25.425000	0.300023
	25.430000	0.248449
	25.435000	0.300023
	25.440000	0.393501
	25.445000	0.377384
	25.450000	0.316140
	25.455000	0.358044
	25.460000	0.432181
	25.465000	0.403171
	25.470000	0.332257
	25.475000	0.351597
	25.480000	0.412841
	25.485000	0.380607
	25.490000	0.306470
	25.495000	0.322587
	25.500000	0.390277
	25.505000	0.351597
	25.510000	0.267790
	25.515000	0.280683
	25.520000	0.351597
	25.525000	0.309693
	25.530000	0.225886
	25.535000	0.242003
	25.540000	0.312917
	25.545000	0.264566
	25.550000	0.180759
	25.555000	0.196876
	25.560000	0.258119
	25.565000	0.209769
	25.570000	0.135632
	25.575000	0.158195
	25.580000	0.209769
	25.585000	0.177536
	25.590000	0.087281
	25.595000	0.116292
	25.600000	0.180759
	25.605000	0.135632
	25.610000	0.045378
	25.615000	0.080835
	25.620000	0.145302
	25.625000	0.103398
	25.630000	0.019591
	25.635000	0.045378
	25.640000	0.109845
	25.645000	0.064718
	25.650000	-0.009419
	25.655000	0.016368
	25.660000	0.071165
	25.665000	0.029261
	25.670000	-0.044876
	25.675000	-0.022313
	25.680000	0.055048
	25.685000	0.013144
	25.690000	-0.060993
	25.695000	-0.035206
	25.700000	0.035708
	25.705000	-0.002973
	25.710000	-0.073886
	25.715000	-0.044876
	25.720000	0.029261
	25.725000	-0.009419
	25.730000	-0.083557
	25.735000	-0.048100
	25.740000	0.016368
	25.745000	-0.019089
	25.750000	-0.086780
	25.755000	-0.067440
	25.760000	0.000251
	25.765000	-0.041653
	25.770000	-0.106120
	25.775000	-0.080333
	25.780000	-0.009419
	25.785000	-0.051323
	25.790000	-0.125460
	25.795000	-0.086780
	25.800000	-0.015866
	25.805000	-0.060993
	25.810000	-0.131907
	25.815000	-0.090003
	25.820000	-0.022313
	25.825000	-0.064216
	25.830000	-0.138354
	25.835000	-0.102897
	25.840000	-0.025536
	25.845000	-0.067440
	25.850000	-0.141577
	25.855000	-0.099673
	25.860000	-0.025536
	25.865000	-0.070663
	25.870000	-0.141577
	25.875000	-0.102897
	25.880000	-0.035206
	25.885000	-0.070663
	25.890000	-0.148024
	25.895000	-0.109343
	25.900000	-0.035206
	25.905000	-0.077110
	25.910000	-0.151247
	25.915000	-0.115790
	25.920000	-0.041653
	25.925000	-0.077110
	25.930000	-0.157694
	25.935000	-0.109343
	25.940000	-0.044876
	25.945000	-0.086780
	25.950000	-0.160917
	25.955000	-0.119014
	25.960000	-0.051323
	25.965000	-0.090003
	25.970000	-0.160917
	25.975000	-0.125460
	25.980000	-0.057770
	25.985000	-0.099673
	25.990000	-0.167364
	25.995000	-0.125460
	26.000000	-0.057770
	26.005000	-0.096450
	26.010000	-0.180257
	26.015000	-0.131907
	26.020000	-0.067440
	26.025000	-0.109343
	26.030000	-0.186704
	26.035000	-0.138354
	26.040000	-0.073886
	26.045000	-0.106120
	26.050000	-0.189927
	26.055000	-0.154470
	26.060000	-0.083557
	26.065000	-0.119014
	26.070000	-0.196374
	26.075000	-0.160917
	26.080000	-0.086780
	26.085000	-0.125460
	26.090000	-0.196374
	26.095000	-0.157694
	26.100000	-0.086780
	26.105000	-0.125460
	26.110000	-0.199597
	26.115000	-0.160917
	26.120000	-0.096450
	26.125000	-0.135130
	26.130000	-0.206044
	26.135000	-0.170587
	26.140000	-0.099673
	26.145000	-0.141577
	26.150000	-0.206044
	26.155000	-0.160917
	26.160000	-0.093227
	26.165000	-0.141577
	26.170000	-0.209268
	26.175000	-0.164141
	26.180000	-0.090003
	26.185000	-0.128684
	26.190000	-0.202821
	26.195000	-0.154470
	26.200000	-0.090003
	26.205000	-0.128684
	26.210000	-0.206044
	26.215000	-0.157694
	26.220000	-0.086780
	26.225000	-0.131907
	26.230000	-0.199597
	26.235000	-0.154470
	26.240000	-0.086780
	26.245000	-0.131907
	26.250000	-0.193151
	26.255000	-0.154470
	26.260000	-0.077110
	26.265000	-0.119014
	26.270000	-0.199597
	26.275000	-0.144800
	26.280000	-0.083557
	26.285000	-0.119014
	26.290000	-0.196374
	26.295000	-0.141577
	26.300000	-0.070663
	26.305000	-0.125460
	26.310000	-0.183481
	26.315000	-0.144800
	26.320000	-0.073886
	26.325000	-0.119014
	26.330000	-0.193151
	26.335000	-0.148024
	26.340000	-0.077110
	26.345000	-0.115790
	26.350000	-0.186704
	26.355000	-0.141577
	26.360000	-0.073886
	26.365000	-0.122237
	26.370000	-0.193151
	26.375000	-0.135130
	26.380000	-0.067440
	26.385000	-0.112567
	26.390000	-0.189927
	26.395000	-0.138354
	26.400000	-0.064216
	26.405000	-0.106120
	26.410000	-0.180257
	26.415000	-0.135130
	26.420000	-0.064216
	26.425000	-0.115790
	26.430000	-0.177034
	26.435000	-0.131907
	26.440000	-0.060993
	26.445000	-0.106120
	26.450000	-0.180257
	26.455000	-0.122237
	26.460000	-0.064216
	26.465000	-0.109343
	26.470000	-0.177034
	26.475000	-0.122237
	26.480000	-0.057770
	26.485000	-0.106120
	26.490000	-0.173811
	26.495000	-0.125460
	26.500000	-0.057770
	26.505000	-0.102897
	26.510000	-0.170587
	26.515000	-0.128684
	26.520000	-0.057770
	26.525000	-0.102897
	26.530000	-0.164141
	26.535000	-0.115790
	26.540000	-0.051323
	26.545000	-0.106120
	26.550000	-0.167364
	26.555000	-0.122237
	26.560000	-0.048100
	26.565000	-0.099673
	26.570000	-0.167364
	26.575000	-0.122237
	26.580000	-0.048100
	26.585000	-0.096450
	26.590000	-0.177034
	26.595000	-0.122237
	26.600000	-0.051323
	26.605000	-0.099673
	26.610000	-0.167364
	26.615000	-0.119014
	26.620000	-0.044876
	26.625000	-0.096450
	26.630000	-0.164141
	26.635000	-0.115790
	26.640000	-0.051323
	26.645000	-0.102897
	26.650000	-0.164141
	26.655000	-0.119014
	26.660000	-0.051323
	26.665000	-0.093227
	26.670000	-0.164141
	26.675000	-0.109343
	26.680000	-0.044876
	26.685000	-0.083557
	26.690000	-0.160917
	26.695000	-0.109343
	26.700000	-0.048100
	26.705000	-0.090003
	26.710000	-0.160917
	26.715000	-0.109343
	26.720000	-0.041653
	26.725000	-0.093227
	26.730000	-0.154470
	26.735000	-0.099673
	26.740000	-0.038430
	26.745000	-0.090003
	26.750000	-0.164141
	26.755000	-0.102897
	26.760000	-0.044876
	26.765000	-0.090003
	26.770000	-0.157694
	26.775000	-0.109343
	26.780000	-0.035206
	26.785000	-0.083557
	26.790000	-0.164141
	26.795000	-0.102897
	26.800000	-0.035206
	26.805000	-0.090003
	26.810000	-0.164141
	26.815000	-0.112567
	26.820000	-0.044876
	26.825000	-0.096450
	26.830000	-0.160917
	26.835000	-0.099673
	26.840000	-0.041653
	26.845000	-0.096450
	26.850000	-0.157694
	26.855000	-0.106120
	26.860000	-0.044876
	26.865000	-0.090003
	26.870000	-0.160917
	26.875000	-0.106120
	26.880000	-0.041653
	26.885000	-0.096450
	26.890000	-0.157694
	26.895000	-0.099673
	26.900000	-0.038430
	26.905000	-0.090003
	26.910000	-0.154470
	26.915000	-0.099673
	26.920000	-0.035206
	26.925000	-0.086780
	26.930000	-0.148024
	26.935000	-0.096450
	26.940000	-0.035206
	26.945000	-0.083557
	26.950000	-0.154470
	26.955000	-0.099673
	26.960000	-0.035206
	26.965000	-0.090003
	26.970000	-0.151247
	26.975000	-0.090003
	26.980000	-0.031983
	26.985000	-0.083557
	26.990000	-0.157694
	26.995000	-0.099673
	27.000000	-0.031983
	27.005000	-0.090003
	27.010000	-0.148024
	27.015000	-0.090003
	27.020000	-0.028759
	27.025000	-0.083557
	27.030000	-0.157694
	27.035000	-0.090003
	27.040000	-0.031983
	27.045000	-0.086780
	27.050000	-0.148024
	27.055000	-0.099673
	27.060000	-0.031983
	27.065000	-0.086780
	27.070000	-0.154470
	27.075000	-0.096450
	27.080000	-0.035206
	27.085000	-0.086780
	27.090000	-0.151247
	27.095000	-0.096450
	27.100000	-0.035206
	27.105000	-0.093227
	27.110000	-0.157694
	27.115000	-0.096450
	27.120000	-0.038430
	27.125000	-0.096450
	27.130000	-0.151247
	27.135000	-0.099673
	27.140000	-0.035206
	27.145000	-0.093227
	27.150000	-0.154470
	27.155000	-0.099673
	27.160000	-0.044876
	27.165000	-0.086780
	27.170000	-0.160917
	27.175000	-0.102897
	27.180000	-0.041653
	27.185000	-0.099673
	27.190000	-0.157694
	27.195000	-0.102897
	27.200000	-0.041653
	27.205000	-0.096450
	27.210000	-0.164141
	27.215000	-0.099673
	27.220000	-0.041653
	27.225000	-0.099673
	27.230000	-0.160917
	27.235000	-0.099673
	27.240000	-0.044876
	27.245000	-0.099673
	27.250000	-0.167364
	27.255000	-0.109343
	27.260000	-0.041653
	27.265000	-0.106120
	27.270000	-0.167364
	27.275000	-0.109343
	27.280000	-0.038430
	27.285000	-0.102897
	27.290000	-0.164141
	27.295000	-0.106120
	27.300000	-0.048100
	27.305000	-0.099673
	27.310000	-0.167364
	27.315000	-0.102897
	27.320000	-0.044876
	27.325000	-0.106120
	27.330000	-0.164141
	27.335000	-0.102897
	27.340000	-0.044876
	27.345000	-0.099673
	27.350000	-0.164141
	27.355000	-0.109343
	27.360000	-0.044876
	27.365000	-0.099673
	27.370000	-0.167364
	27.375000	-0.102897
	27.380000	-0.048100
	27.385000	-0.102897
	27.390000	-0.164141
	27.395000	-0.106120
	27.400000	-0.041653
	27.405000	-0.096450
	27.410000	-0.170587
	27.415000	-0.106120
	27.420000	-0.041653
	27.425000	-0.096450
	27.430000	-0.154470
	27.435000	-0.102897
	27.440000	-0.038430
	27.445000	-0.090003
	27.450000	-0.154470
	27.455000	-0.093227
	27.460000	-0.031983
	27.465000	-0.093227
	27.470000	-0.148024
	27.475000	-0.083557
	27.480000	-0.035206
	27.485000	-0.090003
	27.490000	-0.151247
	27.495000	-0.086780
	27.500000	-0.022313
	27.505000	-0.080333
	27.510000	-0.144800
	27.515000	-0.077110
	27.520000	-0.022313
	27.525000	-0.077110
	27.530000	-0.141577
	27.535000	-0.064216
	27.540000	-0.019089
	27.545000	-0.077110
	27.550000	-0.131907
	27.555000	-0.067440
	27.560000	-0.009419
	27.565000	-0.070663
	27.570000	-0.128684
	27.575000	-0.060993
	27.580000	-0.002973
	27.585000	-0.067440
	27.590000	-0.128684
	27.595000	-0.064216
	27.600000	-0.002973
	27.605000	-0.057770
	27.610000	-0.122237
	27.615000	-0.060993
	27.620000	-0.002973
	27.625000	-0.064216
	27.630000	-0.115790
	27.635000	-0.064216
	27.640000	0.000251
	27.645000	-0.060993
	27.650000	-0.125460
	27.655000	-0.057770
	27.660000	-0.002973
	27.665000	-0.060993
	27.670000	-0.112567
	27.675000	-0.054546
	27.680000	-0.002973
	27.685000	-0.064216
	27.690000	-0.115790
	27.695000	-0.057770
	27.700000	-0.006196
	27.705000	-0.054546
	27.710000	-0.125460
	27.715000	-0.057770
	27.720000	-0.006196
	27.725000	-0.067440
	27.730000	-0.128684
	27.735000	-0.060993
	27.740000	-0.009419
	27.745000	-0.067440
	27.750000	-0.125460
	27.755000	-0.077110
	27.760000	-0.015866
	27.765000	-0.073886
	27.770000	-0.131907
	27.775000	-0.077110
	27.780000	-0.022313
	27.785000	-0.086780
	27.790000	-0.144800
	27.795000	-0.077110
	27.800000	-0.025536
	27.805000	-0.086780
	27.810000	-0.141577
	27.815000	-0.086780
	27.820000	-0.022313
	27.825000	-0.086780
	27.830000	-0.151247
	27.835000	-0.083557
	27.840000	-0.035206
	27.845000	-0.093227
	27.850000	-0.151247
	27.855000	-0.077110
	27.860000	-0.035206
	27.865000	-0.090003
	27.870000	-0.151247
	27.875000	-0.086780
	27.880000	-0.025536
	27.885000	-0.093227
	27.890000	-0.151247
	27.895000	-0.086780
	27.900000	-0.031983
	27.905000	-0.093227
	27.910000	-0.151247
	27.915000	-0.086780
	27.920000	-0.038430
	27.925000	-0.096450
	27.930000	-0.160917
	27.935000	-0.090003
	27.940000	-0.035206
	27.945000	-0.106120
	27.950000	-0.160917
	27.955000	-0.090003
	27.960000	-0.038430
	27.965000	-0.102897
	27.970000	-0.157694
	27.975000	-0.096450
	27.980000	-0.041653
	27.985000	-0.102897
	27.990000	-0.154470
	27.995000	-0.090003
	28.000000	-0.038430
	28.005000	-0.102897
	28.010000	-0.157694
	28.015000	-0.086780
	28.020000	-0.035206
	28.025000	-0.102897
	28.030000	-0.157694
	28.035000	-0.086780
	28.040000	-0.041653
	28.045000	-0.102897
	28.050000	-0.157694
	28.055000	-0.093227
	28.060000	-0.038430
	28.065000	-0.109343
	28.070000	-0.154470
	28.075000	-0.096450
	28.080000	-0.038430
	28.085000	-0.109343
	28.090000	-0.154470
	28.095000	-0.086780
	28.100000	-0.031983
	28.105000	-0.099673
	28.110000	-0.164141
	28.115000	-0.090003
	28.120000	-0.038430
	28.125000	-0.106120
	28.130000	-0.154470
	28.135000	-0.086780
	28.140000	-0.041653
	28.145000	-0.096450
	28.150000	-0.157694
	28.155000	-0.090003
	28.160000	-0.038430
	28.165000	-0.099673
	28.170000	-0.160917
	28.175000	-0.090003
	28.180000	-0.038430
	28.185000	-0.109343
	28.190000	-0.154470
	28.195000	-0.086780
	28.200000	-0.041653
	28.205000	-0.102897
	28.210000	-0.151247
	28.215000	-0.093227
	28.220000	-0.038430
	28.225000	-0.106120
	28.230000	-0.154470
	28.235000	-0.093227
	28.240000	-0.038430
	28.245000	-0.106120
	28.250000	-0.154470
	28.255000	-0.086780
	28.260000	-0.038430
	28.265000	-0.106120
	28.270000	-0.157694
	28.275000	-0.086780
	28.280000	-0.038430
	28.285000	-0.106120
	28.290000	-0.157694
	28.295000	-0.090003
	28.300000	-0.044876
	28.305000	-0.106120
	28.310000	-0.160917
	28.315000	-0.090003
	28.320000	-0.035206
	28.325000	-0.106120
	28.330000	-0.160917
	28.335000	-0.090003
	28.340000	-0.041653
	28.345000	-0.109343
	28.350000	-0.164141
	28.355000	-0.090003
	28.360000	-0.041653
	28.365000	-0.112567
	28.370000	-0.164141
	28.375000	-0.090003
	28.380000	-0.041653
	28.385000	-0.115790
	28.390000	-0.160917
	28.395000	-0.093227
	28.400000	-0.048100
	28.405000	-0.109343
	28.410000	-0.167364
	28.415000	-0.096450
	28.420000	-0.051323
	28.425000	-0.122237
	28.430000	-0.170587
	28.435000	-0.096450
	28.440000	-0.051323
	28.445000	-0.119014
	28.450000	-0.170587
	28.455000	-0.093227
	28.460000	-0.051323
	28.465000	-0.128684
	28.470000	-0.170587
	28.475000	-0.102897
	28.480000	-0.057770
	28.485000	-0.125460
	28.490000	-0.160917
	28.495000	-0.099673
	28.500000	-0.054546
	28.505000	-0.128684
	28.510000	-0.173811
	28.515000	-0.099673
	28.520000	-0.054546
	28.525000	-0.125460
	28.530000	-0.186704
	28.535000	-0.102897
	28.540000	-0.051323
	28.545000	-0.125460
	28.550000	-0.173811
	28.555000	-0.102897
	28.560000	-0.051323
	28.565000	-0.125460
	28.570000	-0.167364
	28.575000	-0.102897
	28.580000	-0.054546
	28.585000	-0.125460
	28.590000	-0.170587
	28.595000	-0.096450
	28.600000	-0.057770
	28.605000	-0.125460
	28.610000	-0.170587
	28.615000	-0.102897
	28.620000	-0.064216
	28.625000	-0.128684
	28.630000	-0.177034
	28.635000	-0.106120
	28.640000	-0.064216
	28.645000	-0.131907
	28.650000	-0.170587
	28.655000	-0.106120
	28.660000	-0.057770
	28.665000	-0.128684
	28.670000	-0.173811
	28.675000	-0.106120
	28.680000	-0.060993
	28.685000	-0.131907
	28.690000	-0.177034
	28.695000	-0.102897
	28.700000	-0.054546
	28.705000	-0.128684
	28.710000	-0.177034
	28.715000	-0.109343
	28.720000	-0.057770
	28.725000	-0.138354
	28.730000	-0.177034
	28.735000	-0.102897
	28.740000	-0.064216
	28.745000	-0.125460
	28.750000	-0.180257
	28.755000	-0.106120
	28.760000	-0.064216
	28.765000	-0.125460
	28.770000	-0.173811
	28.775000	-0.099673
	28.780000	-0.057770
	28.785000	-0.135130
	28.790000	-0.170587
	28.795000	-0.099673
	28.800000	-0.048100
	28.805000	-0.131907
	28.810000	-0.167364
	28.815000	-0.093227
	28.820000	-0.054546
	28.825000	-0.131907
	28.830000	-0.167364
	28.835000	-0.099673
	28.840000	-0.051323
	28.845000	-0.125460
	28.850000	-0.173811
	28.855000	-0.093227
	28.860000	-0.048100
	28.865000	-0.122237
	28.870000	-0.164141
	28.875000	-0.099673
	28.880000	-0.048100
	28.885000	-0.122237
	28.890000	-0.164141
	28.895000	-0.096450
	28.900000	-0.051323
	28.905000	-0.125460
	28.910000	-0.164141
	28.915000	-0.099673
	28.920000	-0.044876
	28.925000	-0.131907
	28.930000	-0.170587
	28.935000	-0.093227
	28.940000	-0.051323
	28.945000	-0.128684
	28.950000	-0.170587
	28.955000	-0.096450
	28.960000	-0.051323
	28.965000	-0.131907
	28.970000	-0.170587
	28.975000	-0.096450
	28.980000	-0.057770
	28.985000	-0.135130
	28.990000	-0.170587
	28.995000	-0.093227
	29.000000	-0.051323
	29.005000	-0.131907
	29.010000	-0.167364
	29.015000	-0.086780
	29.020000	-0.051323
	29.025000	-0.131907
	29.030000	-0.170587
	29.035000	-0.090003
	29.040000	-0.051323
	29.045000	-0.122237
	29.050000	-0.173811
	29.055000	-0.090003
	29.060000	-0.054546
	29.065000	-0.122237
	29.070000	-0.167364
	29.075000	-0.083557
	29.080000	-0.048100
	29.085000	-0.109343
	29.090000	-0.151247
	29.095000	-0.073886
	29.100000	-0.035206
	29.105000	-0.106120
	29.110000	-0.148024
	29.115000	-0.067440
	29.120000	-0.019089
	29.125000	-0.086780
	29.130000	-0.125460
	29.135000	-0.044876
	29.140000	-0.006196
	29.145000	-0.077110
	29.150000	-0.106120
	29.155000	-0.038430
	29.160000	0.006697
	29.165000	-0.067440
	29.170000	-0.102897
	29.175000	-0.028759
	29.180000	0.006697
	29.185000	-0.064216
	29.190000	-0.096450
	29.195000	-0.015866
	29.200000	0.009921
	29.205000	-0.048100
	29.210000	-0.090003
	29.215000	-0.015866
	29.220000	0.026038
	29.225000	-0.044876
	29.230000	-0.090003
	29.235000	-0.009419
	29.240000	0.032484
	29.245000	-0.041653
	29.250000	-0.070663
	29.255000	-0.006196
	29.260000	0.032484
	29.265000	-0.038430
	29.270000	-0.077110
	29.275000	0.000251
	29.280000	0.035708
	29.285000	-0.044876
	29.290000	-0.073886
	29.295000	-0.002973
	29.300000	0.035708
	29.305000	-0.038430
	29.310000	-0.073886
	29.315000	0.000251
	29.320000	0.035708
	29.325000	-0.038430
	29.330000	-0.067440
	29.335000	0.000251
	29.340000	0.045378
	29.345000	-0.031983
	29.350000	-0.067440
	29.355000	0.022814
	29.360000	0.061495
	29.365000	-0.015866
	29.370000	-0.054546
	29.375000	0.029261
	29.380000	0.067941
	29.385000	-0.009419
	29.390000	-0.035206
	29.395000	0.045378
	29.400000	0.080835
	29.405000	0.006697
	29.410000	-0.019089
	29.415000	0.061495
	29.420000	0.100175
	29.425000	0.026038
	29.430000	0.000251
	29.435000	0.067941
	29.440000	0.122738
	29.445000	0.048601
	29.450000	0.019591
	29.455000	0.096952
	29.460000	0.135632
	29.465000	0.064718
	29.470000	0.038931
	29.475000	0.119515
	29.480000	0.161419
	29.485000	0.090505
	29.490000	0.058271
	29.495000	0.145302
	29.500000	0.180759
	29.505000	0.106622
	29.510000	0.077611
	29.515000	0.154972
	29.520000	0.196876
	29.525000	0.125962
	29.530000	0.093728
	29.535000	0.177536
	29.540000	0.206546
	29.545000	0.138855
	29.550000	0.109845
	29.555000	0.193652
	29.560000	0.219439
	29.565000	0.151749
	29.570000	0.125962
	29.575000	0.196876
	29.580000	0.225886
	29.585000	0.164642
	29.590000	0.138855
	29.595000	0.206546
	29.600000	0.238779
	29.605000	0.167865
	29.610000	0.138855
	29.615000	0.212992
	29.620000	0.245226
	29.625000	0.167865
	29.630000	0.142079
	29.635000	0.216216
	29.640000	0.245226
	29.645000	0.177536
	29.650000	0.145302
	29.655000	0.206546
	29.660000	0.242003
	29.665000	0.174312
	29.670000	0.142079
	29.675000	0.216216
	29.680000	0.238779
	29.685000	0.167865
	29.690000	0.135632
	29.695000	0.209769
	29.700000	0.238779
	29.705000	0.161419
	29.710000	0.138855
	29.715000	0.196876
	29.720000	0.229109
	29.725000	0.154972
	29.730000	0.119515
	29.735000	0.196876
	29.740000	0.225886
	29.745000	0.148525
	29.750000	0.106622
	29.755000	0.180759
	29.760000	0.203322
	29.765000	0.122738
	29.770000	0.087281
	29.775000	0.151749
	29.780000	0.183982
	29.785000	0.106622
	29.790000	0.067941
	29.795000	0.129185
	29.800000	0.148525
	29.805000	0.064718
	29.810000	0.026038
	29.815000	0.093728
	29.820000	0.100175
	29.825000	0.022814
	29.830000	-0.012643
	29.835000	0.042154
	29.840000	0.048601
	29.845000	-0.035206
	29.850000	-0.070663
	29.855000	-0.022313
	29.860000	-0.006196
	29.865000	-0.093227
	29.870000	-0.141577
	29.875000	-0.077110
	29.880000	-0.067440
	29.885000	-0.157694
	29.890000	-0.193151
	29.895000	-0.119014
	29.900000	-0.115790
	29.905000	-0.193151
	29.910000	-0.231831
	29.915000	-0.160917
	29.920000	-0.138354
	29.925000	-0.225384
	29.930000	-0.257618
	29.935000	-0.186704
	29.940000	-0.170587
	29.945000	-0.247948
	29.950000	-0.273735
	29.955000	-0.206044
	29.960000	-0.189927
	29.965000	-0.264065
	29.970000	-0.293075
	29.975000	-0.225384
	29.980000	-0.202821
	29.985000	-0.273735
	29.990000	-0.305968
	29.995000	-0.228608
	30.000000	-0.215714
	30.005000	-0.286628
	30.010000	-0.309192
	30.015000	-0.235054
	30.020000	-0.199597
	30.025000	-0.270511
	30.030000	-0.293075
	30.035000	-0.222161
	30.040000	-0.189927
	30.045000	-0.264065
	30.050000	-0.283405
	30.055000	-0.206044
	30.060000	-0.170587
	30.065000	-0.244725
	30.070000	-0.267288
	30.075000	-0.186704
	30.080000	-0.160917
	30.085000	-0.231831
	30.090000	-0.244725
	30.095000	-0.173811
	30.100000	-0.138354
	30.105000	-0.212491
	30.110000	-0.235054
	30.115000	-0.157694
	30.120000	-0.128684
	30.125000	-0.193151
	30.130000	-0.218938
	30.135000	-0.141577
	30.140000	-0.106120
	30.145000	-0.183481
	30.150000	-0.206044
	30.155000	-0.128684
	30.160000	-0.102897
	30.165000	-0.180257
	30.170000	-0.202821
	30.175000	-0.131907
	30.180000	-0.106120
	30.185000	-0.186704
	30.190000	-0.209268
	30.195000	-0.135130
	30.200000	-0.109343
	30.205000	-0.189927
	30.210000	-0.212491
	30.215000	-0.151247
	30.220000	-0.122237
	30.225000	-0.209268
	30.230000	-0.225384
	30.235000	-0.148024
	30.240000	-0.135130
	30.245000	-0.215714
	30.250000	-0.247948
	30.255000	-0.170587
	30.260000	-0.148024
	30.265000	-0.228608
	30.270000	-0.273735
	30.275000	-0.202821
	30.280000	-0.180257
	30.285000	-0.257618
	30.290000	-0.280181
	30.295000	-0.206044
	30.300000	-0.183481
	30.305000	-0.257618
	30.310000	-0.270511
	30.315000	-0.186704
	30.320000	-0.151247
	30.325000	-0.222161
	30.330000	-0.231831
	30.335000	-0.151247
	30.340000	-0.122237
	30.345000	-0.199597
	30.350000	-0.206044
	30.355000	-0.128684
	30.360000	-0.093227
	30.365000	-0.160917
	30.370000	-0.170587
	30.375000	-0.086780
	30.380000	-0.060993
	30.385000	-0.138354
	30.390000	-0.141577
	30.395000	-0.070663
	30.400000	-0.048100
	30.405000	-0.119014
	30.410000	-0.138354
	30.415000	-0.048100
	30.420000	-0.035206
	30.425000	-0.102897
	30.430000	-0.122237
	30.435000	-0.038430
	30.440000	-0.022313
	30.445000	-0.086780
	30.450000	-0.115790
	30.455000	-0.031983
	30.460000	-0.009419
	30.465000	-0.080333
	30.470000	-0.096450
	30.475000	-0.015866
	30.480000	0.003474
	30.485000	-0.080333
	30.490000	-0.083557
	30.495000	-0.009419
	30.500000	0.009921
	30.505000	-0.067440
	30.510000	-0.090003
	30.515000	-0.009419
	30.520000	0.013144
	30.525000	-0.073886
	30.530000	-0.086780
	30.535000	-0.015866
	30.540000	0.006697
	30.545000	-0.064216
	30.550000	-0.086780
	30.555000	-0.012643
	30.560000	0.009921
	30.565000	-0.073886
	30.570000	-0.080333
	30.575000	-0.006196
	30.580000	0.009921
	30.585000	-0.070663
	30.590000	-0.083557
	30.595000	-0.012643
	30.600000	0.006697
	30.605000	-0.070663
	30.610000	-0.083557
	30.615000	-0.012643
	30.620000	0.009921
	30.625000	-0.073886
	30.630000	-0.086780
	30.635000	-0.012643
	30.640000	0.006697
	30.645000	-0.067440
	30.650000	-0.083557
	30.655000	-0.015866
	30.660000	0.003474
	30.665000	-0.064216
	30.670000	-0.077110
	30.675000	-0.006196
	30.680000	0.006697
	30.685000	-0.064216
	30.690000	-0.080333
	30.695000	-0.009419
	30.700000	0.009921
	30.705000	-0.057770
	30.710000	-0.083557
	30.715000	-0.002973
	30.720000	0.016368
	30.725000	-0.064216
	30.730000	-0.086780
	30.735000	-0.002973
	30.740000	0.013144
	30.745000	-0.057770
	30.750000	-0.070663
	30.755000	-0.009419
	30.760000	0.009921
	30.765000	-0.064216
	30.770000	-0.077110
	30.775000	0.003474
	30.780000	0.016368
	30.785000	-0.060993
	30.790000	-0.070663
	30.795000	0.003474
	30.800000	0.019591
	30.805000	-0.057770
	30.810000	-0.073886
	30.815000	0.009921
	30.820000	0.019591
	30.825000	-0.051323
	30.830000	-0.060993
	30.835000	0.013144
	30.840000	0.022814
	30.845000	-0.051323
	30.850000	-0.064216
	30.855000	0.016368
	30.860000	0.029261
	30.865000	-0.048100
	30.870000	-0.054546
	30.875000	0.016368
	30.880000	0.026038
	30.885000	-0.041653
	30.890000	-0.057770
	30.895000	0.016368
	30.900000	0.032484
	30.905000	-0.048100
	30.910000	-0.054546
	30.915000	0.019591
	30.920000	0.042154
	30.925000	-0.041653
	30.930000	-0.051323
	30.935000	0.016368
	30.940000	0.042154
	30.945000	-0.041653
	30.950000	-0.048100
	30.955000	0.019591
	30.960000	0.038931
	30.965000	-0.031983
	30.970000	-0.048100
	30.975000	0.019591
	30.980000	0.042154
	30.985000	-0.038430
	30.990000	-0.051323
	30.995000	0.026038
	31.000000	0.042154
	31.005000	-0.038430
	31.010000	-0.041653
	31.015000	0.029261
	31.020000	0.045378
	31.025000	-0.031983
	31.030000	-0.048100
	31.035000	0.038931
	31.040000	0.045378
	31.045000	-0.038430
	31.050000	-0.041653
	31.055000	0.029261
	31.060000	0.045378
	31.065000	-0.025536
	31.070000	-0.051323
	31.075000	0.026038
	31.080000	0.045378
	31.085000	-0.031983
	31.090000	-0.054546
	31.095000	0.026038
	31.100000	0.045378
	31.105000	-0.031983
	31.110000	-0.041653
	31.115000	0.035708
	31.120000	0.042154
	31.125000	-0.038430
	31.130000	-0.041653
	31.135000	0.029261
	31.140000	0.048601
	31.145000	-0.038430
	31.150000	-0.038430
	31.155000	0.035708
	31.160000	0.038931
	31.165000	-0.031983
	31.170000	-0.041653
	31.175000	0.032484
	31.180000	0.045378
	31.185000	-0.038430
	31.190000	-0.054546
	31.195000	0.032484
	31.200000	0.032484
	31.205000	-0.044876
	31.210000	-0.048100
	31.215000	0.026038
	31.220000	0.035708
	31.225000	-0.044876
	31.230000	-0.051323
	31.235000	0.022814
	31.240000	0.038931
	31.245000	-0.044876
	31.250000	-0.057770
	31.255000	0.026038
	31.260000	0.029261
	31.265000	-0.048100
	31.270000	-0.054546
	31.275000	0.013144
	31.280000	0.032484
	31.285000	-0.054546
	31.290000	-0.060993
	31.295000	0.016368
	31.300000	0.026038
	31.305000	-0.054546
	31.310000	-0.057770
	31.315000	0.013144
	31.320000	0.019591
	31.325000	-0.054546
	31.330000	-0.064216
	31.335000	0.013144
	31.340000	0.019591
	31.345000	-0.064216
	31.350000	-0.070663
	31.355000	0.009921
	31.360000	0.009921
	31.365000	-0.064216
	31.370000	-0.067440
	31.375000	0.000251
	31.380000	0.009921
	31.385000	-0.073886
	31.390000	-0.083557
	31.395000	-0.006196
	31.400000	0.003474
	31.405000	-0.073886
	31.410000	-0.090003
	31.415000	-0.019089
	31.420000	-0.009419
	31.425000	-0.093227
	31.430000	-0.099673
	31.435000	-0.028759
	31.440000	-0.012643
	31.445000	-0.106120
	31.450000	-0.112567
	31.455000	-0.031983
	31.460000	-0.028759
	31.465000	-0.106120
	31.470000	-0.115790
	31.475000	-0.035206
	31.480000	-0.031983
	31.485000	-0.115790
	31.490000	-0.115790
	31.495000	-0.041653
	31.500000	-0.038430
	31.505000	-0.125460
	31.510000	-0.128684
	31.515000	-0.044876
	31.520000	-0.044876
	31.525000	-0.128684
	31.530000	-0.125460
	31.535000	-0.051323
	31.540000	-0.048100
	31.545000	-0.135130
	31.550000	-0.135130
	31.555000	-0.060993
	31.560000	-0.057770
	31.565000	-0.135130
	31.570000	-0.151247
