2024/7/10 	 20:33:45 
 This file comes from Vt only measurement 	 1.000000E-1 
 Voltage Sensitivity 	 0.000000E+0 
 Sampling rate 	 200 
 Number of samples per channel 	 -1 
 No filter from Labview 	 	 	 
 	 
 ***End_of_Header*** 
 	 Time 	  Voltage 	 Filtered Voltage 	 
	0.000000	-2.781508
	0.005000	-2.752498
	0.010000	-2.903996
	0.015000	-2.926559
	0.020000	-2.781508
	0.025000	-2.758944
	0.030000	-2.903996
	0.035000	-2.933006
	0.040000	-2.784731
	0.045000	-2.762168
	0.050000	-2.900772
	0.055000	-2.929783
	0.060000	-2.794401
	0.065000	-2.762168
	0.070000	-2.903996
	0.075000	-2.933006
	0.080000	-2.791178
	0.085000	-2.765391
	0.090000	-2.910442
	0.095000	-2.926559
	0.100000	-2.787955
	0.105000	-2.771838
	0.110000	-2.913666
	0.115000	-2.933006
	0.120000	-2.787955
	0.125000	-2.765391
	0.130000	-2.913666
	0.135000	-2.933006
	0.140000	-2.794401
	0.145000	-2.762168
	0.150000	-2.913666
	0.155000	-2.936229
	0.160000	-2.804072
	0.165000	-2.771838
	0.170000	-2.923336
	0.175000	-2.945899
	0.180000	-2.800848
	0.185000	-2.775061
	0.190000	-2.923336
	0.195000	-2.945899
	0.200000	-2.800848
	0.205000	-2.784731
	0.210000	-2.926559
	0.215000	-2.945899
	0.220000	-2.800848
	0.225000	-2.784731
	0.230000	-2.926559
	0.235000	-2.945899
	0.240000	-2.807295
	0.245000	-2.787955
	0.250000	-2.933006
	0.255000	-2.945899
	0.260000	-2.807295
	0.265000	-2.781508
	0.270000	-2.926559
	0.275000	-2.942676
	0.280000	-2.804072
	0.285000	-2.784731
	0.290000	-2.933006
	0.295000	-2.945899
	0.300000	-2.807295
	0.305000	-2.791178
	0.310000	-2.929783
	0.315000	-2.949123
	0.320000	-2.807295
	0.325000	-2.787955
	0.330000	-2.929783
	0.335000	-2.945899
	0.340000	-2.813742
	0.345000	-2.791178
	0.350000	-2.929783
	0.355000	-2.952346
	0.360000	-2.810518
	0.365000	-2.791178
	0.370000	-2.942676
	0.375000	-2.958793
	0.380000	-2.813742
	0.385000	-2.797625
	0.390000	-2.936229
	0.395000	-2.955569
	0.400000	-2.810518
	0.405000	-2.804072
	0.410000	-2.942676
	0.415000	-2.955569
	0.420000	-2.820188
	0.425000	-2.810518
	0.430000	-2.945899
	0.435000	-2.958793
	0.440000	-2.816965
	0.445000	-2.807295
	0.450000	-2.949123
	0.455000	-2.962016
	0.460000	-2.826635
	0.465000	-2.807295
	0.470000	-2.949123
	0.475000	-2.965239
	0.480000	-2.820188
	0.485000	-2.813742
	0.490000	-2.952346
	0.495000	-2.968463
	0.500000	-2.826635
	0.505000	-2.813742
	0.510000	-2.958793
	0.515000	-2.971686
	0.520000	-2.829858
	0.525000	-2.813742
	0.530000	-2.958793
	0.535000	-2.971686
	0.540000	-2.829858
	0.545000	-2.820188
	0.550000	-2.962016
	0.555000	-2.968463
	0.560000	-2.829858
	0.565000	-2.820188
	0.570000	-2.962016
	0.575000	-2.978133
	0.580000	-2.833082
	0.585000	-2.826635
	0.590000	-2.965239
	0.595000	-2.974910
	0.600000	-2.829858
	0.605000	-2.820188
	0.610000	-2.965239
	0.615000	-2.974910
	0.620000	-2.833082
	0.625000	-2.829858
	0.630000	-2.971686
	0.635000	-2.978133
	0.640000	-2.833082
	0.645000	-2.823412
	0.650000	-2.958793
	0.655000	-2.968463
	0.660000	-2.833082
	0.665000	-2.826635
	0.670000	-2.968463
	0.675000	-2.965239
	0.680000	-2.836305
	0.685000	-2.823412
	0.690000	-2.962016
	0.695000	-2.968463
	0.700000	-2.833082
	0.705000	-2.823412
	0.710000	-2.968463
	0.715000	-2.974910
	0.720000	-2.829858
	0.725000	-2.823412
	0.730000	-2.968463
	0.735000	-2.974910
	0.740000	-2.829858
	0.745000	-2.823412
	0.750000	-2.971686
	0.755000	-2.968463
	0.760000	-2.826635
	0.765000	-2.820188
	0.770000	-2.962016
	0.775000	-2.978133
	0.780000	-2.826635
	0.785000	-2.826635
	0.790000	-2.965239
	0.795000	-2.971686
	0.800000	-2.829858
	0.805000	-2.833082
	0.810000	-2.971686
	0.815000	-2.971686
	0.820000	-2.833082
	0.825000	-2.826635
	0.830000	-2.971686
	0.835000	-2.971686
	0.840000	-2.833082
	0.845000	-2.823412
	0.850000	-2.978133
	0.855000	-2.971686
	0.860000	-2.833082
	0.865000	-2.829858
	0.870000	-2.971686
	0.875000	-2.981356
	0.880000	-2.836305
	0.885000	-2.826635
	0.890000	-2.971686
	0.895000	-2.971686
	0.900000	-2.829858
	0.905000	-2.836305
	0.910000	-2.968463
	0.915000	-2.974910
	0.920000	-2.823412
	0.925000	-2.823412
	0.930000	-2.974910
	0.935000	-2.971686
	0.940000	-2.823412
	0.945000	-2.826635
	0.950000	-2.965239
	0.955000	-2.965239
	0.960000	-2.826635
	0.965000	-2.823412
	0.970000	-2.968463
	0.975000	-2.962016
	0.980000	-2.823412
	0.985000	-2.816965
	0.990000	-2.965239
	0.995000	-2.958793
	1.000000	-2.820188
	1.005000	-2.826635
	1.010000	-2.968463
	1.015000	-2.971686
	1.020000	-2.823412
	1.025000	-2.823412
	1.030000	-2.974910
	1.035000	-2.968463
	1.040000	-2.829858
	1.045000	-2.829858
	1.050000	-2.978133
	1.055000	-2.974910
	1.060000	-2.829858
	1.065000	-2.826635
	1.070000	-2.971686
	1.075000	-2.965239
	1.080000	-2.820188
	1.085000	-2.826635
	1.090000	-2.965239
	1.095000	-2.955569
	1.100000	-2.813742
	1.105000	-2.813742
	1.110000	-2.958793
	1.115000	-2.939453
	1.120000	-2.791178
	1.125000	-2.791178
	1.130000	-2.936229
	1.135000	-2.926559
	1.140000	-2.775061
	1.145000	-2.775061
	1.150000	-2.916889
	1.155000	-2.913666
	1.160000	-2.762168
	1.165000	-2.765391
	1.170000	-2.907219
	1.175000	-2.897549
	1.180000	-2.752498
	1.185000	-2.752498
	1.190000	-2.894326
	1.195000	-2.878209
	1.200000	-2.739604
	1.205000	-2.742828
	1.210000	-2.874985
	1.215000	-2.871762
	1.220000	-2.720264
	1.225000	-2.736381
	1.230000	-2.871762
	1.235000	-2.862092
	1.240000	-2.720264
	1.245000	-2.720264
	1.250000	-2.865315
	1.255000	-2.858869
	1.260000	-2.710594
	1.265000	-2.720264
	1.270000	-2.862092
	1.275000	-2.849199
	1.280000	-2.700924
	1.285000	-2.713817
	1.290000	-2.849199
	1.295000	-2.842752
	1.300000	-2.697701
	1.305000	-2.717041
	1.310000	-2.855645
	1.315000	-2.842752
	1.320000	-2.694477
	1.325000	-2.700924
	1.330000	-2.839528
	1.335000	-2.829858
	1.340000	-2.681584
	1.345000	-2.684807
	1.350000	-2.829858
	1.355000	-2.820188
	1.360000	-2.671914
	1.365000	-2.688031
	1.370000	-2.829858
	1.375000	-2.813742
	1.380000	-2.675137
	1.385000	-2.688031
	1.390000	-2.823412
	1.395000	-2.810518
	1.400000	-2.675137
	1.405000	-2.684807
	1.410000	-2.829858
	1.415000	-2.816965
	1.420000	-2.675137
	1.425000	-2.691254
	1.430000	-2.833082
	1.435000	-2.820188
	1.440000	-2.681584
	1.445000	-2.697701
	1.450000	-2.836305
	1.455000	-2.820188
	1.460000	-2.678361
	1.465000	-2.694477
	1.470000	-2.833082
	1.475000	-2.816965
	1.480000	-2.675137
	1.485000	-2.694477
	1.490000	-2.829858
	1.495000	-2.810518
	1.500000	-2.662244
	1.505000	-2.671914
	1.510000	-2.804072
	1.515000	-2.781508
	1.520000	-2.642904
	1.525000	-2.649350
	1.530000	-2.778285
	1.535000	-2.742828
	1.540000	-2.604223
	1.545000	-2.604223
	1.550000	-2.736381
	1.555000	-2.707371
	1.560000	-2.559096
	1.565000	-2.565543
	1.570000	-2.694477
	1.575000	-2.668690
	1.580000	-2.513969
	1.585000	-2.526863
	1.590000	-2.665467
	1.595000	-2.636457
	1.600000	-2.488182
	1.605000	-2.497852
	1.610000	-2.642904
	1.615000	-2.613893
	1.620000	-2.465619
	1.625000	-2.484959
	1.630000	-2.630010
	1.635000	-2.604223
	1.640000	-2.465619
	1.645000	-2.484959
	1.650000	-2.626787
	1.655000	-2.610670
	1.660000	-2.462395
	1.665000	-2.484959
	1.670000	-2.630010
	1.675000	-2.610670
	1.680000	-2.468842
	1.685000	-2.507522
	1.690000	-2.649350
	1.695000	-2.626787
	1.700000	-2.488182
	1.705000	-2.523639
	1.710000	-2.668690
	1.715000	-2.655797
	1.720000	-2.523639
	1.725000	-2.546203
	1.730000	-2.704147
	1.735000	-2.678361
	1.740000	-2.542979
	1.745000	-2.571990
	1.750000	-2.717041
	1.755000	-2.697701
	1.760000	-2.568766
	1.765000	-2.604223
	1.770000	-2.755721
	1.775000	-2.736381
	1.780000	-2.591330
	1.785000	-2.623563
	1.790000	-2.765391
	1.795000	-2.736381
	1.800000	-2.597777
	1.805000	-2.623563
	1.810000	-2.771838
	1.815000	-2.733158
	1.820000	-2.588106
	1.825000	-2.617117
	1.830000	-2.746051
	1.835000	-2.707371
	1.840000	-2.559096
	1.845000	-2.578436
	1.850000	-2.713817
	1.855000	-2.665467
	1.860000	-2.513969
	1.865000	-2.539756
	1.870000	-2.671914
	1.875000	-2.630010
	1.880000	-2.465619
	1.885000	-2.494629
	1.890000	-2.623563
	1.895000	-2.581660
	1.900000	-2.439832
	1.905000	-2.459172
	1.910000	-2.591330
	1.915000	-2.552650
	1.920000	-2.401152
	1.925000	-2.430162
	1.930000	-2.562320
	1.935000	-2.526863
	1.940000	-2.378588
	1.945000	-2.404375
	1.950000	-2.536533
	1.955000	-2.504299
	1.960000	-2.362471
	1.965000	-2.378588
	1.970000	-2.513969
	1.975000	-2.478512
	1.980000	-2.333461
	1.985000	-2.356025
	1.990000	-2.484959
	1.995000	-2.443055
	2.000000	-2.307674
	2.005000	-2.333461
	2.010000	-2.455949
	2.015000	-2.423715
	2.020000	-2.285111
	2.025000	-2.310898
	2.030000	-2.443055
	2.035000	-2.401152
	2.040000	-2.262547
	2.045000	-2.291557
	2.050000	-2.417268
	2.055000	-2.388258
	2.060000	-2.243207
	2.065000	-2.272217
	2.070000	-2.410822
	2.075000	-2.359248
	2.080000	-2.233537
	2.085000	-2.265771
	2.090000	-2.401152
	2.095000	-2.365695
	2.100000	-2.227090
	2.105000	-2.262547
	2.110000	-2.397928
	2.115000	-2.362471
	2.120000	-2.233537
	2.125000	-2.262547
	2.130000	-2.414045
	2.135000	-2.372141
	2.140000	-2.246430
	2.145000	-2.285111
	2.150000	-2.430162
	2.155000	-2.401152
	2.160000	-2.268994
	2.165000	-2.314121
	2.170000	-2.449502
	2.175000	-2.423715
	2.180000	-2.294781
	2.185000	-2.346355
	2.190000	-2.481736
	2.195000	-2.452725
	2.200000	-2.327014
	2.205000	-2.365695
	2.210000	-2.507522
	2.215000	-2.475289
	2.220000	-2.349578
	2.225000	-2.391482
	2.230000	-2.536533
	2.235000	-2.504299
	2.240000	-2.375365
	2.245000	-2.417268
	2.250000	-2.562320
	2.255000	-2.526863
	2.260000	-2.404375
	2.265000	-2.452725
	2.270000	-2.594553
	2.275000	-2.552650
	2.280000	-2.433385
	2.285000	-2.468842
	2.290000	-2.610670
	2.295000	-2.575213
	2.300000	-2.443055
	2.305000	-2.488182
	2.310000	-2.623563
	2.315000	-2.581660
	2.320000	-2.452725
	2.325000	-2.491406
	2.330000	-2.633233
	2.335000	-2.597777
	2.340000	-2.459172
	2.345000	-2.501076
	2.350000	-2.639680
	2.355000	-2.601000
	2.360000	-2.468842
	2.365000	-2.517193
	2.370000	-2.646127
	2.375000	-2.604223
	2.380000	-2.478512
	2.385000	-2.526863
	2.390000	-2.652574
	2.395000	-2.617117
	2.400000	-2.484959
	2.405000	-2.536533
	2.410000	-2.665467
	2.415000	-2.633233
	2.420000	-2.501076
	2.425000	-2.546203
	2.430000	-2.671914
	2.435000	-2.633233
	2.440000	-2.504299
	2.445000	-2.552650
	2.450000	-2.684807
	2.455000	-2.649350
	2.460000	-2.520416
	2.465000	-2.568766
	2.470000	-2.694477
	2.475000	-2.655797
	2.480000	-2.526863
	2.485000	-2.568766
	2.490000	-2.704147
	2.495000	-2.655797
	2.500000	-2.536533
	2.505000	-2.584883
	2.510000	-2.717041
	2.515000	-2.671914
	2.520000	-2.542979
	2.525000	-2.584883
	2.530000	-2.726711
	2.535000	-2.668690
	2.540000	-2.549426
	2.545000	-2.594553
	2.550000	-2.733158
	2.555000	-2.688031
	2.560000	-2.559096
	2.565000	-2.607447
	2.570000	-2.739604
	2.575000	-2.691254
	2.580000	-2.559096
	2.585000	-2.613893
	2.590000	-2.749274
	2.595000	-2.700924
	2.600000	-2.575213
	2.605000	-2.620340
	2.610000	-2.755721
	2.615000	-2.713817
	2.620000	-2.584883
	2.625000	-2.630010
	2.630000	-2.765391
	2.635000	-2.717041
	2.640000	-2.591330
	2.645000	-2.642904
	2.650000	-2.771838
	2.655000	-2.717041
	2.660000	-2.597777
	2.665000	-2.646127
	2.670000	-2.778285
	2.675000	-2.729934
	2.680000	-2.597777
	2.685000	-2.652574
	2.690000	-2.778285
	2.695000	-2.733158
	2.700000	-2.604223
	2.705000	-2.652574
	2.710000	-2.781508
	2.715000	-2.739604
	2.720000	-2.610670
	2.725000	-2.662244
	2.730000	-2.794401
	2.735000	-2.736381
	2.740000	-2.607447
	2.745000	-2.662244
	2.750000	-2.797625
	2.755000	-2.742828
	2.760000	-2.613893
	2.765000	-2.659020
	2.770000	-2.791178
	2.775000	-2.739604
	2.780000	-2.610670
	2.785000	-2.665467
	2.790000	-2.794401
	2.795000	-2.746051
	2.800000	-2.613893
	2.805000	-2.665467
	2.810000	-2.804072
	2.815000	-2.746051
	2.820000	-2.626787
	2.825000	-2.671914
	2.830000	-2.807295
	2.835000	-2.749274
	2.840000	-2.620340
	2.845000	-2.684807
	2.850000	-2.810518
	2.855000	-2.755721
	2.860000	-2.626787
	2.865000	-2.684807
	2.870000	-2.810518
	2.875000	-2.755721
	2.880000	-2.630010
	2.885000	-2.688031
	2.890000	-2.813742
	2.895000	-2.752498
	2.900000	-2.633233
	2.905000	-2.688031
	2.910000	-2.816965
	2.915000	-2.762168
	2.920000	-2.630010
	2.925000	-2.691254
	2.930000	-2.820188
	2.935000	-2.765391
	2.940000	-2.639680
	2.945000	-2.694477
	2.950000	-2.826635
	2.955000	-2.762168
	2.960000	-2.642904
	2.965000	-2.700924
	2.970000	-2.823412
	2.975000	-2.771838
	2.980000	-2.642904
	2.985000	-2.707371
	2.990000	-2.833082
	2.995000	-2.765391
	3.000000	-2.646127
	3.005000	-2.707371
	3.010000	-2.836305
	3.015000	-2.768615
	3.020000	-2.642904
	3.025000	-2.700924
	3.030000	-2.829858
	3.035000	-2.765391
	3.040000	-2.646127
	3.045000	-2.713817
	3.050000	-2.829858
	3.055000	-2.778285
	3.060000	-2.646127
	3.065000	-2.704147
	3.070000	-2.833082
	3.075000	-2.768615
	3.080000	-2.649350
	3.085000	-2.713817
	3.090000	-2.836305
	3.095000	-2.771838
	3.100000	-2.649350
	3.105000	-2.713817
	3.110000	-2.836305
	3.115000	-2.768615
	3.120000	-2.646127
	3.125000	-2.713817
	3.130000	-2.839528
	3.135000	-2.765391
	3.140000	-2.646127
	3.145000	-2.717041
	3.150000	-2.842752
	3.155000	-2.775061
	3.160000	-2.659020
	3.165000	-2.723488
	3.170000	-2.842752
	3.175000	-2.768615
	3.180000	-2.655797
	3.185000	-2.717041
	3.190000	-2.836305
	3.195000	-2.775061
	3.200000	-2.649350
	3.205000	-2.713817
	3.210000	-2.839528
	3.215000	-2.778285
	3.220000	-2.652574
	3.225000	-2.713817
	3.230000	-2.842752
	3.235000	-2.775061
	3.240000	-2.652574
	3.245000	-2.720264
	3.250000	-2.845975
	3.255000	-2.778285
	3.260000	-2.652574
	3.265000	-2.723488
	3.270000	-2.845975
	3.275000	-2.775061
	3.280000	-2.655797
	3.285000	-2.723488
	3.290000	-2.849199
	3.295000	-2.775061
	3.300000	-2.659020
	3.305000	-2.729934
	3.310000	-2.845975
	3.315000	-2.784731
	3.320000	-2.652574
	3.325000	-2.729934
	3.330000	-2.849199
	3.335000	-2.781508
	3.340000	-2.662244
	3.345000	-2.733158
	3.350000	-2.845975
	3.355000	-2.775061
	3.360000	-2.655797
	3.365000	-2.729934
	3.370000	-2.849199
	3.375000	-2.775061
	3.380000	-2.662244
	3.385000	-2.729934
	3.390000	-2.852422
	3.395000	-2.775061
	3.400000	-2.668690
	3.405000	-2.739604
	3.410000	-2.858869
	3.415000	-2.784731
	3.420000	-2.665467
	3.425000	-2.742828
	3.430000	-2.852422
	3.435000	-2.781508
	3.440000	-2.662244
	3.445000	-2.746051
	3.450000	-2.858869
	3.455000	-2.781508
	3.460000	-2.675137
	3.465000	-2.742828
	3.470000	-2.865315
	3.475000	-2.791178
	3.480000	-2.668690
	3.485000	-2.746051
	3.490000	-2.865315
	3.495000	-2.787955
	3.500000	-2.675137
	3.505000	-2.749274
	3.510000	-2.862092
	3.515000	-2.787955
	3.520000	-2.675137
	3.525000	-2.749274
	3.530000	-2.862092
	3.535000	-2.784731
	3.540000	-2.675137
	3.545000	-2.749274
	3.550000	-2.862092
	3.555000	-2.791178
	3.560000	-2.675137
	3.565000	-2.752498
	3.570000	-2.868539
	3.575000	-2.791178
	3.580000	-2.675137
	3.585000	-2.749274
	3.590000	-2.871762
	3.595000	-2.791178
	3.600000	-2.675137
	3.605000	-2.758944
	3.610000	-2.868539
	3.615000	-2.787955
	3.620000	-2.675137
	3.625000	-2.755721
	3.630000	-2.868539
	3.635000	-2.794401
	3.640000	-2.678361
	3.645000	-2.755721
	3.650000	-2.868539
	3.655000	-2.794401
	3.660000	-2.688031
	3.665000	-2.758944
	3.670000	-2.865315
	3.675000	-2.791178
	3.680000	-2.681584
	3.685000	-2.762168
	3.690000	-2.868539
	3.695000	-2.784731
	3.700000	-2.675137
	3.705000	-2.755721
	3.710000	-2.874985
	3.715000	-2.784731
	3.720000	-2.668690
	3.725000	-2.755721
	3.730000	-2.871762
	3.735000	-2.794401
	3.740000	-2.671914
	3.745000	-2.755721
	3.750000	-2.868539
	3.755000	-2.787955
	3.760000	-2.668690
	3.765000	-2.752498
	3.770000	-2.865315
	3.775000	-2.791178
	3.780000	-2.668690
	3.785000	-2.752498
	3.790000	-2.868539
	3.795000	-2.784731
	3.800000	-2.675137
	3.805000	-2.762168
	3.810000	-2.868539
	3.815000	-2.781508
	3.820000	-2.675137
	3.825000	-2.758944
	3.830000	-2.868539
	3.835000	-2.784731
	3.840000	-2.671914
	3.845000	-2.755721
	3.850000	-2.862092
	3.855000	-2.778285
	3.860000	-2.671914
	3.865000	-2.762168
	3.870000	-2.862092
	3.875000	-2.778285
	3.880000	-2.671914
	3.885000	-2.752498
	3.890000	-2.868539
	3.895000	-2.784731
	3.900000	-2.675137
	3.905000	-2.758944
	3.910000	-2.868539
	3.915000	-2.781508
	3.920000	-2.675137
	3.925000	-2.762168
	3.930000	-2.871762
	3.935000	-2.787955
	3.940000	-2.671914
	3.945000	-2.752498
	3.950000	-2.874985
	3.955000	-2.787955
	3.960000	-2.684807
	3.965000	-2.758944
	3.970000	-2.871762
	3.975000	-2.794401
	3.980000	-2.681584
	3.985000	-2.771838
	3.990000	-2.874985
	3.995000	-2.787955
	4.000000	-2.688031
	4.005000	-2.768615
	4.010000	-2.878209
	4.015000	-2.787955
	4.020000	-2.684807
	4.025000	-2.778285
	4.030000	-2.884655
	4.035000	-2.791178
	4.040000	-2.681584
	4.045000	-2.781508
	4.050000	-2.891102
	4.055000	-2.800848
	4.060000	-2.688031
	4.065000	-2.781508
	4.070000	-2.881432
	4.075000	-2.787955
	4.080000	-2.694477
	4.085000	-2.784731
	4.090000	-2.878209
	4.095000	-2.794401
	4.100000	-2.688031
	4.105000	-2.775061
	4.110000	-2.874985
	4.115000	-2.791178
	4.120000	-2.681584
	4.125000	-2.775061
	4.130000	-2.874985
	4.135000	-2.787955
	4.140000	-2.681584
	4.145000	-2.768615
	4.150000	-2.874985
	4.155000	-2.778285
	4.160000	-2.668690
	4.165000	-2.765391
	4.170000	-2.871762
	4.175000	-2.768615
	4.180000	-2.662244
	4.185000	-2.762168
	4.190000	-2.868539
	4.195000	-2.771838
	4.200000	-2.668690
	4.205000	-2.765391
	4.210000	-2.862092
	4.215000	-2.768615
	4.220000	-2.668690
	4.225000	-2.752498
	4.230000	-2.858869
	4.235000	-2.755721
	4.240000	-2.655797
	4.245000	-2.742828
	4.250000	-2.842752
	4.255000	-2.746051
	4.260000	-2.642904
	4.265000	-2.726711
	4.270000	-2.826635
	4.275000	-2.726711
	4.280000	-2.617117
	4.285000	-2.707371
	4.290000	-2.804072
	4.295000	-2.704147
	4.300000	-2.601000
	4.305000	-2.691254
	4.310000	-2.784731
	4.315000	-2.691254
	4.320000	-2.584883
	4.325000	-2.675137
	4.330000	-2.778285
	4.335000	-2.668690
	4.340000	-2.565543
	4.345000	-2.655797
	4.350000	-2.755721
	4.355000	-2.659020
	4.360000	-2.559096
	4.365000	-2.652574
	4.370000	-2.746051
	4.375000	-2.649350
	4.380000	-2.542979
	4.385000	-2.633233
	4.390000	-2.733158
	4.395000	-2.633233
	4.400000	-2.536533
	4.405000	-2.633233
	4.410000	-2.729934
	4.415000	-2.623563
	4.420000	-2.530086
	4.425000	-2.626787
	4.430000	-2.713817
	4.435000	-2.617117
	4.440000	-2.523639
	4.445000	-2.617117
	4.450000	-2.717041
	4.455000	-2.613893
	4.460000	-2.517193
	4.465000	-2.604223
	4.470000	-2.713817
	4.475000	-2.613893
	4.480000	-2.517193
	4.485000	-2.613893
	4.490000	-2.704147
	4.495000	-2.610670
	4.500000	-2.523639
	4.505000	-2.620340
	4.510000	-2.710594
	4.515000	-2.613893
	4.520000	-2.523639
	4.525000	-2.626787
	4.530000	-2.717041
	4.535000	-2.613893
	4.540000	-2.523639
	4.545000	-2.630010
	4.550000	-2.723488
	4.555000	-2.623563
	4.560000	-2.526863
	4.565000	-2.630010
	4.570000	-2.723488
	4.575000	-2.626787
	4.580000	-2.536533
	4.585000	-2.633233
	4.590000	-2.733158
	4.595000	-2.630010
	4.600000	-2.533309
	4.605000	-2.639680
	4.610000	-2.733158
	4.615000	-2.630010
	4.620000	-2.546203
	4.625000	-2.655797
	4.630000	-2.752498
	4.635000	-2.649350
	4.640000	-2.555873
	4.645000	-2.659020
	4.650000	-2.752498
	4.655000	-2.642904
	4.660000	-2.559096
	4.665000	-2.659020
	4.670000	-2.749274
	4.675000	-2.639680
	4.680000	-2.549426
	4.685000	-2.655797
	4.690000	-2.733158
	4.695000	-2.633233
	4.700000	-2.530086
	4.705000	-2.623563
	4.710000	-2.710594
	4.715000	-2.604223
	4.720000	-2.501076
	4.725000	-2.601000
	4.730000	-2.688031
	4.735000	-2.578436
	4.740000	-2.481736
	4.745000	-2.578436
	4.750000	-2.662244
	4.755000	-2.559096
	4.760000	-2.462395
	4.765000	-2.568766
	4.770000	-2.659020
	4.775000	-2.552650
	4.780000	-2.462395
	4.785000	-2.565543
	4.790000	-2.665467
	4.795000	-2.552650
	4.800000	-2.468842
	4.805000	-2.584883
	4.810000	-2.671914
	4.815000	-2.565543
	4.820000	-2.475289
	4.825000	-2.584883
	4.830000	-2.681584
	4.835000	-2.578436
	4.840000	-2.494629
	4.845000	-2.607447
	4.850000	-2.707371
	4.855000	-2.594553
	4.860000	-2.513969
	4.865000	-2.626787
	4.870000	-2.726711
	4.875000	-2.626787
	4.880000	-2.542979
	4.885000	-2.662244
	4.890000	-2.765391
	4.895000	-2.665467
	4.900000	-2.575213
	4.905000	-2.700924
	4.910000	-2.800848
	4.915000	-2.688031
	4.920000	-2.597777
	4.925000	-2.723488
	4.930000	-2.810518
	4.935000	-2.700924
	4.940000	-2.613893
	4.945000	-2.729934
	4.950000	-2.823412
	4.955000	-2.713817
	4.960000	-2.633233
	4.965000	-2.752498
	4.970000	-2.852422
	4.975000	-2.746051
	4.980000	-2.668690
	4.985000	-2.804072
	4.990000	-2.894326
	4.995000	-2.784731
	5.000000	-2.707371
	5.005000	-2.829858
	5.010000	-2.926559
	5.015000	-2.807295
	5.020000	-2.717041
	5.025000	-2.826635
	5.030000	-2.910442
	5.035000	-2.784731
	5.040000	-2.681584
	5.045000	-2.791178
	5.050000	-2.865315
	5.055000	-2.729934
	5.060000	-2.633233
	5.065000	-2.726711
	5.070000	-2.791178
	5.075000	-2.655797
	5.080000	-2.542979
	5.085000	-2.636457
	5.090000	-2.704147
	5.095000	-2.565543
	5.100000	-2.449502
	5.105000	-2.536533
	5.110000	-2.601000
	5.115000	-2.462395
	5.120000	-2.356025
	5.125000	-2.455949
	5.130000	-2.513969
	5.135000	-2.381811
	5.140000	-2.281887
	5.145000	-2.388258
	5.150000	-2.443055
	5.155000	-2.320568
	5.160000	-2.223867
	5.165000	-2.320568
	5.170000	-2.394705
	5.175000	-2.268994
	5.180000	-2.175517
	5.185000	-2.278664
	5.190000	-2.352801
	5.195000	-2.239984
	5.200000	-2.146506
	5.205000	-2.259324
	5.210000	-2.330238
	5.215000	-2.220644
	5.220000	-2.127166
	5.225000	-2.243207
	5.230000	-2.314121
	5.235000	-2.201303
	5.240000	-2.111049
	5.245000	-2.217420
	5.250000	-2.291557
	5.255000	-2.169070
	5.260000	-2.088486
	5.265000	-2.201303
	5.270000	-2.281887
	5.275000	-2.162623
	5.280000	-2.072369
	5.285000	-2.185187
	5.290000	-2.259324
	5.295000	-2.140060
	5.300000	-2.062699
	5.305000	-2.172293
	5.310000	-2.249654
	5.315000	-2.133613
	5.320000	-2.046582
	5.325000	-2.162623
	5.330000	-2.230314
	5.335000	-2.120719
	5.340000	-2.036912
	5.345000	-2.149730
	5.350000	-2.230314
	5.355000	-2.114273
	5.360000	-2.036912
	5.365000	-2.156176
	5.370000	-2.239984
	5.375000	-2.111049
	5.380000	-2.040135
	5.385000	-2.162623
	5.390000	-2.236760
	5.395000	-2.130390
	5.400000	-2.059476
	5.405000	-2.172293
	5.410000	-2.262547
	5.415000	-2.140060
	5.420000	-2.078816
	5.425000	-2.201303
	5.430000	-2.278664
	5.435000	-2.165846
	5.440000	-2.104603
	5.445000	-2.220644
	5.450000	-2.304451
	5.455000	-2.185187
	5.460000	-2.123943
	5.465000	-2.239984
	5.470000	-2.323791
	5.475000	-2.210973
	5.480000	-2.152953
	5.485000	-2.268994
	5.490000	-2.349578
	5.495000	-2.236760
	5.500000	-2.165846
	5.505000	-2.288334
	5.510000	-2.365695
	5.515000	-2.256101
	5.520000	-2.191633
	5.525000	-2.317344
	5.530000	-2.391482
	5.535000	-2.275441
	5.540000	-2.217420
	5.545000	-2.333461
	5.550000	-2.417268
	5.555000	-2.294781
	5.560000	-2.236760
	5.565000	-2.359248
	5.570000	-2.430162
	5.575000	-2.317344
	5.580000	-2.249654
	5.585000	-2.372141
	5.590000	-2.455949
	5.595000	-2.333461
	5.600000	-2.268994
	5.605000	-2.391482
	5.610000	-2.462395
	5.615000	-2.352801
	5.620000	-2.288334
	5.625000	-2.404375
	5.630000	-2.484959
	5.635000	-2.362471
	5.640000	-2.304451
	5.645000	-2.423715
	5.650000	-2.491406
	5.655000	-2.378588
	5.660000	-2.307674
	5.665000	-2.439832
	5.670000	-2.510746
	5.675000	-2.385035
	5.680000	-2.323791
	5.685000	-2.443055
	5.690000	-2.520416
	5.695000	-2.401152
	5.700000	-2.330238
	5.705000	-2.462395
	5.710000	-2.526863
	5.715000	-2.410822
	5.720000	-2.346355
	5.725000	-2.462395
	5.730000	-2.536533
	5.735000	-2.423715
	5.740000	-2.352801
	5.745000	-2.475289
	5.750000	-2.549426
	5.755000	-2.420492
	5.760000	-2.368918
	5.765000	-2.484959
	5.770000	-2.555873
	5.775000	-2.436609
	5.780000	-2.368918
	5.785000	-2.497852
	5.790000	-2.565543
	5.795000	-2.439832
	5.800000	-2.375365
	5.805000	-2.507522
	5.810000	-2.575213
	5.815000	-2.449502
	5.820000	-2.388258
	5.825000	-2.513969
	5.830000	-2.588106
	5.835000	-2.459172
	5.840000	-2.397928
	5.845000	-2.526863
	5.850000	-2.597777
	5.855000	-2.468842
	5.860000	-2.407598
	5.865000	-2.542979
	5.870000	-2.597777
	5.875000	-2.488182
	5.880000	-2.414045
	5.885000	-2.539756
	5.890000	-2.617117
	5.895000	-2.488182
	5.900000	-2.423715
	5.905000	-2.549426
	5.910000	-2.620340
	5.915000	-2.494629
	5.920000	-2.433385
	5.925000	-2.555873
	5.930000	-2.626787
	5.935000	-2.494629
	5.940000	-2.436609
	5.945000	-2.562320
	5.950000	-2.630010
	5.955000	-2.501076
	5.960000	-2.436609
	5.965000	-2.571990
	5.970000	-2.630010
	5.975000	-2.510746
	5.980000	-2.449502
	5.985000	-2.575213
	5.990000	-2.636457
	5.995000	-2.513969
	6.000000	-2.449502
	6.005000	-2.581660
	6.010000	-2.646127
	6.015000	-2.523639
	6.020000	-2.455949
	6.025000	-2.588106
	6.030000	-2.652574
	6.035000	-2.520416
	6.040000	-2.465619
	6.045000	-2.601000
	6.050000	-2.652574
	6.055000	-2.536533
	6.060000	-2.475289
	6.065000	-2.607447
	6.070000	-2.665467
	6.075000	-2.536533
	6.080000	-2.475289
	6.085000	-2.607447
	6.090000	-2.668690
	6.095000	-2.546203
	6.100000	-2.481736
	6.105000	-2.617117
	6.110000	-2.671914
	6.115000	-2.549426
	6.120000	-2.488182
	6.125000	-2.617117
	6.130000	-2.675137
	6.135000	-2.546203
	6.140000	-2.494629
	6.145000	-2.620340
	6.150000	-2.688031
	6.155000	-2.559096
	6.160000	-2.494629
	6.165000	-2.626787
	6.170000	-2.681584
	6.175000	-2.555873
	6.180000	-2.504299
	6.185000	-2.630010
	6.190000	-2.691254
	6.195000	-2.555873
	6.200000	-2.507522
	6.205000	-2.630010
	6.210000	-2.700924
	6.215000	-2.565543
	6.220000	-2.504299
	6.225000	-2.636457
	6.230000	-2.700924
	6.235000	-2.568766
	6.240000	-2.510746
	6.245000	-2.636457
	6.250000	-2.700924
	6.255000	-2.575213
	6.260000	-2.510746
	6.265000	-2.646127
	6.270000	-2.704147
	6.275000	-2.581660
	6.280000	-2.520416
	6.285000	-2.649350
	6.290000	-2.707371
	6.295000	-2.581660
	6.300000	-2.523639
	6.305000	-2.655797
	6.310000	-2.713817
	6.315000	-2.578436
	6.320000	-2.533309
	6.325000	-2.659020
	6.330000	-2.713817
	6.335000	-2.581660
	6.340000	-2.536533
	6.345000	-2.665467
	6.350000	-2.723488
	6.355000	-2.581660
	6.360000	-2.526863
	6.365000	-2.662244
	6.370000	-2.710594
	6.375000	-2.584883
	6.380000	-2.530086
	6.385000	-2.665467
	6.390000	-2.717041
	6.395000	-2.581660
	6.400000	-2.533309
	6.405000	-2.662244
	6.410000	-2.717041
	6.415000	-2.588106
	6.420000	-2.530086
	6.425000	-2.668690
	6.430000	-2.717041
	6.435000	-2.584883
	6.440000	-2.526863
	6.445000	-2.675137
	6.450000	-2.710594
	6.455000	-2.578436
	6.460000	-2.533309
	6.465000	-2.662244
	6.470000	-2.720264
	6.475000	-2.581660
	6.480000	-2.530086
	6.485000	-2.668690
	6.490000	-2.717041
	6.495000	-2.588106
	6.500000	-2.530086
	6.505000	-2.668690
	6.510000	-2.717041
	6.515000	-2.578436
	6.520000	-2.536533
	6.525000	-2.662244
	6.530000	-2.720264
	6.535000	-2.578436
	6.540000	-2.526863
	6.545000	-2.668690
	6.550000	-2.720264
	6.555000	-2.588106
	6.560000	-2.536533
	6.565000	-2.668690
	6.570000	-2.720264
	6.575000	-2.588106
	6.580000	-2.539756
	6.585000	-2.668690
	6.590000	-2.717041
	6.595000	-2.588106
	6.600000	-2.533309
	6.605000	-2.671914
	6.610000	-2.720264
	6.615000	-2.591330
	6.620000	-2.539756
	6.625000	-2.675137
	6.630000	-2.726711
	6.635000	-2.588106
	6.640000	-2.542979
	6.645000	-2.675137
	6.650000	-2.720264
	6.655000	-2.588106
	6.660000	-2.542979
	6.665000	-2.681584
	6.670000	-2.726711
	6.675000	-2.594553
	6.680000	-2.546203
	6.685000	-2.678361
	6.690000	-2.726711
	6.695000	-2.591330
	6.700000	-2.549426
	6.705000	-2.684807
	6.710000	-2.729934
	6.715000	-2.591330
	6.720000	-2.542979
	6.725000	-2.678361
	6.730000	-2.723488
	6.735000	-2.597777
	6.740000	-2.552650
	6.745000	-2.684807
	6.750000	-2.736381
	6.755000	-2.597777
	6.760000	-2.549426
	6.765000	-2.694477
	6.770000	-2.736381
	6.775000	-2.594553
	6.780000	-2.549426
	6.785000	-2.694477
	6.790000	-2.742828
	6.795000	-2.601000
	6.800000	-2.562320
	6.805000	-2.691254
	6.810000	-2.736381
	6.815000	-2.604223
	6.820000	-2.552650
	6.825000	-2.691254
	6.830000	-2.739604
	6.835000	-2.597777
	6.840000	-2.562320
	6.845000	-2.697701
	6.850000	-2.736381
	6.855000	-2.604223
	6.860000	-2.555873
	6.865000	-2.697701
	6.870000	-2.739604
	6.875000	-2.610670
	6.880000	-2.565543
	6.885000	-2.694477
	6.890000	-2.739604
	6.895000	-2.601000
	6.900000	-2.559096
	6.905000	-2.704147
	6.910000	-2.746051
	6.915000	-2.597777
	6.920000	-2.559096
	6.925000	-2.704147
	6.930000	-2.736381
	6.935000	-2.597777
	6.940000	-2.562320
	6.945000	-2.704147
	6.950000	-2.742828
	6.955000	-2.604223
	6.960000	-2.565543
	6.965000	-2.707371
	6.970000	-2.739604
	6.975000	-2.604223
	6.980000	-2.565543
	6.985000	-2.704147
	6.990000	-2.746051
	6.995000	-2.607447
	7.000000	-2.565543
	7.005000	-2.707371
	7.010000	-2.749274
	7.015000	-2.607447
	7.020000	-2.568766
	7.025000	-2.710594
	7.030000	-2.742828
	7.035000	-2.604223
	7.040000	-2.565543
	7.045000	-2.707371
	7.050000	-2.739604
	7.055000	-2.604223
	7.060000	-2.575213
	7.065000	-2.707371
	7.070000	-2.746051
	7.075000	-2.601000
	7.080000	-2.571990
	7.085000	-2.707371
	7.090000	-2.742828
	7.095000	-2.604223
	7.100000	-2.571990
	7.105000	-2.713817
	7.110000	-2.749274
	7.115000	-2.610670
	7.120000	-2.571990
	7.125000	-2.710594
	7.130000	-2.749274
	7.135000	-2.604223
	7.140000	-2.571990
	7.145000	-2.707371
	7.150000	-2.739604
	7.155000	-2.604223
	7.160000	-2.571990
	7.165000	-2.707371
	7.170000	-2.736381
	7.175000	-2.597777
	7.180000	-2.565543
	7.185000	-2.704147
	7.190000	-2.739604
	7.195000	-2.601000
	7.200000	-2.565543
	7.205000	-2.707371
	7.210000	-2.736381
	7.215000	-2.597777
	7.220000	-2.562320
	7.225000	-2.710594
	7.230000	-2.733158
	7.235000	-2.597777
	7.240000	-2.575213
	7.245000	-2.707371
	7.250000	-2.739604
	7.255000	-2.601000
	7.260000	-2.571990
	7.265000	-2.710594
	7.270000	-2.739604
	7.275000	-2.601000
	7.280000	-2.568766
	7.285000	-2.713817
	7.290000	-2.739604
	7.295000	-2.601000
	7.300000	-2.565543
	7.305000	-2.707371
	7.310000	-2.733158
	7.315000	-2.604223
	7.320000	-2.559096
	7.325000	-2.717041
	7.330000	-2.736381
	7.335000	-2.601000
	7.340000	-2.568766
	7.345000	-2.717041
	7.350000	-2.736381
	7.355000	-2.604223
	7.360000	-2.571990
	7.365000	-2.713817
	7.370000	-2.742828
	7.375000	-2.601000
	7.380000	-2.568766
	7.385000	-2.710594
	7.390000	-2.739604
	7.395000	-2.601000
	7.400000	-2.571990
	7.405000	-2.713817
	7.410000	-2.739604
	7.415000	-2.601000
	7.420000	-2.571990
	7.425000	-2.717041
	7.430000	-2.742828
	7.435000	-2.597777
	7.440000	-2.575213
	7.445000	-2.717041
	7.450000	-2.746051
	7.455000	-2.597777
	7.460000	-2.575213
	7.465000	-2.717041
	7.470000	-2.749274
	7.475000	-2.604223
	7.480000	-2.578436
	7.485000	-2.726711
	7.490000	-2.742828
	7.495000	-2.617117
	7.500000	-2.588106
	7.505000	-2.726711
	7.510000	-2.752498
	7.515000	-2.613893
	7.520000	-2.588106
	7.525000	-2.726711
	7.530000	-2.752498
	7.535000	-2.610670
	7.540000	-2.584883
	7.545000	-2.733158
	7.550000	-2.749274
	7.555000	-2.610670
	7.560000	-2.588106
	7.565000	-2.729934
	7.570000	-2.758944
	7.575000	-2.610670
	7.580000	-2.588106
	7.585000	-2.733158
	7.590000	-2.749274
	7.595000	-2.617117
	7.600000	-2.584883
	7.605000	-2.736381
	7.610000	-2.755721
	7.615000	-2.610670
	7.620000	-2.591330
	7.625000	-2.733158
	7.630000	-2.765391
	7.635000	-2.620340
	7.640000	-2.594553
	7.645000	-2.733158
	7.650000	-2.758944
	7.655000	-2.620340
	7.660000	-2.597777
	7.665000	-2.739604
	7.670000	-2.762168
	7.675000	-2.617117
	7.680000	-2.594553
	7.685000	-2.742828
	7.690000	-2.762168
	7.695000	-2.617117
	7.700000	-2.597777
	7.705000	-2.746051
	7.710000	-2.771838
	7.715000	-2.620340
	7.720000	-2.601000
	7.725000	-2.746051
	7.730000	-2.758944
	7.735000	-2.623563
	7.740000	-2.601000
	7.745000	-2.749274
	7.750000	-2.768615
	7.755000	-2.626787
	7.760000	-2.604223
	7.765000	-2.746051
	7.770000	-2.765391
	7.775000	-2.630010
	7.780000	-2.610670
	7.785000	-2.749274
	7.790000	-2.768615
	7.795000	-2.617117
	7.800000	-2.607447
	7.805000	-2.749274
	7.810000	-2.768615
	7.815000	-2.630010
	7.820000	-2.604223
	7.825000	-2.752498
	7.830000	-2.765391
	7.835000	-2.630010
	7.840000	-2.610670
	7.845000	-2.758944
	7.850000	-2.768615
	7.855000	-2.633233
	7.860000	-2.617117
	7.865000	-2.755721
	7.870000	-2.768615
	7.875000	-2.630010
	7.880000	-2.610670
	7.885000	-2.749274
	7.890000	-2.771838
	7.895000	-2.623563
	7.900000	-2.604223
	7.905000	-2.752498
	7.910000	-2.768615
	7.915000	-2.623563
	7.920000	-2.604223
	7.925000	-2.755721
	7.930000	-2.771838
	7.935000	-2.623563
	7.940000	-2.607447
	7.945000	-2.755721
	7.950000	-2.765391
	7.955000	-2.623563
	7.960000	-2.604223
	7.965000	-2.755721
	7.970000	-2.768615
	7.975000	-2.626787
	7.980000	-2.610670
	7.985000	-2.749274
	7.990000	-2.762168
	7.995000	-2.633233
	8.000000	-2.610670
	8.005000	-2.752498
	8.010000	-2.768615
	8.015000	-2.620340
	8.020000	-2.610670
	8.025000	-2.752498
	8.030000	-2.768615
	8.035000	-2.623563
	8.040000	-2.610670
	8.045000	-2.758944
	8.050000	-2.768615
	8.055000	-2.626787
	8.060000	-2.617117
	8.065000	-2.758944
	8.070000	-2.765391
	8.075000	-2.623563
	8.080000	-2.610670
	8.085000	-2.749274
	8.090000	-2.762168
	8.095000	-2.623563
	8.100000	-2.610670
	8.105000	-2.752498
	8.110000	-2.765391
	8.115000	-2.626787
	8.120000	-2.604223
	8.125000	-2.762168
	8.130000	-2.765391
	8.135000	-2.623563
	8.140000	-2.613893
	8.145000	-2.755721
	8.150000	-2.768615
	8.155000	-2.620340
	8.160000	-2.617117
	8.165000	-2.762168
	8.170000	-2.771838
	8.175000	-2.626787
	8.180000	-2.620340
	8.185000	-2.765391
	8.190000	-2.768615
	8.195000	-2.623563
	8.200000	-2.623563
	8.205000	-2.765391
	8.210000	-2.771838
	8.215000	-2.620340
	8.220000	-2.620340
	8.225000	-2.762168
	8.230000	-2.778285
	8.235000	-2.626787
	8.240000	-2.617117
	8.245000	-2.768615
	8.250000	-2.771838
	8.255000	-2.626787
	8.260000	-2.633233
	8.265000	-2.768615
	8.270000	-2.778285
	8.275000	-2.630010
	8.280000	-2.620340
	8.285000	-2.768615
	8.290000	-2.771838
	8.295000	-2.633233
	8.300000	-2.617117
	8.305000	-2.771838
	8.310000	-2.778285
	8.315000	-2.630010
	8.320000	-2.623563
	8.325000	-2.765391
	8.330000	-2.771838
	8.335000	-2.636457
	8.340000	-2.630010
	8.345000	-2.771838
	8.350000	-2.768615
	8.355000	-2.636457
	8.360000	-2.630010
	8.365000	-2.771838
	8.370000	-2.775061
	8.375000	-2.630010
	8.380000	-2.633233
	8.385000	-2.781508
	8.390000	-2.778285
	8.395000	-2.639680
	8.400000	-2.630010
	8.405000	-2.784731
	8.410000	-2.775061
	8.415000	-2.633233
	8.420000	-2.636457
	8.425000	-2.768615
	8.430000	-2.781508
	8.435000	-2.636457
	8.440000	-2.633233
	8.445000	-2.781508
	8.450000	-2.781508
	8.455000	-2.633233
	8.460000	-2.636457
	8.465000	-2.778285
	8.470000	-2.784731
	8.475000	-2.633233
	8.480000	-2.636457
	8.485000	-2.781508
	8.490000	-2.781508
	8.495000	-2.636457
	8.500000	-2.639680
	8.505000	-2.787955
	8.510000	-2.781508
	8.515000	-2.636457
	8.520000	-2.642904
	8.525000	-2.787955
	8.530000	-2.784731
	8.535000	-2.639680
	8.540000	-2.642904
	8.545000	-2.784731
	8.550000	-2.784731
	8.555000	-2.642904
	8.560000	-2.646127
	8.565000	-2.794401
	8.570000	-2.787955
	8.575000	-2.649350
	8.580000	-2.649350
	8.585000	-2.794401
	8.590000	-2.787955
	8.595000	-2.646127
	8.600000	-2.652574
	8.605000	-2.787955
	8.610000	-2.787955
	8.615000	-2.639680
	8.620000	-2.642904
	8.625000	-2.784731
	8.630000	-2.778285
	8.635000	-2.639680
	8.640000	-2.642904
	8.645000	-2.778285
	8.650000	-2.787955
	8.655000	-2.639680
	8.660000	-2.630010
	8.665000	-2.775061
	8.670000	-2.775061
	8.675000	-2.633233
	8.680000	-2.633233
	8.685000	-2.775061
	8.690000	-2.768615
	8.695000	-2.620340
	8.700000	-2.623563
	8.705000	-2.758944
	8.710000	-2.752498
	8.715000	-2.610670
	8.720000	-2.617117
	8.725000	-2.762168
	8.730000	-2.746051
	8.735000	-2.604223
	8.740000	-2.607447
	8.745000	-2.746051
	8.750000	-2.736381
	8.755000	-2.594553
	8.760000	-2.601000
	8.765000	-2.742828
	8.770000	-2.729934
	8.775000	-2.588106
	8.780000	-2.591330
	8.785000	-2.723488
	8.790000	-2.720264
	8.795000	-2.575213
	8.800000	-2.584883
	8.805000	-2.723488
	8.810000	-2.713817
	8.815000	-2.568766
	8.820000	-2.581660
	8.825000	-2.713817
	8.830000	-2.707371
	8.835000	-2.562320
	8.840000	-2.562320
	8.845000	-2.713817
	8.850000	-2.691254
	8.855000	-2.552650
	8.860000	-2.559096
	8.865000	-2.697701
	8.870000	-2.688031
	8.875000	-2.546203
	8.880000	-2.552650
	8.885000	-2.691254
	8.890000	-2.675137
	8.895000	-2.536533
	8.900000	-2.539756
	8.905000	-2.678361
	8.910000	-2.671914
	8.915000	-2.530086
	8.920000	-2.533309
	8.925000	-2.684807
	8.930000	-2.665467
	8.935000	-2.520416
	8.940000	-2.530086
	8.945000	-2.675137
	8.950000	-2.659020
	8.955000	-2.517193
	8.960000	-2.533309
	8.965000	-2.671914
	8.970000	-2.655797
	8.975000	-2.517193
	8.980000	-2.530086
	8.985000	-2.665467
	8.990000	-2.652574
	8.995000	-2.517193
	9.000000	-2.526863
	9.005000	-2.662244
	9.010000	-2.649350
	9.015000	-2.517193
	9.020000	-2.530086
	9.025000	-2.665467
	9.030000	-2.649350
	9.035000	-2.517193
	9.040000	-2.530086
	9.045000	-2.675137
	9.050000	-2.655797
	9.055000	-2.523639
	9.060000	-2.539756
	9.065000	-2.678361
	9.070000	-2.659020
	9.075000	-2.526863
	9.080000	-2.542979
	9.085000	-2.678361
	9.090000	-2.668690
	9.095000	-2.530086
	9.100000	-2.549426
	9.105000	-2.684807
	9.110000	-2.675137
	9.115000	-2.539756
	9.120000	-2.552650
	9.125000	-2.684807
	9.130000	-2.668690
	9.135000	-2.526863
	9.140000	-2.549426
	9.145000	-2.688031
	9.150000	-2.665467
	9.155000	-2.526863
	9.160000	-2.542979
	9.165000	-2.681584
	9.170000	-2.662244
	9.175000	-2.517193
	9.180000	-2.536533
	9.185000	-2.665467
	9.190000	-2.642904
	9.195000	-2.494629
	9.200000	-2.513969
	9.205000	-2.633233
	9.210000	-2.607447
	9.215000	-2.465619
	9.220000	-2.478512
	9.225000	-2.617117
	9.230000	-2.581660
	9.235000	-2.439832
	9.240000	-2.443055
	9.245000	-2.581660
	9.250000	-2.555873
	9.255000	-2.414045
	9.260000	-2.417268
	9.265000	-2.559096
	9.270000	-2.536533
	9.275000	-2.394705
	9.280000	-2.417268
	9.285000	-2.559096
	9.290000	-2.539756
	9.295000	-2.397928
	9.300000	-2.426939
	9.305000	-2.571990
	9.310000	-2.562320
	9.315000	-2.430162
	9.320000	-2.449502
	9.325000	-2.597777
	9.330000	-2.584883
	9.335000	-2.446279
	9.340000	-2.481736
	9.345000	-2.630010
	9.350000	-2.623563
	9.355000	-2.491406
	9.360000	-2.523639
	9.365000	-2.681584
	9.370000	-2.678361
	9.375000	-2.549426
	9.380000	-2.581660
	9.385000	-2.739604
	9.390000	-2.710594
	9.395000	-2.571990
	9.400000	-2.597777
	9.405000	-2.746051
	9.410000	-2.720264
	9.415000	-2.581660
	9.420000	-2.607447
	9.425000	-2.752498
	9.430000	-2.723488
	9.435000	-2.591330
	9.440000	-2.620340
	9.445000	-2.758944
	9.450000	-2.733158
	9.455000	-2.597777
	9.460000	-2.630010
	9.465000	-2.768615
	9.470000	-2.749274
	9.475000	-2.610670
	9.480000	-2.633233
	9.485000	-2.771838
	9.490000	-2.746051
	9.495000	-2.594553
	9.500000	-2.617117
	9.505000	-2.742828
	9.510000	-2.694477
	9.515000	-2.533309
	9.520000	-2.542979
	9.525000	-2.659020
	9.530000	-2.604223
	9.535000	-2.433385
	9.540000	-2.436609
	9.545000	-2.555873
	9.550000	-2.501076
	9.555000	-2.336684
	9.560000	-2.349578
	9.565000	-2.455949
	9.570000	-2.407598
	9.575000	-2.256101
	9.580000	-2.262547
	9.585000	-2.381811
	9.590000	-2.330238
	9.595000	-2.191633
	9.600000	-2.207750
	9.605000	-2.333461
	9.610000	-2.291557
	9.615000	-2.146506
	9.620000	-2.162623
	9.625000	-2.298004
	9.630000	-2.252877
	9.635000	-2.114273
	9.640000	-2.140060
	9.645000	-2.265771
	9.650000	-2.223867
	9.655000	-2.088486
	9.660000	-2.111049
	9.665000	-2.236760
	9.670000	-2.204527
	9.675000	-2.062699
	9.680000	-2.098156
	9.685000	-2.220644
	9.690000	-2.178740
	9.695000	-2.040135
	9.700000	-2.072369
	9.705000	-2.198080
	9.710000	-2.169070
	9.715000	-2.020795
	9.720000	-2.049806
	9.725000	-2.178740
	9.730000	-2.143283
	9.735000	-2.011125
	9.740000	-2.040135
	9.745000	-2.165846
	9.750000	-2.140060
	9.755000	-1.998232
	9.760000	-2.030465
	9.765000	-2.159400
	9.770000	-2.123943
	9.775000	-1.988562
	9.780000	-2.020795
	9.785000	-2.156176
	9.790000	-2.117496
	9.795000	-1.985338
	9.800000	-2.020795
	9.805000	-2.152953
	9.810000	-2.120719
	9.815000	-1.995008
	9.820000	-2.027242
	9.825000	-2.165846
	9.830000	-2.133613
	9.835000	-2.001455
	9.840000	-2.049806
	9.845000	-2.181963
	9.850000	-2.143283
	9.855000	-2.020795
	9.860000	-2.056252
	9.865000	-2.191633
	9.870000	-2.165846
	9.875000	-2.036912
	9.880000	-2.082039
	9.885000	-2.210973
	9.890000	-2.172293
	9.895000	-2.049806
	9.900000	-2.091709
	9.905000	-2.223867
	9.910000	-2.185187
	9.915000	-2.062699
	9.920000	-2.111049
	9.925000	-2.239984
	9.930000	-2.207750
	9.935000	-2.078816
	9.940000	-2.117496
	9.945000	-2.262547
	9.950000	-2.227090
	9.955000	-2.094933
	9.960000	-2.136836
	9.965000	-2.275441
	9.970000	-2.236760
	9.975000	-2.114273
	9.980000	-2.156176
	9.985000	-2.294781
	9.990000	-2.259324
	9.995000	-2.130390
	10.000000	-2.169070
	10.005000	-2.298004
	10.010000	-2.262547
	10.015000	-2.140060
	10.020000	-2.181963
	10.025000	-2.314121
	10.030000	-2.275441
	10.035000	-2.143283
	10.040000	-2.191633
	10.045000	-2.323791
	10.050000	-2.281887
	10.055000	-2.156176
	10.060000	-2.198080
	10.065000	-2.339908
	10.070000	-2.291557
	10.075000	-2.152953
	10.080000	-2.198080
	10.085000	-2.339908
	10.090000	-2.294781
	10.095000	-2.165846
	10.100000	-2.210973
	10.105000	-2.339908
	10.110000	-2.301228
	10.115000	-2.175517
	10.120000	-2.223867
	10.125000	-2.352801
	10.130000	-2.310898
	10.135000	-2.181963
	10.140000	-2.227090
	10.145000	-2.356025
	10.150000	-2.314121
	10.155000	-2.188410
	10.160000	-2.236760
	10.165000	-2.365695
	10.170000	-2.320568
	10.175000	-2.201303
	10.180000	-2.249654
	10.185000	-2.375365
	10.190000	-2.333461
	10.195000	-2.210973
	10.200000	-2.252877
	10.205000	-2.401152
	10.210000	-2.349578
	10.215000	-2.230314
	10.220000	-2.281887
	10.225000	-2.414045
	10.230000	-2.372141
	10.235000	-2.249654
	10.240000	-2.298004
	10.245000	-2.430162
	10.250000	-2.397928
	10.255000	-2.262547
	10.260000	-2.314121
	10.265000	-2.452725
	10.270000	-2.401152
	10.275000	-2.285111
	10.280000	-2.336684
	10.285000	-2.462395
	10.290000	-2.423715
	10.295000	-2.291557
	10.300000	-2.343131
	10.305000	-2.478512
	10.310000	-2.426939
	10.315000	-2.298004
	10.320000	-2.346355
	10.325000	-2.475289
	10.330000	-2.426939
	10.335000	-2.301228
	10.340000	-2.352801
	10.345000	-2.481736
	10.350000	-2.439832
	10.355000	-2.304451
	10.360000	-2.362471
	10.365000	-2.488182
	10.370000	-2.430162
	10.375000	-2.314121
	10.380000	-2.362471
	10.385000	-2.501076
	10.390000	-2.436609
	10.395000	-2.320568
	10.400000	-2.368918
	10.405000	-2.504299
	10.410000	-2.455949
	10.415000	-2.320568
	10.420000	-2.378588
	10.425000	-2.504299
	10.430000	-2.449502
	10.435000	-2.333461
	10.440000	-2.381811
	10.445000	-2.513969
	10.450000	-2.455949
	10.455000	-2.327014
	10.460000	-2.385035
	10.465000	-2.513969
	10.470000	-2.452725
	10.475000	-2.327014
	10.480000	-2.378588
	10.485000	-2.507522
	10.490000	-2.459172
	10.495000	-2.320568
	10.500000	-2.381811
	10.505000	-2.510746
	10.510000	-2.449502
	10.515000	-2.320568
	10.520000	-2.372141
	10.525000	-2.504299
	10.530000	-2.446279
	10.535000	-2.310898
	10.540000	-2.368918
	10.545000	-2.488182
	10.550000	-2.436609
	10.555000	-2.307674
	10.560000	-2.356025
	10.565000	-2.481736
	10.570000	-2.426939
	10.575000	-2.298004
	10.580000	-2.352801
	10.585000	-2.475289
	10.590000	-2.417268
	10.595000	-2.285111
	10.600000	-2.349578
	10.605000	-2.472066
	10.610000	-2.423715
	10.615000	-2.285111
	10.620000	-2.352801
	10.625000	-2.468842
	10.630000	-2.423715
	10.635000	-2.294781
	10.640000	-2.352801
	10.645000	-2.481736
	10.650000	-2.420492
	10.655000	-2.291557
	10.660000	-2.356025
	10.665000	-2.481736
	10.670000	-2.423715
	10.675000	-2.301228
	10.680000	-2.365695
	10.685000	-2.488182
	10.690000	-2.430162
	10.695000	-2.307674
	10.700000	-2.359248
	10.705000	-2.488182
	10.710000	-2.426939
	10.715000	-2.304451
	10.720000	-2.362471
	10.725000	-2.494629
	10.730000	-2.423715
	10.735000	-2.298004
	10.740000	-2.359248
	10.745000	-2.475289
	10.750000	-2.404375
	10.755000	-2.281887
	10.760000	-2.336684
	10.765000	-2.459172
	10.770000	-2.385035
	10.775000	-2.259324
	10.780000	-2.317344
	10.785000	-2.433385
	10.790000	-2.359248
	10.795000	-2.223867
	10.800000	-2.288334
	10.805000	-2.401152
	10.810000	-2.352801
	10.815000	-2.227090
	10.820000	-2.288334
	10.825000	-2.414045
	10.830000	-2.356025
	10.835000	-2.230314
	10.840000	-2.291557
	10.845000	-2.426939
	10.850000	-2.362471
	10.855000	-2.256101
	10.860000	-2.323791
	10.865000	-2.455949
	10.870000	-2.401152
	10.875000	-2.294781
	10.880000	-2.372141
	10.885000	-2.501076
	10.890000	-2.455949
	10.895000	-2.352801
	10.900000	-2.433385
	10.905000	-2.578436
	10.910000	-2.526863
	10.915000	-2.433385
	10.920000	-2.517193
	10.925000	-2.659020
	10.930000	-2.623563
	10.935000	-2.517193
	10.940000	-2.597777
	10.945000	-2.742828
	10.950000	-2.713817
	10.955000	-2.607447
	10.960000	-2.700924
	10.965000	-2.842752
	10.970000	-2.804072
	10.975000	-2.704147
	10.980000	-2.787955
	10.985000	-2.929783
	10.990000	-2.881432
	10.995000	-2.784731
	11.000000	-2.871762
	11.005000	-3.007143
	11.010000	-2.962016
	11.015000	-2.858869
	11.020000	-2.942676
	11.025000	-3.081280
	11.030000	-3.029707
	11.035000	-2.920112
	11.040000	-2.997473
	11.045000	-3.129631
	11.050000	-3.074834
	11.055000	-2.958793
	11.060000	-3.036153
	11.065000	-3.168311
	11.070000	-3.107067
	11.075000	-2.994250
	11.080000	-3.071610
	11.085000	-3.194098
	11.090000	-3.126407
	11.095000	-3.016813
	11.100000	-3.087727
	11.105000	-3.206991
	11.110000	-3.136077
	11.115000	-3.026483
	11.120000	-3.084504
	11.125000	-3.206991
	11.130000	-3.136077
	11.135000	-3.020037
	11.140000	-3.078057
	11.145000	-3.187651
	11.150000	-3.110291
	11.155000	-2.981356
	11.160000	-3.042600
	11.165000	-3.145748
	11.170000	-3.058717
	11.175000	-2.923336
	11.180000	-2.968463
	11.185000	-3.071610
	11.190000	-2.978133
	11.195000	-2.836305
	11.200000	-2.878209
	11.205000	-2.971686
	11.210000	-2.878209
	11.215000	-2.749274
	11.220000	-2.787955
	11.225000	-2.894326
	11.230000	-2.810518
	11.235000	-2.681584
	11.240000	-2.742828
	11.245000	-2.862092
	11.250000	-2.797625
	11.255000	-2.688031
	11.260000	-2.775061
	11.265000	-2.903996
	11.270000	-2.836305
	11.275000	-2.729934
	11.280000	-2.810518
	11.285000	-2.942676
	11.290000	-2.868539
	11.295000	-2.765391
	11.300000	-2.852422
	11.305000	-2.987803
	11.310000	-2.910442
	11.315000	-2.800848
	11.320000	-2.881432
	11.325000	-2.997473
	11.330000	-2.926559
	11.335000	-2.791178
	11.340000	-2.842752
	11.345000	-2.945899
	11.350000	-2.842752
	11.355000	-2.700924
	11.360000	-2.739604
	11.365000	-2.816965
	11.370000	-2.710594
	11.375000	-2.559096
	11.380000	-2.591330
	11.385000	-2.671914
	11.390000	-2.571990
	11.395000	-2.423715
	11.400000	-2.475289
	11.405000	-2.568766
	11.410000	-2.465619
	11.415000	-2.343131
	11.420000	-2.404375
	11.425000	-2.504299
	11.430000	-2.410822
	11.435000	-2.294781
	11.440000	-2.352801
	11.445000	-2.455949
	11.450000	-2.375365
	11.455000	-2.259324
	11.460000	-2.333461
	11.465000	-2.449502
	11.470000	-2.365695
	11.475000	-2.252877
	11.480000	-2.339908
	11.485000	-2.459172
	11.490000	-2.394705
	11.495000	-2.291557
	11.500000	-2.385035
	11.505000	-2.526863
	11.510000	-2.472066
	11.515000	-2.394705
	11.520000	-2.501076
	11.525000	-2.659020
	11.530000	-2.623563
	11.535000	-2.555873
	11.540000	-2.688031
	11.545000	-2.858869
	11.550000	-2.829858
	11.555000	-2.778285
	11.560000	-2.920112
	11.565000	-3.087727
	11.570000	-3.065164
	11.575000	-3.010366
	11.580000	-3.148971
	11.585000	-3.319809
	11.590000	-3.294022
	11.595000	-3.232778
	11.600000	-3.355266
	11.605000	-3.513210
	11.610000	-3.471307
	11.615000	-3.393946
	11.620000	-3.519657
	11.625000	-3.667932
	11.630000	-3.626028
	11.635000	-3.542221
	11.640000	-3.661485
	11.645000	-3.790419
	11.650000	-3.732399
	11.655000	-3.651815
	11.660000	-3.745292
	11.665000	-3.864557
	11.670000	-3.800089
	11.675000	-3.693719
	11.680000	-3.783973
	11.685000	-3.893567
	11.690000	-3.803313
	11.695000	-3.696942
	11.700000	-3.767856
	11.705000	-3.867780
	11.710000	-3.777526
	11.715000	-3.655038
	11.720000	-3.706612
	11.725000	-3.806536
	11.730000	-3.700165
	11.735000	-3.568008
	11.740000	-3.635698
	11.745000	-3.703389
	11.750000	-3.590571
	11.755000	-3.461637
	11.760000	-3.503540
	11.765000	-3.577678
	11.770000	-3.461637
	11.775000	-3.313362
	11.780000	-3.355266
	11.785000	-3.432627
	11.790000	-3.310139
	11.795000	-3.165088
	11.800000	-3.210215
	11.805000	-3.277905
	11.810000	-3.152194
	11.815000	-3.007143
	11.820000	-3.065164
	11.825000	-3.136077
	11.830000	-3.020037
	11.835000	-2.887879
	11.840000	-2.952346
	11.845000	-3.029707
	11.850000	-2.933006
	11.855000	-2.810518
	11.860000	-2.881432
	11.865000	-2.981356
	11.870000	-2.887879
	11.875000	-2.784731
	11.880000	-2.887879
	11.885000	-2.997473
	11.890000	-2.923336
	11.895000	-2.833082
	11.900000	-2.949123
	11.905000	-3.074834
	11.910000	-3.013590
	11.915000	-2.933006
	11.920000	-3.055494
	11.925000	-3.200545
	11.930000	-3.142524
	11.935000	-3.074834
	11.940000	-3.200545
	11.945000	-3.345596
	11.950000	-3.300469
	11.955000	-3.229555
	11.960000	-3.352043
	11.965000	-3.487424
	11.970000	-3.429403
	11.975000	-3.361713
	11.980000	-3.477754
	11.985000	-3.603465
	11.990000	-3.538997
	11.995000	-3.455190
	12.000000	-3.555114
	12.005000	-3.664708
	12.010000	-3.580901
	12.015000	-3.480977
	12.020000	-3.568008
	12.025000	-3.661485
	12.030000	-3.558338
	12.035000	-3.439073
	12.040000	-3.506764
	12.045000	-3.590571
	12.050000	-3.471307
	12.055000	-3.348819
	12.060000	-3.419733
	12.065000	-3.487424
	12.070000	-3.364936
	12.075000	-3.226332
	12.080000	-3.274682
	12.085000	-3.326256
	12.090000	-3.184428
	12.095000	-3.029707
	12.100000	-3.052270
	12.105000	-3.103844
	12.110000	-2.978133
	12.115000	-2.852422
	12.120000	-2.923336
	12.125000	-3.000696
	12.130000	-2.903996
	12.135000	-2.804072
	12.140000	-2.897549
	12.145000	-2.997473
	12.150000	-2.900772
	12.155000	-2.804072
	12.160000	-2.910442
	12.165000	-3.023260
	12.170000	-2.942676
	12.175000	-2.855645
	12.180000	-2.968463
	12.185000	-3.084504
	12.190000	-3.023260
	12.195000	-2.942676
	12.200000	-3.058717
	12.205000	-3.187651
	12.210000	-3.129631
	12.215000	-3.058717
	12.220000	-3.187651
	12.225000	-3.319809
	12.230000	-3.265012
	12.235000	-3.200545
	12.240000	-3.335926
	12.245000	-3.471307
	12.250000	-3.429403
	12.255000	-3.368159
