2024/7/21 	 8:54:29 
 This file comes from Vt only measurement 	 1.000000E-1 
 Voltage Sensitivity 	 0.000000E+0 
 Sampling rate 	 200 
 Number of samples per channel 	 -1 
 No filter from Labview 	 	 	 
 	 
 ***End_of_Header*** 
 	 Time 	  Voltage 	 Filtered Voltage 	 
	0.000000	0.156131
	0.005000	0.399496
	0.010000	0.465271
	0.015000	0.221905
	0.020000	0.156131
	0.025000	0.402785
	0.030000	0.465271
	0.035000	0.221905
	0.040000	0.156131
	0.045000	0.402785
	0.050000	0.461982
	0.055000	0.221905
	0.060000	0.156131
	0.065000	0.399496
	0.070000	0.468560
	0.075000	0.218617
	0.080000	0.156131
	0.085000	0.396208
	0.090000	0.461982
	0.095000	0.215328
	0.100000	0.152842
	0.105000	0.399496
	0.110000	0.458694
	0.115000	0.212039
	0.120000	0.149554
	0.125000	0.396208
	0.130000	0.458694
	0.135000	0.215328
	0.140000	0.149554
	0.145000	0.392919
	0.150000	0.458694
	0.155000	0.208751
	0.160000	0.149554
	0.165000	0.392919
	0.170000	0.458694
	0.175000	0.208751
	0.180000	0.149554
	0.185000	0.392919
	0.190000	0.458694
	0.195000	0.208751
	0.200000	0.156131
	0.205000	0.399496
	0.210000	0.455405
	0.215000	0.208751
	0.220000	0.146265
	0.225000	0.396208
	0.230000	0.452116
	0.235000	0.205462
	0.240000	0.146265
	0.245000	0.392919
	0.250000	0.448827
	0.255000	0.198884
	0.260000	0.149554
	0.265000	0.389630
	0.270000	0.448827
	0.275000	0.198884
	0.280000	0.146265
	0.285000	0.399496
	0.290000	0.445539
	0.295000	0.198884
	0.300000	0.146265
	0.305000	0.389630
	0.310000	0.445539
	0.315000	0.202173
	0.320000	0.142976
	0.325000	0.392919
	0.330000	0.442250
	0.335000	0.192307
	0.340000	0.142976
	0.345000	0.389630
	0.350000	0.442250
	0.355000	0.195596
	0.360000	0.142976
	0.365000	0.389630
	0.370000	0.438961
	0.375000	0.198884
	0.380000	0.146265
	0.385000	0.386342
	0.390000	0.438961
	0.395000	0.195596
	0.400000	0.146265
	0.405000	0.389630
	0.410000	0.438961
	0.415000	0.189018
	0.420000	0.139687
	0.425000	0.392919
	0.430000	0.438961
	0.435000	0.189018
	0.440000	0.139687
	0.445000	0.392919
	0.450000	0.438961
	0.455000	0.189018
	0.460000	0.139687
	0.465000	0.383053
	0.470000	0.435672
	0.475000	0.189018
	0.480000	0.142976
	0.485000	0.386342
	0.490000	0.435672
	0.495000	0.189018
	0.500000	0.142976
	0.505000	0.386342
	0.510000	0.435672
	0.515000	0.189018
	0.520000	0.146265
	0.525000	0.386342
	0.530000	0.435672
	0.535000	0.189018
	0.540000	0.139687
	0.545000	0.389630
	0.550000	0.435672
	0.555000	0.189018
	0.560000	0.142976
	0.565000	0.386342
	0.570000	0.432384
	0.575000	0.185730
	0.580000	0.139687
	0.585000	0.386342
	0.590000	0.432384
	0.595000	0.185730
	0.600000	0.142976
	0.605000	0.379764
	0.610000	0.425806
	0.615000	0.182441
	0.620000	0.136399
	0.625000	0.379764
	0.630000	0.422518
	0.635000	0.182441
	0.640000	0.136399
	0.645000	0.373187
	0.650000	0.422518
	0.655000	0.179152
	0.660000	0.139687
	0.665000	0.373187
	0.670000	0.415940
	0.675000	0.182441
	0.680000	0.136399
	0.685000	0.369898
	0.690000	0.419229
	0.695000	0.182441
	0.700000	0.136399
	0.705000	0.369898
	0.710000	0.415940
	0.715000	0.182441
	0.720000	0.136399
	0.725000	0.369898
	0.730000	0.415940
	0.735000	0.185730
	0.740000	0.136399
	0.745000	0.363321
	0.750000	0.409363
	0.755000	0.182441
	0.760000	0.136399
	0.765000	0.363321
	0.770000	0.419229
	0.775000	0.198884
	0.780000	0.146265
	0.785000	0.369898
	0.790000	0.415940
	0.795000	0.189018
	0.800000	0.142976
	0.805000	0.366609
	0.810000	0.409363
	0.815000	0.162708
	0.820000	0.133110
	0.825000	0.379764
	0.830000	0.415940
	0.835000	0.165997
	0.840000	0.133110
	0.845000	0.379764
	0.850000	0.412651
	0.855000	0.162708
	0.860000	0.133110
	0.865000	0.383053
	0.870000	0.415940
	0.875000	0.162708
	0.880000	0.133110
	0.885000	0.383053
	0.890000	0.412651
	0.895000	0.169286
	0.900000	0.126533
	0.905000	0.350166
	0.910000	0.399496
	0.915000	0.182441
	0.920000	0.142976
	0.925000	0.369898
	0.930000	0.406074
	0.935000	0.189018
	0.940000	0.146265
	0.945000	0.373187
	0.950000	0.412651
	0.955000	0.189018
	0.960000	0.149554
	0.965000	0.369898
	0.970000	0.406074
	0.975000	0.185730
	0.980000	0.149554
	0.985000	0.379764
	0.990000	0.409363
	0.995000	0.182441
	1.000000	0.136399
	1.005000	0.369898
	1.010000	0.406074
	1.015000	0.169286
	1.020000	0.133110
	1.025000	0.369898
	1.030000	0.396208
	1.035000	0.159420
	1.040000	0.126533
	1.045000	0.360032
	1.050000	0.392919
	1.055000	0.156131
	1.060000	0.126533
	1.065000	0.363321
	1.070000	0.386342
	1.075000	0.149554
	1.080000	0.123244
	1.085000	0.363321
	1.090000	0.389630
	1.095000	0.149554
	1.100000	0.123244
	1.105000	0.360032
	1.110000	0.389630
	1.115000	0.146265
	1.120000	0.119955
	1.125000	0.356743
	1.130000	0.392919
	1.135000	0.146265
	1.140000	0.123244
	1.145000	0.360032
	1.150000	0.389630
	1.155000	0.149554
	1.160000	0.123244
	1.165000	0.363321
	1.170000	0.389630
	1.175000	0.149554
	1.180000	0.123244
	1.185000	0.363321
	1.190000	0.389630
	1.195000	0.152842
	1.200000	0.126533
	1.205000	0.363321
	1.210000	0.383053
	1.215000	0.146265
	1.220000	0.126533
	1.225000	0.366609
	1.230000	0.389630
	1.235000	0.149554
	1.240000	0.129821
	1.245000	0.369898
	1.250000	0.392919
	1.255000	0.152842
	1.260000	0.129821
	1.265000	0.366609
	1.270000	0.389630
	1.275000	0.149554
	1.280000	0.129821
	1.285000	0.363321
	1.290000	0.383053
	1.295000	0.146265
	1.300000	0.119955
	1.305000	0.363321
	1.310000	0.376475
	1.315000	0.133110
	1.320000	0.116666
	1.325000	0.356743
	1.330000	0.369898
	1.335000	0.126533
	1.340000	0.110089
	1.345000	0.350166
	1.350000	0.369898
	1.355000	0.123244
	1.360000	0.110089
	1.365000	0.356743
	1.370000	0.373187
	1.375000	0.129821
	1.380000	0.116666
	1.385000	0.353454
	1.390000	0.373187
	1.395000	0.133110
	1.400000	0.119955
	1.405000	0.360032
	1.410000	0.379764
	1.415000	0.136399
	1.420000	0.123244
	1.425000	0.369898
	1.430000	0.376475
	1.435000	0.126533
	1.440000	0.116666
	1.445000	0.363321
	1.450000	0.376475
	1.455000	0.129821
	1.460000	0.116666
	1.465000	0.360032
	1.470000	0.369898
	1.475000	0.123244
	1.480000	0.113378
	1.485000	0.360032
	1.490000	0.363321
	1.495000	0.123244
	1.500000	0.110089
	1.505000	0.356743
	1.510000	0.360032
	1.515000	0.113378
	1.520000	0.110089
	1.525000	0.346877
	1.530000	0.356743
	1.535000	0.110089
	1.540000	0.106800
	1.545000	0.353454
	1.550000	0.356743
	1.555000	0.116666
	1.560000	0.106800
	1.565000	0.356743
	1.570000	0.363321
	1.575000	0.116666
	1.580000	0.113378
	1.585000	0.353454
	1.590000	0.366609
	1.595000	0.116666
	1.600000	0.113378
	1.605000	0.363321
	1.610000	0.363321
	1.615000	0.110089
	1.620000	0.119955
	1.625000	0.360032
	1.630000	0.363321
	1.635000	0.116666
	1.640000	0.113378
	1.645000	0.356743
	1.650000	0.363321
	1.655000	0.113378
	1.660000	0.113378
	1.665000	0.360032
	1.670000	0.356743
	1.675000	0.106800
	1.680000	0.106800
	1.685000	0.353454
	1.690000	0.350166
	1.695000	0.103511
	1.700000	0.106800
	1.705000	0.350166
	1.710000	0.350166
	1.715000	0.103511
	1.720000	0.103511
	1.725000	0.343588
	1.730000	0.350166
	1.735000	0.103511
	1.740000	0.103511
	1.745000	0.343588
	1.750000	0.350166
	1.755000	0.106800
	1.760000	0.103511
	1.765000	0.346877
	1.770000	0.343588
	1.775000	0.103511
	1.780000	0.103511
	1.785000	0.346877
	1.790000	0.343588
	1.795000	0.106800
	1.800000	0.106800
	1.805000	0.340299
	1.810000	0.350166
	1.815000	0.106800
	1.820000	0.106800
	1.825000	0.340299
	1.830000	0.346877
	1.835000	0.110089
	1.840000	0.106800
	1.845000	0.333722
	1.850000	0.343588
	1.855000	0.126533
	1.860000	0.123244
	1.865000	0.323856
	1.870000	0.343588
	1.875000	0.152842
	1.880000	0.139687
	1.885000	0.310701
	1.890000	0.320567
	1.895000	0.185730
	1.900000	0.198884
	1.905000	0.353454
	1.910000	0.340299
	1.915000	0.195596
	1.920000	0.208751
	1.925000	0.353454
	1.930000	0.343588
	1.935000	0.198884
	1.940000	0.208751
	1.945000	0.356743
	1.950000	0.343588
	1.955000	0.198884
	1.960000	0.212039
	1.965000	0.353454
	1.970000	0.340299
	1.975000	0.198884
	1.980000	0.208751
	1.985000	0.353454
	1.990000	0.343588
	1.995000	0.195596
	2.000000	0.215328
	2.005000	0.360032
	2.010000	0.343588
	2.015000	0.202173
	2.020000	0.212039
	2.025000	0.379764
	2.030000	0.360032
	2.035000	0.123244
	2.040000	0.126533
	2.045000	0.353454
	2.050000	0.343588
	2.055000	0.113378
	2.060000	0.123244
	2.065000	0.356743
	2.070000	0.340299
	2.075000	0.100223
	2.080000	0.113378
	2.085000	0.350166
	2.090000	0.330433
	2.095000	0.087068
	2.100000	0.103511
	2.105000	0.343588
	2.110000	0.327145
	2.115000	0.080490
	2.120000	0.100223
	2.125000	0.337011
	2.130000	0.327145
	2.135000	0.077202
	2.140000	0.096934
	2.145000	0.340299
	2.150000	0.320567
	2.155000	0.077202
	2.160000	0.093645
	2.165000	0.333722
	2.170000	0.317278
	2.175000	0.073913
	2.180000	0.090357
	2.185000	0.337011
	2.190000	0.317278
	2.195000	0.073913
	2.200000	0.093645
	2.205000	0.337011
	2.210000	0.317278
	2.215000	0.070624
	2.220000	0.093645
	2.225000	0.346877
	2.230000	0.317278
	2.235000	0.077202
	2.240000	0.096934
	2.245000	0.340299
	2.250000	0.323856
	2.255000	0.077202
	2.260000	0.100223
	2.265000	0.343588
	2.270000	0.317278
	2.275000	0.080490
	2.280000	0.106800
	2.285000	0.350166
	2.290000	0.327145
	2.295000	0.080490
	2.300000	0.106800
	2.305000	0.350166
	2.310000	0.323856
	2.315000	0.080490
	2.320000	0.110089
	2.325000	0.346877
	2.330000	0.320567
	2.335000	0.070624
	2.340000	0.100223
	2.345000	0.343588
	2.350000	0.313990
	2.355000	0.064047
	2.360000	0.090357
	2.365000	0.330433
	2.370000	0.304124
	2.375000	0.057469
	2.380000	0.090357
	2.385000	0.330433
	2.390000	0.297546
	2.395000	0.054181
	2.400000	0.087068
	2.405000	0.330433
	2.410000	0.304124
	2.415000	0.060758
	2.420000	0.093645
	2.425000	0.337011
	2.430000	0.304124
	2.435000	0.070624
	2.440000	0.100223
	2.445000	0.343588
	2.450000	0.313990
	2.455000	0.070624
	2.460000	0.103511
	2.465000	0.346877
	2.470000	0.317278
	2.475000	0.077202
	2.480000	0.110089
	2.485000	0.346877
	2.490000	0.313990
	2.495000	0.073913
	2.500000	0.103511
	2.505000	0.343588
	2.510000	0.307412
	2.515000	0.067335
	2.520000	0.100223
	2.525000	0.333722
	2.530000	0.304124
	2.535000	0.060758
	2.540000	0.093645
	2.545000	0.323856
	2.550000	0.297546
	2.555000	0.054181
	2.560000	0.093645
	2.565000	0.323856
	2.570000	0.294257
	2.575000	0.047603
	2.580000	0.083779
	2.585000	0.320567
	2.590000	0.287680
	2.595000	0.044314
	2.600000	0.087068
	2.605000	0.323856
	2.610000	0.287680
	2.615000	0.054181
	2.620000	0.090357
	2.625000	0.327145
	2.630000	0.294257
	2.635000	0.060758
	2.640000	0.096934
	2.645000	0.337011
	2.650000	0.294257
	2.655000	0.064047
	2.660000	0.096934
	2.665000	0.340299
	2.670000	0.304124
	2.675000	0.064047
	2.680000	0.103511
	2.685000	0.340299
	2.690000	0.300835
	2.695000	0.060758
	2.700000	0.100223
	2.705000	0.333722
	2.710000	0.297546
	2.715000	0.054181
	2.720000	0.096934
	2.725000	0.337011
	2.730000	0.294257
	2.735000	0.054181
	2.740000	0.093645
	2.745000	0.330433
	2.750000	0.284391
	2.755000	0.050892
	2.760000	0.087068
	2.765000	0.327145
	2.770000	0.284391
	2.775000	0.050892
	2.780000	0.090357
	2.785000	0.320567
	2.790000	0.281102
	2.795000	0.044314
	2.800000	0.087068
	2.805000	0.320567
	2.810000	0.284391
	2.815000	0.044314
	2.820000	0.090357
	2.825000	0.320567
	2.830000	0.277814
	2.835000	0.044314
	2.840000	0.087068
	2.845000	0.320567
	2.850000	0.277814
	2.855000	0.037737
	2.860000	0.087068
	2.865000	0.317278
	2.870000	0.277814
	2.875000	0.041026
	2.880000	0.087068
	2.885000	0.320567
	2.890000	0.277814
	2.895000	0.034448
	2.900000	0.083779
	2.905000	0.323856
	2.910000	0.274525
	2.915000	0.041026
	2.920000	0.087068
	2.925000	0.323856
	2.930000	0.274525
	2.935000	0.041026
	2.940000	0.090357
	2.945000	0.320567
	2.950000	0.274525
	2.955000	0.044314
	2.960000	0.093645
	2.965000	0.320567
	2.970000	0.274525
	2.975000	0.041026
	2.980000	0.090357
	2.985000	0.320567
	2.990000	0.274525
	2.995000	0.044314
	3.000000	0.093645
	3.005000	0.320567
	3.010000	0.274525
	3.015000	0.044314
	3.020000	0.087068
	3.025000	0.320567
	3.030000	0.271236
	3.035000	0.041026
	3.040000	0.090357
	3.045000	0.317278
	3.050000	0.274525
	3.055000	0.034448
	3.060000	0.087068
	3.065000	0.320567
	3.070000	0.267948
	3.075000	0.031160
	3.080000	0.087068
	3.085000	0.320567
	3.090000	0.267948
	3.095000	0.034448
	3.100000	0.090357
	3.105000	0.317278
	3.110000	0.261370
	3.115000	0.034448
	3.120000	0.087068
	3.125000	0.317278
	3.130000	0.264659
	3.135000	0.031160
	3.140000	0.083779
	3.145000	0.317278
	3.150000	0.261370
	3.155000	0.024582
	3.160000	0.083779
	3.165000	0.320567
	3.170000	0.261370
	3.175000	0.021293
	3.180000	0.087068
	3.185000	0.310701
	3.190000	0.258081
	3.195000	0.021293
	3.200000	0.083779
	3.205000	0.317278
	3.210000	0.254793
	3.215000	0.021293
	3.220000	0.083779
	3.225000	0.320567
	3.230000	0.254793
	3.235000	0.021293
	3.240000	0.083779
	3.245000	0.317278
	3.250000	0.254793
	3.255000	0.021293
	3.260000	0.087068
	3.265000	0.317278
	3.270000	0.251504
	3.275000	0.018005
	3.280000	0.083779
	3.285000	0.313990
	3.290000	0.251504
	3.295000	0.018005
	3.300000	0.080490
	3.305000	0.313990
	3.310000	0.251504
	3.315000	0.014716
	3.320000	0.083779
	3.325000	0.310701
	3.330000	0.248215
	3.335000	0.014716
	3.340000	0.080490
	3.345000	0.310701
	3.350000	0.248215
	3.355000	0.014716
	3.360000	0.080490
	3.365000	0.310701
	3.370000	0.241638
	3.375000	0.008138
	3.380000	0.080490
	3.385000	0.304124
	3.390000	0.241638
	3.395000	0.014716
	3.400000	0.080490
	3.405000	0.307412
	3.410000	0.241638
	3.415000	0.014716
	3.420000	0.077202
	3.425000	0.304124
	3.430000	0.238349
	3.435000	0.008138
	3.440000	0.080490
	3.445000	0.307412
	3.450000	0.238349
	3.455000	0.014716
	3.460000	0.080490
	3.465000	0.307412
	3.470000	0.235060
	3.475000	0.014716
	3.480000	0.080490
	3.485000	0.307412
	3.490000	0.238349
	3.495000	0.011427
	3.500000	0.083779
	3.505000	0.317278
	3.510000	0.244927
	3.515000	0.014716
	3.520000	0.087068
	3.525000	0.313990
	3.530000	0.241638
	3.535000	0.011427
	3.540000	0.083779
	3.545000	0.310701
	3.550000	0.238349
	3.555000	0.001561
	3.560000	0.080490
	3.565000	0.304124
	3.570000	0.235060
	3.575000	0.001561
	3.580000	0.077202
	3.585000	0.304124
	3.590000	0.231772
	3.595000	-0.001728
	3.600000	0.083779
	3.605000	0.307412
	3.610000	0.235060
	3.615000	0.004850
	3.620000	0.083779
	3.625000	0.313990
	3.630000	0.235060
	3.635000	0.004850
	3.640000	0.083779
	3.645000	0.307412
	3.650000	0.235060
	3.655000	0.001561
	3.660000	0.080490
	3.665000	0.300835
	3.670000	0.228483
	3.675000	-0.005016
	3.680000	0.080490
	3.685000	0.300835
	3.690000	0.221905
	3.695000	-0.008305
	3.700000	0.070624
	3.705000	0.297546
	3.710000	0.218617
	3.715000	-0.011594
	3.720000	0.070624
	3.725000	0.300835
	3.730000	0.218617
	3.735000	-0.008305
	3.740000	0.080490
	3.745000	0.304124
	3.750000	0.218617
	3.755000	-0.005016
	3.760000	0.080490
	3.765000	0.307412
	3.770000	0.225194
	3.775000	0.001561
	3.780000	0.080490
	3.785000	0.310701
	3.790000	0.221905
	3.795000	-0.001728
	3.800000	0.087068
	3.805000	0.310701
	3.810000	0.225194
	3.815000	-0.005016
	3.820000	0.090357
	3.825000	0.307412
	3.830000	0.221905
	3.835000	-0.005016
	3.840000	0.083779
	3.845000	0.304124
	3.850000	0.215328
	3.855000	-0.008305
	3.860000	0.080490
	3.865000	0.300835
	3.870000	0.212039
	3.875000	-0.014883
	3.880000	0.073913
	3.885000	0.297546
	3.890000	0.202173
	3.895000	-0.018171
	3.900000	0.070624
	3.905000	0.294257
	3.910000	0.205462
	3.915000	-0.021460
	3.920000	0.077202
	3.925000	0.294257
	3.930000	0.208751
	3.935000	-0.018171
	3.940000	0.073913
	3.945000	0.297546
	3.950000	0.208751
	3.955000	-0.014883
	3.960000	0.083779
	3.965000	0.307412
	3.970000	0.215328
	3.975000	-0.008305
	3.980000	0.080490
	3.985000	0.300835
	3.990000	0.212039
	3.995000	-0.014883
	4.000000	0.080490
	4.005000	0.300835
	4.010000	0.208751
	4.015000	-0.014883
	4.020000	0.077202
	4.025000	0.300835
	4.030000	0.202173
	4.035000	-0.021460
	4.040000	0.070624
	4.045000	0.290969
	4.050000	0.198884
	4.055000	-0.024749
	4.060000	0.070624
	4.065000	0.287680
	4.070000	0.192307
	4.075000	-0.028037
	4.080000	0.070624
	4.085000	0.290969
	4.090000	0.195596
	4.095000	-0.024749
	4.100000	0.067335
	4.105000	0.294257
	4.110000	0.198884
	4.115000	-0.021460
	4.120000	0.080490
	4.125000	0.300835
	4.130000	0.202173
	4.135000	-0.018171
	4.140000	0.080490
	4.145000	0.300835
	4.150000	0.202173
	4.155000	-0.014883
	4.160000	0.087068
	4.165000	0.300835
	4.170000	0.202173
	4.175000	-0.018171
	4.180000	0.083779
	4.185000	0.297546
	4.190000	0.198884
	4.195000	-0.024749
	4.200000	0.083779
	4.205000	0.294257
	4.210000	0.192307
	4.215000	-0.024749
	4.220000	0.080490
	4.225000	0.297546
	4.230000	0.192307
	4.235000	-0.024749
	4.240000	0.077202
	4.245000	0.294257
	4.250000	0.185730
	4.255000	-0.028037
	4.260000	0.077202
	4.265000	0.297546
	4.270000	0.192307
	4.275000	-0.024749
	4.280000	0.077202
	4.285000	0.290969
	4.290000	0.189018
	4.295000	-0.028037
	4.300000	0.073913
	4.305000	0.290969
	4.310000	0.185730
	4.315000	-0.031326
	4.320000	0.070624
	4.325000	0.284391
	4.330000	0.179152
	4.335000	-0.037904
	4.340000	0.070624
	4.345000	0.281102
	4.350000	0.182441
	4.355000	-0.037904
	4.360000	0.073913
	4.365000	0.284391
	4.370000	0.175863
	4.375000	-0.037904
	4.380000	0.073913
	4.385000	0.290969
	4.390000	0.175863
	4.395000	-0.041192
	4.400000	0.077202
	4.405000	0.287680
	4.410000	0.182441
	4.415000	-0.031326
	4.420000	0.080490
	4.425000	0.294257
	4.430000	0.179152
	4.435000	-0.034615
	4.440000	0.077202
	4.445000	0.294257
	4.450000	0.179152
	4.455000	-0.034615
	4.460000	0.077202
	4.465000	0.290969
	4.470000	0.175863
	4.475000	-0.037904
	4.480000	0.073913
	4.485000	0.284391
	4.490000	0.175863
	4.495000	-0.037904
	4.500000	0.077202
	4.505000	0.287680
	4.510000	0.169286
	4.515000	-0.037904
	4.520000	0.073913
	4.525000	0.287680
	4.530000	0.169286
	4.535000	-0.044481
	4.540000	0.073913
	4.545000	0.284391
	4.550000	0.169286
	4.555000	-0.047770
	4.560000	0.080490
	4.565000	0.284391
	4.570000	0.169286
	4.575000	-0.041192
	4.580000	0.077202
	4.585000	0.284391
	4.590000	0.169286
	4.595000	-0.044481
	4.600000	0.080490
	4.605000	0.287680
	4.610000	0.169286
	4.615000	-0.047770
	4.620000	0.077202
	4.625000	0.281102
	4.630000	0.169286
	4.635000	-0.041192
	4.640000	0.070624
	4.645000	0.281102
	4.650000	0.162708
	4.655000	-0.044481
	4.660000	0.073913
	4.665000	0.277814
	4.670000	0.162708
	4.675000	-0.044481
	4.680000	0.067335
	4.685000	0.277814
	4.690000	0.156131
	4.695000	-0.051059
	4.700000	0.067335
	4.705000	0.274525
	4.710000	0.156131
	4.715000	-0.051059
	4.720000	0.067335
	4.725000	0.277814
	4.730000	0.156131
	4.735000	-0.051059
	4.740000	0.070624
	4.745000	0.274525
	4.750000	0.156131
	4.755000	-0.051059
	4.760000	0.073913
	4.765000	0.274525
	4.770000	0.152842
	4.775000	-0.054347
	4.780000	0.070624
	4.785000	0.274525
	4.790000	0.152842
	4.795000	-0.054347
	4.800000	0.067335
	4.805000	0.271236
	4.810000	0.149554
	4.815000	-0.060925
	4.820000	0.067335
	4.825000	0.267948
	4.830000	0.142976
	4.835000	-0.057636
	4.840000	0.067335
	4.845000	0.271236
	4.850000	0.149554
	4.855000	-0.060925
	4.860000	0.064047
	4.865000	0.267948
	4.870000	0.146265
	4.875000	-0.064213
	4.880000	0.070624
	4.885000	0.267948
	4.890000	0.146265
	4.895000	-0.057636
	4.900000	0.073913
	4.905000	0.274525
	4.910000	0.152842
	4.915000	-0.051059
	4.920000	0.077202
	4.925000	0.281102
	4.930000	0.149554
	4.935000	-0.054347
	4.940000	0.077202
	4.945000	0.281102
	4.950000	0.146265
	4.955000	-0.054347
	4.960000	0.080490
	4.965000	0.277814
	4.970000	0.146265
	4.975000	-0.060925
	4.980000	0.073913
	4.985000	0.271236
	4.990000	0.142976
	4.995000	-0.064213
	5.000000	0.070624
	5.005000	0.271236
	5.010000	0.133110
	5.015000	-0.067502
	5.020000	0.067335
	5.025000	0.267948
	5.030000	0.129821
	5.035000	-0.064213
	5.040000	0.064047
	5.045000	0.264659
	5.050000	0.133110
	5.055000	-0.070791
	5.060000	0.064047
	5.065000	0.264659
	5.070000	0.133110
	5.075000	-0.064213
	5.080000	0.067335
	5.085000	0.264659
	5.090000	0.133110
	5.095000	-0.064213
	5.100000	0.077202
	5.105000	0.267948
	5.110000	0.136399
	5.115000	-0.060925
	5.120000	0.073913
	5.125000	0.274525
	5.130000	0.133110
	5.135000	-0.060925
	5.140000	0.080490
	5.145000	0.271236
	5.150000	0.136399
	5.155000	-0.060925
	5.160000	0.077202
	5.165000	0.274525
	5.170000	0.133110
	5.175000	-0.064213
	5.180000	0.077202
	5.185000	0.264659
	5.190000	0.129821
	5.195000	-0.064213
	5.200000	0.070624
	5.205000	0.264659
	5.210000	0.126533
	5.215000	-0.070791
	5.220000	0.067335
	5.225000	0.258081
	5.230000	0.116666
	5.235000	-0.074080
	5.240000	0.064047
	5.245000	0.258081
	5.250000	0.113378
	5.255000	-0.077368
	5.260000	0.064047
	5.265000	0.258081
	5.270000	0.116666
	5.275000	-0.074080
	5.280000	0.067335
	5.285000	0.261370
	5.290000	0.123244
	5.295000	-0.074080
	5.300000	0.073913
	5.305000	0.264659
	5.310000	0.123244
	5.315000	-0.067502
	5.320000	0.077202
	5.325000	0.267948
	5.330000	0.123244
	5.335000	-0.067502
	5.340000	0.077202
	5.345000	0.271236
	5.350000	0.126533
	5.355000	-0.067502
	5.360000	0.077202
	5.365000	0.267948
	5.370000	0.119955
	5.375000	-0.074080
	5.380000	0.070624
	5.385000	0.258081
	5.390000	0.116666
	5.395000	-0.080657
	5.400000	0.067335
	5.405000	0.258081
	5.410000	0.110089
	5.415000	-0.077368
	5.420000	0.067335
	5.425000	0.254793
	5.430000	0.106800
	5.435000	-0.077368
	5.440000	0.064047
	5.445000	0.254793
	5.450000	0.106800
	5.455000	-0.077368
	5.460000	0.067335
	5.465000	0.258081
	5.470000	0.106800
	5.475000	-0.077368
	5.480000	0.073913
	5.485000	0.258081
	5.490000	0.110089
	5.495000	-0.077368
	5.500000	0.070624
	5.505000	0.261370
	5.510000	0.106800
	5.515000	-0.077368
	5.520000	0.073913
	5.525000	0.258081
	5.530000	0.106800
	5.535000	-0.077368
	5.540000	0.070624
	5.545000	0.254793
	5.550000	0.106800
	5.555000	-0.083946
	5.560000	0.070624
	5.565000	0.254793
	5.570000	0.103511
	5.575000	-0.083946
	5.580000	0.073913
	5.585000	0.254793
	5.590000	0.100223
	5.595000	-0.080657
	5.600000	0.067335
	5.605000	0.254793
	5.610000	0.103511
	5.615000	-0.080657
	5.620000	0.067335
	5.625000	0.254793
	5.630000	0.103511
	5.635000	-0.083946
	5.640000	0.073913
	5.645000	0.258081
	5.650000	0.103511
	5.655000	-0.077368
	5.660000	0.077202
	5.665000	0.258081
	5.670000	0.100223
	5.675000	-0.077368
	5.680000	0.077202
	5.685000	0.258081
	5.690000	0.096934
	5.695000	-0.083946
	5.700000	0.077202
	5.705000	0.251504
	5.710000	0.096934
	5.715000	-0.080657
	5.720000	0.077202
	5.725000	0.254793
	5.730000	0.096934
	5.735000	-0.083946
	5.740000	0.067335
	5.745000	0.248215
	5.750000	0.096934
	5.755000	-0.083946
	5.760000	0.070624
	5.765000	0.254793
	5.770000	0.093645
	5.775000	-0.087234
	5.780000	0.073913
	5.785000	0.251504
	5.790000	0.090357
	5.795000	-0.083946
	5.800000	0.073913
	5.805000	0.248215
	5.810000	0.087068
	5.815000	-0.087234
	5.820000	0.073913
	5.825000	0.248215
	5.830000	0.087068
	5.835000	-0.090523
	5.840000	0.067335
	5.845000	0.244927
	5.850000	0.087068
	5.855000	-0.090523
	5.860000	0.067335
	5.865000	0.241638
	5.870000	0.080490
	5.875000	-0.090523
	5.880000	0.070624
	5.885000	0.244927
	5.890000	0.083779
	5.895000	-0.090523
	5.900000	0.070624
	5.905000	0.244927
	5.910000	0.083779
	5.915000	-0.097101
	5.920000	0.070624
	5.925000	0.248215
	5.930000	0.080490
	5.935000	-0.090523
	5.940000	0.070624
	5.945000	0.248215
	5.950000	0.083779
	5.955000	-0.093812
	5.960000	0.073913
	5.965000	0.241638
	5.970000	0.080490
	5.975000	-0.093812
	5.980000	0.073913
	5.985000	0.244927
	5.990000	0.083779
	5.995000	-0.093812
	6.000000	0.077202
	6.005000	0.244927
	6.010000	0.080490
	6.015000	-0.093812
	6.020000	0.073913
	6.025000	0.238349
	6.030000	0.080490
	6.035000	-0.090523
	6.040000	0.077202
	6.045000	0.238349
	6.050000	0.077202
	6.055000	-0.093812
	6.060000	0.073913
	6.065000	0.241638
	6.070000	0.070624
	6.075000	-0.093812
	6.080000	0.073913
	6.085000	0.238349
	6.090000	0.073913
	6.095000	-0.093812
	6.100000	0.070624
	6.105000	0.238349
	6.110000	0.070624
	6.115000	-0.093812
	6.120000	0.067335
	6.125000	0.238349
	6.130000	0.073913
	6.135000	-0.100389
	6.140000	0.070624
	6.145000	0.238349
	6.150000	0.070624
	6.155000	-0.100389
	6.160000	0.070624
	6.165000	0.235060
	6.170000	0.067335
	6.175000	-0.100389
	6.180000	0.067335
	6.185000	0.238349
	6.190000	0.064047
	6.195000	-0.100389
	6.200000	0.070624
	6.205000	0.235060
	6.210000	0.064047
	6.215000	-0.100389
	6.220000	0.067335
	6.225000	0.231772
	6.230000	0.067335
	6.235000	-0.100389
	6.240000	0.064047
	6.245000	0.228483
	6.250000	0.064047
	6.255000	-0.097101
	6.260000	0.067335
	6.265000	0.231772
	6.270000	0.067335
	6.275000	-0.093812
	6.280000	0.077202
	6.285000	0.235060
	6.290000	0.067335
	6.295000	-0.097101
	6.300000	0.077202
	6.305000	0.238349
	6.310000	0.064047
	6.315000	-0.100389
	6.320000	0.080490
	6.325000	0.235060
	6.330000	0.064047
	6.335000	-0.100389
	6.340000	0.070624
	6.345000	0.235060
	6.350000	0.054181
	6.355000	-0.106967
	6.360000	0.073913
	6.365000	0.228483
	6.370000	0.047603
	6.375000	-0.110256
	6.380000	0.067335
	6.385000	0.225194
	6.390000	0.044314
	6.395000	-0.113544
	6.400000	0.064047
	6.405000	0.221905
	6.410000	0.047603
	6.415000	-0.116833
	6.420000	0.064047
	6.425000	0.225194
	6.430000	0.041026
	6.435000	-0.120122
	6.440000	0.067335
	6.445000	0.225194
	6.450000	0.037737
	6.455000	-0.120122
	6.460000	0.067335
	6.465000	0.218617
	6.470000	0.041026
	6.475000	-0.120122
	6.480000	0.070624
	6.485000	0.228483
	6.490000	0.044314
	6.495000	-0.110256
	6.500000	0.070624
	6.505000	0.228483
	6.510000	0.047603
	6.515000	-0.110256
	6.520000	0.077202
	6.525000	0.231772
	6.530000	0.050892
	6.535000	-0.106967
	6.540000	0.077202
	6.545000	0.231772
	6.550000	0.044314
	6.555000	-0.110256
	6.560000	0.073913
	6.565000	0.225194
	6.570000	0.044314
	6.575000	-0.110256
	6.580000	0.077202
	6.585000	0.228483
	6.590000	0.044314
	6.595000	-0.106967
	6.600000	0.077202
	6.605000	0.228483
	6.610000	0.041026
	6.615000	-0.113544
	6.620000	0.073913
	6.625000	0.225194
	6.630000	0.037737
	6.635000	-0.116833
	6.640000	0.077202
	6.645000	0.225194
	6.650000	0.041026
	6.655000	-0.113544
	6.660000	0.073913
	6.665000	0.228483
	6.670000	0.037737
	6.675000	-0.110256
	6.680000	0.073913
	6.685000	0.228483
	6.690000	0.037737
	6.695000	-0.113544
	6.700000	0.073913
	6.705000	0.221905
	6.710000	0.037737
	6.715000	-0.113544
	6.720000	0.077202
	6.725000	0.228483
	6.730000	0.034448
	6.735000	-0.116833
	6.740000	0.077202
	6.745000	0.225194
	6.750000	0.031160
	6.755000	-0.116833
	6.760000	0.073913
	6.765000	0.221905
	6.770000	0.024582
	6.775000	-0.123410
	6.780000	0.070624
	6.785000	0.212039
	6.790000	0.018005
	6.795000	-0.123410
	6.800000	0.067335
	6.805000	0.212039
	6.810000	0.018005
	6.815000	-0.126699
	6.820000	0.064047
	6.825000	0.212039
	6.830000	0.021293
	6.835000	-0.126699
	6.840000	0.070624
	6.845000	0.218617
	6.850000	0.027871
	6.855000	-0.116833
	6.860000	0.070624
	6.865000	0.221905
	6.870000	0.027871
	6.875000	-0.113544
	6.880000	0.080490
	6.885000	0.228483
	6.890000	0.027871
	6.895000	-0.110256
	6.900000	0.083779
	6.905000	0.225194
	6.910000	0.031160
	6.915000	-0.113544
	6.920000	0.083779
	6.925000	0.225194
	6.930000	0.024582
	6.935000	-0.116833
	6.940000	0.077202
	6.945000	0.215328
	6.950000	0.018005
	6.955000	-0.123410
	6.960000	0.070624
	6.965000	0.208751
	6.970000	0.018005
	6.975000	-0.126699
	6.980000	0.067335
	6.985000	0.212039
	6.990000	0.014716
	6.995000	-0.126699
	7.000000	0.073913
	7.005000	0.208751
	7.010000	0.008138
	7.015000	-0.123410
	7.020000	0.070624
	7.025000	0.208751
	7.030000	0.011427
	7.035000	-0.126699
	7.040000	0.073913
	7.045000	0.208751
	7.050000	0.011427
	7.055000	-0.126699
	7.060000	0.070624
	7.065000	0.212039
	7.070000	0.011427
	7.075000	-0.126699
	7.080000	0.073913
	7.085000	0.202173
	7.090000	0.011427
	7.095000	-0.126699
	7.100000	0.070624
	7.105000	0.208751
	7.110000	0.008138
	7.115000	-0.129988
	7.120000	0.077202
	7.125000	0.208751
	7.130000	0.004850
	7.135000	-0.129988
	7.140000	0.070624
	7.145000	0.202173
	7.150000	0.004850
	7.155000	-0.126699
	7.160000	0.077202
	7.165000	0.208751
	7.170000	0.004850
	7.175000	-0.133277
	7.180000	0.077202
	7.185000	0.208751
	7.190000	0.004850
	7.195000	-0.126699
	7.200000	0.077202
	7.205000	0.208751
	7.210000	0.008138
	7.215000	-0.126699
	7.220000	0.073913
	7.225000	0.205462
	7.230000	0.004850
	7.235000	-0.120122
	7.240000	0.080490
	7.245000	0.208751
	7.250000	0.001561
	7.255000	-0.126699
	7.260000	0.080490
	7.265000	0.208751
	7.270000	0.004850
	7.275000	-0.123410
	7.280000	0.077202
	7.285000	0.208751
	7.290000	0.001561
	7.295000	-0.126699
	7.300000	0.073913
	7.305000	0.205462
	7.310000	-0.001728
	7.315000	-0.126699
	7.320000	0.077202
	7.325000	0.202173
	7.330000	-0.005016
	7.335000	-0.133277
	7.340000	0.077202
	7.345000	0.198884
	7.350000	-0.001728
	7.355000	-0.133277
	7.360000	0.077202
	7.365000	0.198884
	7.370000	-0.005016
	7.375000	-0.133277
	7.380000	0.077202
	7.385000	0.198884
	7.390000	-0.008305
	7.395000	-0.133277
	7.400000	0.077202
	7.405000	0.198884
	7.410000	-0.008305
	7.415000	-0.133277
	7.420000	0.077202
	7.425000	0.195596
	7.430000	-0.008305
	7.435000	-0.136565
	7.440000	0.070624
	7.445000	0.195596
	7.450000	-0.014883
	7.455000	-0.133277
	7.460000	0.073913
	7.465000	0.192307
	7.470000	-0.014883
	7.475000	-0.133277
	7.480000	0.073913
	7.485000	0.195596
	7.490000	-0.018171
	7.495000	-0.133277
	7.500000	0.077202
	7.505000	0.195596
	7.510000	-0.014883
	7.515000	-0.133277
	7.520000	0.073913
	7.525000	0.195596
	7.530000	-0.014883
	7.535000	-0.133277
	7.540000	0.083779
	7.545000	0.202173
	7.550000	-0.011594
	7.555000	-0.129988
	7.560000	0.080490
	7.565000	0.202173
	7.570000	-0.008305
	7.575000	-0.123410
	7.580000	0.077202
	7.585000	0.192307
	7.590000	-0.011594
	7.595000	-0.126699
	7.600000	0.073913
	7.605000	0.192307
	7.610000	-0.014883
	7.615000	-0.133277
	7.620000	0.073913
	7.625000	0.189018
	7.630000	-0.021460
	7.635000	-0.136565
	7.640000	0.070624
	7.645000	0.185730
	7.650000	-0.021460
	7.655000	-0.139854
	7.660000	0.073913
	7.665000	0.182441
	7.670000	-0.024749
	7.675000	-0.143143
	7.680000	0.070624
	7.685000	0.182441
	7.690000	-0.034615
	7.695000	-0.146431
	7.700000	0.064047
	7.705000	0.172575
	7.710000	-0.041192
	7.715000	-0.153009
	7.720000	0.057469
	7.725000	0.169286
	7.730000	-0.047770
	7.735000	-0.156298
	7.740000	0.057469
	7.745000	0.162708
	7.750000	-0.047770
	7.755000	-0.153009
	7.760000	0.064047
	7.765000	0.175863
	7.770000	-0.037904
	7.775000	-0.143143
	7.780000	0.070624
	7.785000	0.182441
	7.790000	-0.031326
	7.795000	-0.133277
	7.800000	0.083779
	7.805000	0.195596
	7.810000	-0.021460
	7.815000	-0.123410
	7.820000	0.093645
	7.825000	0.205462
	7.830000	-0.008305
	7.835000	-0.110256
	7.840000	0.103511
	7.845000	0.208751
	7.850000	-0.001728
	7.855000	-0.110256
	7.860000	0.106800
	7.865000	0.208751
	7.870000	-0.008305
	7.875000	-0.116833
	7.880000	0.096934
	7.885000	0.198884
	7.890000	-0.018171
	7.895000	-0.123410
	7.900000	0.087068
	7.905000	0.185730
	7.910000	-0.028037
	7.915000	-0.139854
	7.920000	0.077202
	7.925000	0.179152
	7.930000	-0.037904
	7.935000	-0.143143
	7.940000	0.064047
	7.945000	0.165997
	7.950000	-0.041192
	7.955000	-0.153009
	7.960000	0.057469
	7.965000	0.156131
	7.970000	-0.047770
	7.975000	-0.149720
	7.980000	0.057469
	7.985000	0.162708
	7.990000	-0.047770
	7.995000	-0.146431
	8.000000	0.057469
	8.005000	0.162708
	8.010000	-0.034615
	8.015000	-0.139854
	8.020000	0.044314
	8.025000	0.146265
	8.030000	-0.021460
	8.035000	-0.110256
	8.040000	0.024582
	8.045000	0.087068
	8.050000	-0.041192
	8.055000	-0.080657
	8.060000	0.064047
	8.065000	0.119955
	8.070000	-0.008305
	8.075000	-0.051059
	8.080000	0.093645
	8.085000	0.142976
	8.090000	0.008138
	8.095000	-0.041192
	8.100000	0.093645
	8.105000	0.146265
	8.110000	0.011427
	8.115000	-0.034615
	8.120000	0.100223
	8.125000	0.152842
	8.130000	0.018005
	8.135000	-0.037904
	8.140000	0.106800
	8.145000	0.159420
	8.150000	0.021293
	8.155000	-0.028037
	8.160000	0.110089
	8.165000	0.159420
	8.170000	0.027871
	8.175000	-0.024749
	8.180000	0.113378
	8.185000	0.162708
	8.190000	0.031160
	8.195000	-0.014883
	8.200000	0.119955
	8.205000	0.172575
	8.210000	0.031160
	8.215000	-0.011594
	8.220000	0.123244
	8.225000	0.172575
	8.230000	0.034448
	8.235000	-0.011594
	8.240000	0.123244
	8.245000	0.172575
	8.250000	0.037737
	8.255000	-0.011594
	8.260000	0.119955
	8.265000	0.169286
	8.270000	0.027871
	8.275000	-0.018171
	8.280000	0.116666
	8.285000	0.169286
	8.290000	0.027871
	8.295000	-0.024749
	8.300000	0.116666
	8.305000	0.159420
	8.310000	0.024582
	8.315000	-0.024749
	8.320000	0.116666
	8.325000	0.162708
	8.330000	0.021293
	8.335000	-0.024749
	8.340000	0.116666
	8.345000	0.162708
	8.350000	0.024582
	8.355000	-0.014883
	8.360000	0.116666
	8.365000	0.156131
	8.370000	0.024582
	8.375000	-0.018171
	8.380000	0.123244
	8.385000	0.165997
	8.390000	0.021293
	8.395000	-0.018171
	8.400000	0.123244
	8.405000	0.162708
	8.410000	0.024582
	8.415000	-0.018171
	8.420000	0.119955
	8.425000	0.162708
	8.430000	0.031160
	8.435000	-0.014883
	8.440000	0.123244
	8.445000	0.165997
	8.450000	0.024582
	8.455000	-0.018171
	8.460000	0.126533
	8.465000	0.165997
	8.470000	0.024582
	8.475000	-0.014883
	8.480000	0.119955
	8.485000	0.162708
	8.490000	0.027871
	8.495000	-0.014883
	8.500000	0.123244
	8.505000	0.165997
	8.510000	0.024582
	8.515000	-0.014883
	8.520000	0.123244
	8.525000	0.169286
	8.530000	0.027871
	8.535000	-0.011594
	8.540000	0.126533
	8.545000	0.165997
	8.550000	0.027871
	8.555000	-0.018171
	8.560000	0.129821
	8.565000	0.169286
	8.570000	0.024582
	8.575000	-0.014883
	8.580000	0.123244
	8.585000	0.169286
	8.590000	0.024582
	8.595000	-0.008305
	8.600000	0.126533
	8.605000	0.162708
	8.610000	0.021293
	8.615000	-0.011594
	8.620000	0.129821
	8.625000	0.162708
	8.630000	0.021293
	8.635000	-0.011594
	8.640000	0.129821
	8.645000	0.159420
	8.650000	0.024582
	8.655000	-0.014883
	8.660000	0.126533
	8.665000	0.162708
	8.670000	0.021293
	8.675000	-0.011594
	8.680000	0.123244
	8.685000	0.162708
	8.690000	0.018005
	8.695000	-0.018171
	8.700000	0.123244
	8.705000	0.162708
	8.710000	0.018005
	8.715000	-0.018171
	8.720000	0.123244
	8.725000	0.159420
	8.730000	0.021293
	8.735000	-0.018171
	8.740000	0.126533
	8.745000	0.162708
	8.750000	0.014716
	8.755000	-0.021460
	8.760000	0.119955
	8.765000	0.156131
	8.770000	0.014716
	8.775000	-0.018171
	8.780000	0.119955
	8.785000	0.152842
	8.790000	0.011427
	8.795000	-0.018171
	8.800000	0.119955
	8.805000	0.156131
	8.810000	0.011427
	8.815000	-0.021460
	8.820000	0.119955
	8.825000	0.156131
	8.830000	0.014716
	8.835000	-0.018171
	8.840000	0.123244
	8.845000	0.156131
	8.850000	0.011427
	8.855000	-0.018171
	8.860000	0.123244
	8.865000	0.159420
	8.870000	0.014716
	8.875000	-0.018171
	8.880000	0.126533
	8.885000	0.159420
	8.890000	0.018005
	8.895000	-0.011594
	8.900000	0.129821
	8.905000	0.156131
	8.910000	0.014716
	8.915000	-0.014883
	8.920000	0.126533
	8.925000	0.156131
	8.930000	0.011427
	8.935000	-0.014883
	8.940000	0.126533
	8.945000	0.152842
	8.950000	0.011427
	8.955000	-0.014883
	8.960000	0.126533
	8.965000	0.156131
	8.970000	0.004850
	8.975000	-0.014883
	8.980000	0.123244
	8.985000	0.156131
	8.990000	0.011427
	8.995000	-0.018171
	9.000000	0.126533
	9.005000	0.149554
	9.010000	0.011427
	9.015000	-0.018171
	9.020000	0.123244
	9.025000	0.156131
	9.030000	0.008138
	9.035000	-0.018171
	9.040000	0.123244
	9.045000	0.156131
	9.050000	0.008138
	9.055000	-0.014883
	9.060000	0.129821
	9.065000	0.156131
	9.070000	0.011427
	9.075000	-0.014883
	9.080000	0.129821
	9.085000	0.156131
	9.090000	0.014716
	9.095000	-0.014883
	9.100000	0.129821
	9.105000	0.156131
	9.110000	0.008138
	9.115000	-0.014883
	9.120000	0.133110
	9.125000	0.156131
	9.130000	0.004850
	9.135000	-0.011594
	9.140000	0.129821
	9.145000	0.152842
	9.150000	0.011427
	9.155000	-0.014883
	9.160000	0.129821
	9.165000	0.152842
	9.170000	0.011427
	9.175000	-0.014883
	9.180000	0.129821
	9.185000	0.156131
	9.190000	0.004850
	9.195000	-0.011594
	9.200000	0.129821
	9.205000	0.152842
	9.210000	0.004850
	9.215000	-0.018171
	9.220000	0.129821
	9.225000	0.149554
	9.230000	0.008138
	9.235000	-0.014883
	9.240000	0.123244
	9.245000	0.149554
	9.250000	0.001561
	9.255000	-0.014883
	9.260000	0.126533
	9.265000	0.146265
	9.270000	0.001561
	9.275000	-0.014883
	9.280000	0.133110
	9.285000	0.146265
	9.290000	0.001561
	9.295000	-0.014883
	9.300000	0.129821
	9.305000	0.146265
	9.310000	0.001561
	9.315000	-0.014883
	9.320000	0.129821
	9.325000	0.149554
	9.330000	0.008138
	9.335000	-0.005016
	9.340000	0.136399
	9.345000	0.159420
	9.350000	0.011427
	9.355000	-0.005016
	9.360000	0.139687
	9.365000	0.159420
	9.370000	0.011427
	9.375000	-0.001728
	9.380000	0.139687
	9.385000	0.156131
	9.390000	0.008138
	9.395000	-0.008305
	9.400000	0.129821
	9.405000	0.149554
	9.410000	0.001561
	9.415000	-0.014883
	9.420000	0.126533
	9.425000	0.139687
	9.430000	-0.008305
	9.435000	-0.024749
	9.440000	0.123244
	9.445000	0.133110
	9.450000	-0.008305
	9.455000	-0.024749
	9.460000	0.119955
	9.465000	0.133110
	9.470000	-0.005016
	9.475000	-0.018171
	9.480000	0.126533
	9.485000	0.139687
	9.490000	-0.001728
	9.495000	-0.014883
	9.500000	0.129821
	9.505000	0.149554
	9.510000	0.001561
	9.515000	-0.011594
	9.520000	0.136399
	9.525000	0.156131
	9.530000	0.008138
	9.535000	-0.001728
	9.540000	0.146265
	9.545000	0.156131
	9.550000	0.014716
	9.555000	-0.005016
	9.560000	0.142976
	9.565000	0.152842
	9.570000	0.008138
	9.575000	-0.008305
	9.580000	0.136399
	9.585000	0.146265
	9.590000	0.001561
	9.595000	-0.011594
	9.600000	0.129821
	9.605000	0.142976
	9.610000	-0.005016
	9.615000	-0.018171
	9.620000	0.123244
	9.625000	0.136399
	9.630000	-0.011594
	9.635000	-0.024749
	9.640000	0.119955
	9.645000	0.136399
	9.650000	-0.011594
	9.655000	-0.024749
	9.660000	0.119955
	9.665000	0.136399
	9.670000	-0.008305
	9.675000	-0.018171
	9.680000	0.136399
	9.685000	0.146265
	9.690000	-0.001728
	9.695000	-0.011594
	9.700000	0.136399
	9.705000	0.146265
	9.710000	0.001561
	9.715000	-0.001728
	9.720000	0.142976
	9.725000	0.149554
	9.730000	0.001561
	9.735000	-0.001728
	9.740000	0.136399
	9.745000	0.152842
	9.750000	-0.001728
	9.755000	-0.008305
	9.760000	0.136399
	9.765000	0.146265
	9.770000	-0.005016
	9.775000	-0.008305
	9.780000	0.133110
	9.785000	0.142976
	9.790000	-0.005016
	9.795000	-0.011594
	9.800000	0.133110
	9.805000	0.139687
	9.810000	-0.011594
	9.815000	-0.018171
	9.820000	0.133110
	9.825000	0.136399
	9.830000	-0.011594
	9.835000	-0.008305
	9.840000	0.126533
	9.845000	0.133110
	9.850000	-0.008305
	9.855000	-0.014883
	9.860000	0.133110
	9.865000	0.139687
	9.870000	-0.011594
	9.875000	-0.014883
	9.880000	0.133110
	9.885000	0.133110
	9.890000	-0.011594
	9.895000	-0.014883
	9.900000	0.129821
	9.905000	0.136399
	9.910000	-0.014883
	9.915000	-0.011594
	9.920000	0.136399
	9.925000	0.136399
	9.930000	-0.008305
	9.935000	-0.014883
	9.940000	0.136399
	9.945000	0.133110
	9.950000	-0.011594
	9.955000	-0.011594
	9.960000	0.133110
	9.965000	0.136399
	9.970000	-0.005016
	9.975000	-0.014883
	9.980000	0.133110
	9.985000	0.139687
	9.990000	-0.008305
	9.995000	-0.008305
	10.000000	0.136399
	10.005000	0.142976
	10.010000	-0.008305
	10.015000	-0.011594
	10.020000	0.133110
	10.025000	0.136399
	10.030000	-0.008305
	10.035000	-0.008305
	10.040000	0.136399
	10.045000	0.136399
	10.050000	-0.014883
	10.055000	-0.008305
	10.060000	0.133110
	10.065000	0.136399
	10.070000	-0.008305
	10.075000	-0.014883
	10.080000	0.133110
	10.085000	0.133110
	10.090000	-0.014883
	10.095000	-0.014883
	10.100000	0.129821
	10.105000	0.133110
	10.110000	-0.014883
	10.115000	-0.014883
	10.120000	0.133110
	10.125000	0.133110
	10.130000	-0.018171
	10.135000	-0.011594
	10.140000	0.129821
	10.145000	0.129821
	10.150000	-0.018171
	10.155000	-0.008305
	10.160000	0.139687
	10.165000	0.129821
	10.170000	-0.011594
	10.175000	-0.011594
	10.180000	0.139687
	10.185000	0.136399
	10.190000	-0.018171
	10.195000	-0.014883
	10.200000	0.136399
	10.205000	0.129821
	10.210000	-0.018171
	10.215000	-0.014883
	10.220000	0.133110
	10.225000	0.129821
	10.230000	-0.018171
	10.235000	-0.014883
	10.240000	0.136399
	10.245000	0.129821
	10.250000	-0.021460
	10.255000	-0.014883
	10.260000	0.129821
	10.265000	0.126533
	10.270000	-0.018171
	10.275000	-0.011594
	10.280000	0.133110
	10.285000	0.126533
	10.290000	-0.018171
	10.295000	-0.011594
	10.300000	0.129821
	10.305000	0.126533
	10.310000	-0.014883
	10.315000	-0.008305
	10.320000	0.136399
	10.325000	0.129821
	10.330000	-0.014883
	10.335000	-0.011594
	10.340000	0.133110
	10.345000	0.129821
	10.350000	-0.014883
	10.355000	-0.011594
	10.360000	0.136399
	10.365000	0.129821
	10.370000	-0.018171
	10.375000	-0.008305
	10.380000	0.136399
	10.385000	0.129821
	10.390000	-0.018171
	10.395000	-0.014883
	10.400000	0.136399
	10.405000	0.126533
	10.410000	-0.021460
	10.415000	-0.011594
	10.420000	0.129821
	10.425000	0.123244
	10.430000	-0.028037
	10.435000	-0.014883
	10.440000	0.133110
	10.445000	0.126533
	10.450000	-0.028037
	10.455000	-0.008305
	10.460000	0.129821
	10.465000	0.116666
	10.470000	-0.028037
	10.475000	-0.011594
	10.480000	0.136399
	10.485000	0.123244
	10.490000	-0.021460
	10.495000	-0.008305
	10.500000	0.139687
	10.505000	0.123244
	10.510000	-0.024749
	10.515000	-0.008305
	10.520000	0.133110
	10.525000	0.119955
	10.530000	-0.024749
	10.535000	-0.008305
	10.540000	0.133110
	10.545000	0.123244
	10.550000	-0.024749
	10.555000	-0.008305
	10.560000	0.129821
	10.565000	0.123244
	10.570000	-0.024749
	10.575000	-0.008305
	10.580000	0.136399
	10.585000	0.123244
	10.590000	-0.021460
	10.595000	-0.011594
	10.600000	0.136399
	10.605000	0.119955
	10.610000	-0.028037
	10.615000	-0.008305
	10.620000	0.133110
	10.625000	0.119955
	10.630000	-0.024749
	10.635000	-0.011594
	10.640000	0.129821
	10.645000	0.123244
	10.650000	-0.028037
	10.655000	-0.008305
	10.660000	0.133110
	10.665000	0.119955
	10.670000	-0.028037
	10.675000	-0.011594
	10.680000	0.133110
	10.685000	0.116666
	10.690000	-0.028037
	10.695000	-0.011594
	10.700000	0.133110
	10.705000	0.119955
	10.710000	-0.034615
	10.715000	-0.011594
	10.720000	0.129821
	10.725000	0.110089
	10.730000	-0.037904
	10.735000	-0.018171
	10.740000	0.126533
	10.745000	0.110089
	10.750000	-0.034615
	10.755000	-0.018171
	10.760000	0.129821
	10.765000	0.110089
	10.770000	-0.031326
	10.775000	-0.011594
	10.780000	0.133110
	10.785000	0.110089
	10.790000	-0.028037
	10.795000	-0.008305
	10.800000	0.129821
	10.805000	0.113378
	10.810000	-0.031326
	10.815000	-0.008305
	10.820000	0.133110
	10.825000	0.116666
	10.830000	-0.031326
	10.835000	-0.008305
	10.840000	0.139687
	10.845000	0.113378
	10.850000	-0.031326
	10.855000	-0.008305
	10.860000	0.133110
	10.865000	0.116666
	10.870000	-0.031326
	10.875000	-0.011594
	10.880000	0.133110
	10.885000	0.113378
	10.890000	-0.034615
	10.895000	-0.008305
	10.900000	0.133110
	10.905000	0.113378
	10.910000	-0.031326
	10.915000	-0.008305
	10.920000	0.136399
	10.925000	0.116666
	10.930000	-0.028037
	10.935000	-0.005016
	10.940000	0.146265
	10.945000	0.113378
	10.950000	-0.028037
	10.955000	0.001561
	10.960000	0.142976
	10.965000	0.113378
	10.970000	-0.021460
	10.975000	-0.001728
	10.980000	0.136399
	10.985000	0.116666
	10.990000	-0.031326
	10.995000	-0.005016
	11.000000	0.129821
	11.005000	0.106800
	11.010000	-0.037904
	11.015000	-0.018171
	11.020000	0.129821
	11.025000	0.096934
	11.030000	-0.041192
	11.035000	-0.018171
	11.040000	0.123244
	11.045000	0.103511
	11.050000	-0.044481
	11.055000	-0.021460
	11.060000	0.129821
	11.065000	0.103511
	11.070000	-0.041192
	11.075000	-0.014883
	11.080000	0.133110
	11.085000	0.106800
	11.090000	-0.031326
	11.095000	-0.001728
	11.100000	0.136399
	11.105000	0.116666
	11.110000	-0.028037
	11.115000	0.001561
	11.120000	0.146265
	11.125000	0.116666
	11.130000	-0.028037
	11.135000	0.001561
	11.140000	0.146265
	11.145000	0.116666
	11.150000	-0.028037
	11.155000	-0.001728
	11.160000	0.139687
	11.165000	0.116666
	11.170000	-0.034615
	11.175000	-0.011594
	11.180000	0.133110
	11.185000	0.100223
	11.190000	-0.041192
	11.195000	-0.014883
	11.200000	0.126533
	11.205000	0.096934
	11.210000	-0.051059
	11.215000	-0.021460
	11.220000	0.119955
	11.225000	0.096934
	11.230000	-0.044481
	11.235000	-0.011594
	11.240000	0.123244
	11.245000	0.100223
	11.250000	-0.047770
	11.255000	-0.014883
	11.260000	0.136399
	11.265000	0.103511
	11.270000	-0.041192
	11.275000	-0.011594
	11.280000	0.133110
	11.285000	0.106800
	11.290000	-0.037904
	11.295000	-0.001728
	11.300000	0.139687
	11.305000	0.106800
	11.310000	-0.034615
	11.315000	-0.008305
	11.320000	0.136399
	11.325000	0.110089
	11.330000	-0.037904
	11.335000	-0.005016
	11.340000	0.136399
	11.345000	0.100223
	11.350000	-0.041192
	11.355000	-0.008305
	11.360000	0.129821
	11.365000	0.100223
	11.370000	-0.044481
	11.375000	-0.008305
	11.380000	0.129821
	11.385000	0.096934
	11.390000	-0.044481
	11.395000	-0.008305
	11.400000	0.133110
	11.405000	0.096934
	11.410000	-0.041192
	11.415000	-0.011594
	11.420000	0.129821
	11.425000	0.093645
	11.430000	-0.044481
	11.435000	-0.005016
	11.440000	0.133110
	11.445000	0.100223
	11.450000	-0.041192
	11.455000	-0.011594
	11.460000	0.126533
	11.465000	0.093645
	11.470000	-0.047770
	11.475000	-0.008305
	11.480000	0.133110
	11.485000	0.096934
	11.490000	-0.041192
	11.495000	-0.008305
	11.500000	0.136399
	11.505000	0.093645
	11.510000	-0.041192
	11.515000	-0.008305
	11.520000	0.133110
	11.525000	0.096934
	11.530000	-0.044481
	11.535000	-0.005016
	11.540000	0.133110
	11.545000	0.096934
	11.550000	-0.044481
	11.555000	-0.008305
	11.560000	0.136399
	11.565000	0.096934
	11.570000	-0.047770
	11.575000	-0.008305
	11.580000	0.133110
	11.585000	0.093645
	11.590000	-0.044481
	11.595000	-0.011594
	11.600000	0.129821
	11.605000	0.090357
	11.610000	-0.047770
	11.615000	-0.008305
	11.620000	0.129821
	11.625000	0.090357
	11.630000	-0.047770
	11.635000	-0.008305
	11.640000	0.126533
	11.645000	0.090357
	11.650000	-0.051059
	11.655000	-0.008305
	11.660000	0.129821
	11.665000	0.090357
	11.670000	-0.054347
	11.675000	-0.011594
	11.680000	0.133110
	11.685000	0.090357
	11.690000	-0.051059
	11.695000	-0.011594
	11.700000	0.129821
	11.705000	0.087068
	11.710000	-0.054347
	11.715000	-0.008305
	11.720000	0.139687
	11.725000	0.093645
	11.730000	-0.047770
	11.735000	-0.008305
	11.740000	0.133110
	11.745000	0.090357
	11.750000	-0.051059
	11.755000	-0.005016
	11.760000	0.133110
	11.765000	0.087068
	11.770000	-0.047770
	11.775000	-0.008305
	11.780000	0.133110
	11.785000	0.087068
	11.790000	-0.051059
	11.795000	-0.011594
	11.800000	0.133110
	11.805000	0.087068
	11.810000	-0.044481
	11.815000	-0.008305
	11.820000	0.133110
	11.825000	0.087068
	11.830000	-0.047770
	11.835000	-0.005016
	11.840000	0.133110
	11.845000	0.090357
	11.850000	-0.051059
	11.855000	-0.008305
	11.860000	0.133110
	11.865000	0.087068
	11.870000	-0.054347
	11.875000	-0.005016
	11.880000	0.133110
	11.885000	0.087068
	11.890000	-0.051059
	11.895000	-0.001728
	11.900000	0.129821
	11.905000	0.080490
	11.910000	-0.047770
	11.915000	-0.005016
	11.920000	0.133110
	11.925000	0.083779
	11.930000	-0.057636
	11.935000	-0.008305
	11.940000	0.133110
	11.945000	0.083779
	11.950000	-0.054347
	11.955000	-0.005016
	11.960000	0.129821
	11.965000	0.087068
	11.970000	-0.054347
	11.975000	-0.008305
	11.980000	0.129821
	11.985000	0.080490
	11.990000	-0.057636
	11.995000	-0.005016
	12.000000	0.126533
	12.005000	0.083779
	12.010000	-0.054347
	12.015000	-0.011594
	12.020000	0.126533
	12.025000	0.077202
	12.030000	-0.057636
	12.035000	-0.008305
	12.040000	0.129821
	12.045000	0.077202
	12.050000	-0.057636
	12.055000	-0.008305
	12.060000	0.129821
	12.065000	0.080490
	12.070000	-0.057636
	12.075000	-0.008305
	12.080000	0.129821
	12.085000	0.080490
	12.090000	-0.054347
	12.095000	-0.001728
	12.100000	0.129821
	12.105000	0.080490
	12.110000	-0.051059
	12.115000	-0.005016
	12.120000	0.133110
	12.125000	0.083779
	12.130000	-0.051059
	12.135000	0.001561
	12.140000	0.133110
	12.145000	0.080490
	12.150000	-0.057636
	12.155000	-0.005016
	12.160000	0.126533
	12.165000	0.073913
	12.170000	-0.057636
	12.175000	-0.008305
	12.180000	0.126533
	12.185000	0.070624
	12.190000	-0.064213
	12.195000	-0.011594
	12.200000	0.123244
	12.205000	0.077202
	12.210000	-0.070791
	12.215000	-0.011594
	12.220000	0.123244
	12.225000	0.067335
	12.230000	-0.070791
	12.235000	-0.011594
	12.240000	0.123244
	12.245000	0.070624
	12.250000	-0.064213
	12.255000	-0.011594
	12.260000	0.123244
	12.265000	0.067335
	12.270000	-0.064213
	12.275000	-0.005016
	12.280000	0.129821
	12.285000	0.067335
	12.290000	-0.064213
	12.295000	-0.008305
	12.300000	0.119955
	12.305000	0.067335
	12.310000	-0.064213
	12.315000	-0.005016
	12.320000	0.126533
	12.325000	0.070624
	12.330000	-0.060925
	12.335000	-0.005016
	12.340000	0.133110
	12.345000	0.073913
	12.350000	-0.054347
	12.355000	0.001561
	12.360000	0.136399
	12.365000	0.080490
	12.370000	-0.057636
	12.375000	0.008138
	12.380000	0.139687
	12.385000	0.083779
	12.390000	-0.054347
	12.395000	0.004850
	12.400000	0.133110
	12.405000	0.077202
	12.410000	-0.057636
	12.415000	0.001561
	12.420000	0.126533
	12.425000	0.067335
	12.430000	-0.067502
	12.435000	-0.005016
	12.440000	0.123244
	12.445000	0.060758
	12.450000	-0.064213
	12.455000	-0.005016
	12.460000	0.119955
	12.465000	0.057469
	12.470000	-0.074080
	12.475000	-0.011594
	12.480000	0.123244
	12.485000	0.064047
	12.490000	-0.070791
	12.495000	-0.008305
	12.500000	0.126533
	12.505000	0.067335
	12.510000	-0.064213
	12.515000	-0.005016
	12.520000	0.126533
	12.525000	0.067335
	12.530000	-0.060925
	12.535000	-0.001728
	12.540000	0.129821
	12.545000	0.070624
	12.550000	-0.060925
	12.555000	0.004850
	12.560000	0.136399
	12.565000	0.070624
	12.570000	-0.060925
	12.575000	0.004850
	12.580000	0.129821
	12.585000	0.067335
	12.590000	-0.060925
	12.595000	0.001561
	12.600000	0.129821
	12.605000	0.064047
	12.610000	-0.064213
	12.615000	-0.005016
	12.620000	0.123244
	12.625000	0.057469
	12.630000	-0.077368
	12.635000	-0.008305
	12.640000	0.119955
	12.645000	0.057469
	12.650000	-0.074080
	12.655000	-0.008305
	12.660000	0.123244
	12.665000	0.057469
	12.670000	-0.070791
	12.675000	-0.005016
	12.680000	0.126533
	12.685000	0.054181
	12.690000	-0.070791
	12.695000	-0.005016
	12.700000	0.126533
	12.705000	0.067335
	12.710000	-0.060925
	12.715000	0.001561
	12.720000	0.129821
	12.725000	0.064047
	12.730000	-0.064213
	12.735000	0.001561
	12.740000	0.129821
	12.745000	0.060758
	12.750000	-0.067502
	12.755000	-0.001728
	12.760000	0.129821
	12.765000	0.057469
	12.770000	-0.070791
	12.775000	0.001561
	12.780000	0.126533
	12.785000	0.050892
	12.790000	-0.074080
	12.795000	-0.008305
	12.800000	0.119955
	12.805000	0.050892
	12.810000	-0.077368
	12.815000	-0.008305
	12.820000	0.123244
	12.825000	0.050892
	12.830000	-0.077368
	12.835000	-0.001728
	12.840000	0.123244
	12.845000	0.050892
	12.850000	-0.074080
	12.855000	0.001561
	12.860000	0.119955
	12.865000	0.057469
	12.870000	-0.067502
	12.875000	-0.005016
	12.880000	0.126533
	12.885000	0.050892
	12.890000	-0.074080
	12.895000	-0.001728
	12.900000	0.123244
	12.905000	0.054181
	12.910000	-0.077368
	12.915000	-0.001728
	12.920000	0.119955
	12.925000	0.054181
	12.930000	-0.077368
	12.935000	-0.005016
	12.940000	0.119955
	12.945000	0.047603
	12.950000	-0.077368
	12.955000	-0.005016
	12.960000	0.116666
	12.965000	0.047603
	12.970000	-0.080657
	12.975000	-0.005016
	12.980000	0.119955
	12.985000	0.047603
	12.990000	-0.077368
	12.995000	-0.005016
	13.000000	0.119955
	13.005000	0.047603
	13.010000	-0.074080
	13.015000	0.001561
	13.020000	0.123244
	13.025000	0.050892
	13.030000	-0.077368
	13.035000	0.001561
	13.040000	0.119955
	13.045000	0.050892
	13.050000	-0.077368
	13.055000	0.001561
	13.060000	0.126533
	13.065000	0.050892
	13.070000	-0.070791
	13.075000	0.001561
	13.080000	0.116666
	13.085000	0.047603
	13.090000	-0.080657
	13.095000	-0.005016
	13.100000	0.123244
	13.105000	0.044314
	13.110000	-0.077368
	13.115000	-0.001728
	13.120000	0.126533
	13.125000	0.047603
	13.130000	-0.077368
	13.135000	-0.001728
	13.140000	0.123244
	13.145000	0.044314
	13.150000	-0.074080
	13.155000	-0.001728
	13.160000	0.123244
	13.165000	0.050892
	13.170000	-0.077368
	13.175000	0.001561
	13.180000	0.123244
	13.185000	0.047603
	13.190000	-0.077368
	13.195000	0.001561
	13.200000	0.123244
	13.205000	0.047603
	13.210000	-0.077368
	13.215000	0.001561
	13.220000	0.123244
	13.225000	0.044314
	13.230000	-0.077368
	13.235000	-0.001728
	13.240000	0.116666
	13.245000	0.044314
	13.250000	-0.083946
	13.255000	-0.005016
	13.260000	0.123244
	13.265000	0.047603
	13.270000	-0.087234
	13.275000	0.001561
	13.280000	0.119955
	13.285000	0.037737
	13.290000	-0.083946
	13.295000	0.001561
	13.300000	0.123244
	13.305000	0.044314
	13.310000	-0.080657
	13.315000	0.001561
	13.320000	0.123244
	13.325000	0.044314
	13.330000	-0.080657
	13.335000	0.004850
	13.340000	0.123244
	13.345000	0.044314
	13.350000	-0.080657
	13.355000	0.004850
	13.360000	0.123244
	13.365000	0.044314
	13.370000	-0.074080
	13.375000	0.004850
	13.380000	0.126533
	13.385000	0.044314
	13.390000	-0.080657
	13.395000	0.004850
	13.400000	0.119955
	13.405000	0.041026
	13.410000	-0.080657
	13.415000	0.001561
	13.420000	0.123244
	13.425000	0.034448
	13.430000	-0.080657
	13.435000	-0.001728
	13.440000	0.116666
	13.445000	0.034448
	13.450000	-0.087234
	13.455000	-0.001728
	13.460000	0.116666
	13.465000	0.034448
	13.470000	-0.083946
	13.475000	-0.001728
	13.480000	0.116666
	13.485000	0.031160
	13.490000	-0.087234
	13.495000	-0.001728
	13.500000	0.116666
	13.505000	0.034448
	13.510000	-0.083946
	13.515000	0.001561
	13.520000	0.116666
	13.525000	0.031160
	13.530000	-0.087234
	13.535000	0.004850
	13.540000	0.119955
	13.545000	0.034448
	13.550000	-0.083946
	13.555000	0.004850
	13.560000	0.123244
	13.565000	0.034448
	13.570000	-0.083946
	13.575000	0.001561
	13.580000	0.119955
	13.585000	0.031160
	13.590000	-0.083946
	13.595000	0.004850
	13.600000	0.119955
	13.605000	0.037737
	13.610000	-0.087234
	13.615000	0.004850
	13.620000	0.123244
	13.625000	0.034448
	13.630000	-0.077368
	13.635000	0.004850
	13.640000	0.126533
	13.645000	0.034448
	13.650000	-0.083946
	13.655000	0.008138
	13.660000	0.119955
	13.665000	0.034448
	13.670000	-0.080657
	13.675000	0.004850
	13.680000	0.123244
	13.685000	0.031160
	13.690000	-0.083946
	13.695000	0.001561
	13.700000	0.116666
	13.705000	0.024582
	13.710000	-0.087234
	13.715000	0.001561
	13.720000	0.119955
	13.725000	0.024582
	13.730000	-0.093812
	13.735000	0.001561
	13.740000	0.119955
	13.745000	0.024582
	13.750000	-0.087234
	13.755000	0.001561
	13.760000	0.113378
	13.765000	0.027871
	13.770000	-0.083946
	13.775000	0.004850
	13.780000	0.116666
	13.785000	0.024582
	13.790000	-0.087234
	13.795000	0.011427
	13.800000	0.113378
	13.805000	0.027871
	13.810000	-0.087234
	13.815000	0.004850
	13.820000	0.119955
	13.825000	0.024582
	13.830000	-0.093812
	13.835000	0.008138
	13.840000	0.116666
	13.845000	0.021293
	13.850000	-0.090523
	13.855000	0.001561
	13.860000	0.116666
	13.865000	0.021293
	13.870000	-0.093812
	13.875000	0.001561
	13.880000	0.113378
	13.885000	0.021293
	13.890000	-0.090523
	13.895000	-0.001728
	13.900000	0.116666
	13.905000	0.018005
	13.910000	-0.097101
	13.915000	0.001561
	13.920000	0.113378
	13.925000	0.018005
	13.930000	-0.090523
	13.935000	0.011427
	13.940000	0.119955
	13.945000	0.021293
	13.950000	-0.083946
	13.955000	0.011427
	13.960000	0.119955
	13.965000	0.024582
	13.970000	-0.087234
	13.975000	0.011427
	13.980000	0.119955
	13.985000	0.021293
	13.990000	-0.090523
	13.995000	0.008138
	14.000000	0.123244
	14.005000	0.021293
	14.010000	-0.090523
	14.015000	0.008138
	14.020000	0.110089
	14.025000	0.018005
	14.030000	-0.093812
	14.035000	0.001561
	14.040000	0.116666
	14.045000	0.018005
	14.050000	-0.090523
	14.055000	0.001561
	14.060000	0.110089
	14.065000	0.014716
	14.070000	-0.093812
	14.075000	-0.001728
	14.080000	0.113378
	14.085000	0.014716
	14.090000	-0.093812
	14.095000	0.004850
	14.100000	0.110089
	14.105000	0.014716
	14.110000	-0.090523
	14.115000	0.004850
	14.120000	0.113378
	14.125000	0.021293
	14.130000	-0.087234
	14.135000	0.011427
	14.140000	0.123244
	14.145000	0.018005
	14.150000	-0.083946
	14.155000	0.011427
	14.160000	0.119955
	14.165000	0.021293
	14.170000	-0.083946
	14.175000	0.014716
	14.180000	0.119955
	14.185000	0.024582
	14.190000	-0.087234
	14.195000	0.014716
	14.200000	0.116666
	14.205000	0.018005
	14.210000	-0.090523
	14.215000	0.008138
	14.220000	0.116666
	14.225000	0.014716
	14.230000	-0.093812
	14.235000	0.004850
	14.240000	0.113378
	14.245000	0.008138
	14.250000	-0.100389
	14.255000	0.004850
	14.260000	0.106800
	14.265000	0.004850
	14.270000	-0.103678
	14.275000	0.004850
	14.280000	0.106800
	14.285000	0.008138
	14.290000	-0.097101
	14.295000	0.004850
	14.300000	0.110089
	14.305000	0.011427
	14.310000	-0.093812
	14.315000	0.011427
	14.320000	0.113378
	14.325000	0.014716
	14.330000	-0.090523
	14.335000	0.014716
	14.340000	0.116666
	14.345000	0.014716
	14.350000	-0.093812
	14.355000	0.011427
	14.360000	0.119955
	14.365000	0.011427
	14.370000	-0.090523
	14.375000	0.011427
	14.380000	0.110089
	14.385000	0.008138
	14.390000	-0.097101
	14.395000	0.011427
	14.400000	0.110089
	14.405000	0.008138
	14.410000	-0.093812
	14.415000	0.004850
	14.420000	0.110089
	14.425000	0.004850
	14.430000	-0.103678
	14.435000	0.004850
	14.440000	0.106800
	14.445000	0.004850
	14.450000	-0.097101
	14.455000	0.008138
	14.460000	0.106800
	14.465000	0.008138
	14.470000	-0.093812
	14.475000	0.011427
	14.480000	0.106800
	14.485000	0.008138
	14.490000	-0.090523
	14.495000	0.011427
	14.500000	0.106800
	14.505000	0.001561
	14.510000	-0.100389
	14.515000	0.011427
	14.520000	0.110089
	14.525000	0.004850
	14.530000	-0.103678
	14.535000	0.011427
	14.540000	0.106800
	14.545000	0.001561
	14.550000	-0.097101
	14.555000	0.008138
	14.560000	0.110089
	14.565000	0.001561
	14.570000	-0.097101
	14.575000	0.011427
	14.580000	0.106800
	14.585000	-0.001728
	14.590000	-0.100389
	14.595000	0.014716
	14.600000	0.106800
	14.605000	-0.005016
	14.610000	-0.097101
	14.615000	0.008138
	14.620000	0.106800
	14.625000	-0.001728
	14.630000	-0.093812
	14.635000	0.008138
	14.640000	0.110089
	14.645000	-0.001728
	14.650000	-0.093812
	14.655000	0.011427
	14.660000	0.113378
	14.665000	-0.001728
	14.670000	-0.097101
	14.675000	0.011427
	14.680000	0.106800
	14.685000	-0.001728
	14.690000	-0.093812
	14.695000	0.011427
	14.700000	0.110089
	14.705000	-0.005016
	14.710000	-0.097101
	14.715000	0.011427
	14.720000	0.106800
	14.725000	0.001561
	14.730000	-0.093812
	14.735000	0.008138
	14.740000	0.106800
	14.745000	-0.001728
	14.750000	-0.100389
	14.755000	0.008138
	14.760000	0.106800
	14.765000	0.001561
	14.770000	-0.097101
	14.775000	0.014716
	14.780000	0.106800
	14.785000	-0.001728
	14.790000	-0.093812
	14.795000	0.011427
	14.800000	0.110089
	14.805000	0.001561
	14.810000	-0.090523
	14.815000	0.014716
	14.820000	0.110089
	14.825000	-0.005016
	14.830000	-0.093812
	14.835000	0.018005
	14.840000	0.106800
	14.845000	-0.008305
	14.850000	-0.100389
	14.855000	0.011427
	14.860000	0.103511
	14.865000	-0.008305
	14.870000	-0.106967
	14.875000	0.011427
	14.880000	0.103511
	14.885000	-0.011594
	14.890000	-0.103678
	14.895000	0.011427
	14.900000	0.103511
	14.905000	-0.011594
	14.910000	-0.106967
	14.915000	0.011427
	14.920000	0.100223
	14.925000	-0.014883
	14.930000	-0.103678
	14.935000	0.008138
	14.940000	0.100223
	14.945000	-0.005016
	14.950000	-0.100389
	14.955000	0.014716
	14.960000	0.106800
	14.965000	-0.011594
	14.970000	-0.100389
	14.975000	0.014716
	14.980000	0.110089
	14.985000	-0.008305
	14.990000	-0.100389
	14.995000	0.018005
	15.000000	0.100223
	15.005000	-0.011594
	15.010000	-0.100389
	15.015000	0.008138
	15.020000	0.110089
	15.025000	-0.011594
	15.030000	-0.097101
	15.035000	0.021293
	15.040000	0.103511
	15.045000	-0.008305
	15.050000	-0.093812
	15.055000	0.018005
	15.060000	0.106800
	15.065000	-0.008305
	15.070000	-0.100389
	15.075000	0.018005
	15.080000	0.103511
	15.085000	-0.008305
	15.090000	-0.097101
	15.095000	0.014716
	15.100000	0.106800
	15.105000	-0.014883
	15.110000	-0.100389
	15.115000	0.021293
	15.120000	0.103511
	15.125000	-0.014883
	15.130000	-0.106967
	15.135000	0.014716
	15.140000	0.103511
	15.145000	-0.014883
	15.150000	-0.097101
	15.155000	0.014716
	15.160000	0.103511
	15.165000	-0.014883
	15.170000	-0.100389
	15.175000	0.014716
	15.180000	0.103511
	15.185000	-0.014883
	15.190000	-0.103678
	15.195000	0.018005
	15.200000	0.103511
	15.205000	-0.014883
	15.210000	-0.103678
	15.215000	0.011427
	15.220000	0.100223
	15.225000	-0.018171
	15.230000	-0.103678
	15.235000	0.014716
	15.240000	0.096934
	15.245000	-0.018171
	15.250000	-0.103678
	15.255000	0.011427
	15.260000	0.100223
	15.265000	-0.021460
	15.270000	-0.103678
	15.275000	0.014716
	15.280000	0.100223
	15.285000	-0.021460
	15.290000	-0.100389
	15.295000	0.018005
	15.300000	0.096934
	15.305000	-0.021460
	15.310000	-0.103678
	15.315000	0.014716
	15.320000	0.100223
	15.325000	-0.021460
	15.330000	-0.103678
	15.335000	0.014716
	15.340000	0.096934
	15.345000	-0.018171
	15.350000	-0.100389
	15.355000	0.018005
	15.360000	0.103511
	15.365000	-0.014883
	15.370000	-0.097101
	15.375000	0.024582
	15.380000	0.103511
	15.385000	-0.014883
	15.390000	-0.093812
	15.395000	0.024582
	15.400000	0.110089
	15.405000	-0.014883
	15.410000	-0.093812
	15.415000	0.024582
	15.420000	0.100223
	15.425000	-0.014883
	15.430000	-0.093812
	15.435000	0.024582
	15.440000	0.106800
	15.445000	-0.018171
	15.450000	-0.097101
	15.455000	0.024582
	15.460000	0.103511
	15.465000	-0.024749
	15.470000	-0.103678
	15.475000	0.018005
	15.480000	0.093645
	15.485000	-0.028037
	15.490000	-0.106967
	15.495000	0.014716
	15.500000	0.093645
	15.505000	-0.028037
	15.510000	-0.106967
	15.515000	0.011427
	15.520000	0.096934
	15.525000	-0.037904
	15.530000	-0.146431
	15.535000	-0.005016
	15.540000	0.113378
	15.545000	-0.054347
	15.550000	-0.195762
	15.555000	-0.005016
	15.560000	0.126533
	15.565000	-0.080657
	15.570000	-0.222072
	15.575000	-0.024749
	15.580000	0.113378
	15.585000	-0.087234
	15.590000	-0.225361
	15.595000	-0.024749
	15.600000	0.113378
	15.605000	-0.087234
	15.610000	-0.222072
	15.615000	-0.024749
	15.620000	0.106800
	15.625000	-0.087234
	15.630000	-0.228650
	15.635000	-0.031326
	15.640000	0.103511
	15.645000	-0.103678
	15.650000	-0.235227
	15.655000	-0.034615
	15.660000	0.096934
	15.665000	-0.110256
	15.670000	-0.248382
	15.675000	-0.047770
	15.680000	0.083779
	15.685000	-0.116833
	15.690000	-0.254959
	15.695000	-0.051059
	15.700000	0.087068
	15.705000	-0.116833
	15.710000	-0.251671
	15.715000	-0.047770
	15.720000	0.087068
	15.725000	-0.113544
	15.730000	-0.245093
	15.735000	-0.034615
	15.740000	0.093645
	15.745000	-0.106967
	15.750000	-0.231938
	15.755000	-0.028037
	15.760000	0.100223
	15.765000	-0.097101
	15.770000	-0.225361
	15.775000	-0.024749
	15.780000	0.106800
	15.785000	-0.093812
	15.790000	-0.228650
	15.795000	-0.024749
	15.800000	0.106800
	15.805000	-0.103678
	15.810000	-0.228650
	15.815000	-0.021460
	15.820000	0.100223
	15.825000	-0.106967
	15.830000	-0.238516
	15.835000	-0.031326
	15.840000	0.093645
	15.845000	-0.120122
	15.850000	-0.248382
	15.855000	-0.041192
	15.860000	0.083779
	15.865000	-0.126699
	15.870000	-0.251671
	15.875000	-0.047770
	15.880000	0.080490
	15.885000	-0.133277
	15.890000	-0.254959
	15.895000	-0.047770
	15.900000	0.080490
	15.905000	-0.129988
	15.910000	-0.254959
	15.915000	-0.044481
	15.920000	0.077202
	15.925000	-0.126699
	15.930000	-0.251671
	15.935000	-0.041192
	15.940000	0.087068
	15.945000	-0.123410
	15.950000	-0.245093
	15.955000	-0.037904
	15.960000	0.087068
	15.965000	-0.123410
	15.970000	-0.245093
	15.975000	-0.034615
	15.980000	0.093645
	15.985000	-0.123410
	15.990000	-0.241804
	15.995000	-0.034615
	16.000000	0.087068
	16.005000	-0.126699
	16.010000	-0.248382
	16.015000	-0.037904
	16.020000	0.080490
	16.025000	-0.129988
	16.030000	-0.251671
	16.035000	-0.041192
	16.040000	0.080490
	16.045000	-0.133277
	16.050000	-0.251671
	16.055000	-0.041192
	16.060000	0.080490
	16.065000	-0.136565
	16.070000	-0.251671
	16.075000	-0.037904
	16.080000	0.083779
	16.085000	-0.136565
	16.090000	-0.251671
	16.095000	-0.041192
	16.100000	0.077202
	16.105000	-0.133277
	16.110000	-0.251671
	16.115000	-0.041192
	16.120000	0.080490
	16.125000	-0.133277
	16.130000	-0.251671
	16.135000	-0.037904
	16.140000	0.077202
	16.145000	-0.129988
	16.150000	-0.251671
	16.155000	-0.041192
	16.160000	0.077202
	16.165000	-0.136565
	16.170000	-0.251671
	16.175000	-0.037904
	16.180000	0.077202
	16.185000	-0.133277
	16.190000	-0.251671
	16.195000	-0.037904
	16.200000	0.077202
	16.205000	-0.139854
	16.210000	-0.251671
	16.215000	-0.041192
	16.220000	0.077202
	16.225000	-0.146431
	16.230000	-0.251671
	16.235000	-0.037904
	16.240000	0.080490
	16.245000	-0.143143
	16.250000	-0.251671
	16.255000	-0.041192
	16.260000	0.073913
	16.265000	-0.139854
	16.270000	-0.258248
	16.275000	-0.041192
	16.280000	0.073913
	16.285000	-0.146431
	16.290000	-0.254959
	16.295000	-0.041192
	16.300000	0.070624
	16.305000	-0.146431
	16.310000	-0.261537
	16.315000	-0.044481
	16.320000	0.064047
	16.325000	-0.149720
	16.330000	-0.261537
	16.335000	-0.041192
	16.340000	0.073913
	16.345000	-0.149720
	16.350000	-0.258248
	16.355000	-0.041192
	16.360000	0.064047
	16.365000	-0.149720
	16.370000	-0.258248
	16.375000	-0.041192
	16.380000	0.067335
	16.385000	-0.146431
	16.390000	-0.258248
	16.395000	-0.037904
	16.400000	0.064047
	16.405000	-0.149720
	16.410000	-0.258248
	16.415000	-0.034615
	16.420000	0.064047
	16.425000	-0.146431
	16.430000	-0.258248
	16.435000	-0.034615
	16.440000	0.067335
	16.445000	-0.153009
	16.450000	-0.254959
	16.455000	-0.034615
	16.460000	0.070624
	16.465000	-0.156298
	16.470000	-0.254959
	16.475000	-0.037904
	16.480000	0.064047
	16.485000	-0.156298
	16.490000	-0.251671
	16.495000	-0.037904
	16.500000	0.070624
	16.505000	-0.156298
	16.510000	-0.251671
	16.515000	-0.037904
	16.520000	0.064047
	16.525000	-0.156298
	16.530000	-0.258248
	16.535000	-0.034615
	16.540000	0.060758
	16.545000	-0.156298
	16.550000	-0.258248
	16.555000	-0.037904
	16.560000	0.067335
	16.565000	-0.159586
	16.570000	-0.261537
	16.575000	-0.037904
	16.580000	0.060758
	16.585000	-0.159586
	16.590000	-0.261537
	16.595000	-0.037904
	16.600000	0.060758
	16.605000	-0.159586
	16.610000	-0.261537
	16.615000	-0.037904
	16.620000	0.064047
	16.625000	-0.159586
	16.630000	-0.251671
	16.635000	-0.037904
	16.640000	0.057469
	16.645000	-0.162875
	16.650000	-0.258248
	16.655000	-0.037904
	16.660000	0.054181
	16.665000	-0.166164
	16.670000	-0.261537
	16.675000	-0.041192
	16.680000	0.050892
	16.685000	-0.169453
	16.690000	-0.261537
	16.695000	-0.041192
	16.700000	0.054181
	16.705000	-0.169453
	16.710000	-0.264826
	16.715000	-0.041192
	16.720000	0.054181
	16.725000	-0.169453
	16.730000	-0.261537
	16.735000	-0.034615
	16.740000	0.057469
	16.745000	-0.166164
	16.750000	-0.261537
	16.755000	-0.034615
	16.760000	0.060758
	16.765000	-0.162875
	16.770000	-0.254959
	16.775000	-0.031326
	16.780000	0.064047
	16.785000	-0.169453
	16.790000	-0.254959
	16.795000	-0.028037
	16.800000	0.057469
	16.805000	-0.162875
	16.810000	-0.254959
	16.815000	-0.031326
	16.820000	0.057469
	16.825000	-0.169453
	16.830000	-0.254959
	16.835000	-0.034615
	16.840000	0.054181
	16.845000	-0.172741
	16.850000	-0.261537
	16.855000	-0.034615
	16.860000	0.047603
	16.865000	-0.179319
	16.870000	-0.268114
	16.875000	-0.037904
	16.880000	0.050892
	16.885000	-0.179319
	16.890000	-0.271403
	16.895000	-0.047770
	16.900000	0.047603
	16.905000	-0.176030
	16.910000	-0.264826
	16.915000	-0.041192
	16.920000	0.044314
	16.925000	-0.169453
	16.930000	-0.261537
	16.935000	-0.041192
	16.940000	0.054181
	16.945000	-0.172741
	16.950000	-0.258248
	16.955000	-0.031326
	16.960000	0.054181
	16.965000	-0.169453
	16.970000	-0.251671
	16.975000	-0.031326
	16.980000	0.054181
	16.985000	-0.172741
	16.990000	-0.264826
	16.995000	-0.037904
	17.000000	0.044314
	17.005000	-0.179319
	17.010000	-0.261537
	17.015000	-0.037904
	17.020000	0.047603
	17.025000	-0.185896
	17.030000	-0.271403
	17.035000	-0.044481
	17.040000	0.027871
	17.045000	-0.192474
	17.050000	-0.281269
	17.055000	-0.054347
	17.060000	0.027871
	17.065000	-0.195762
	17.070000	-0.277980
	17.075000	-0.054347
	17.080000	0.027871
	17.085000	-0.195762
	17.090000	-0.277980
	17.095000	-0.047770
	17.100000	0.034448
	17.105000	-0.192474
	17.110000	-0.271403
	17.115000	-0.044481
	17.120000	0.037737
	17.125000	-0.185896
	17.130000	-0.264826
	17.135000	-0.037904
	17.140000	0.044314
	17.145000	-0.185896
	17.150000	-0.258248
	17.155000	-0.028037
	17.160000	0.054181
	17.165000	-0.176030
	17.170000	-0.254959
	17.175000	-0.021460
	17.180000	0.054181
	17.185000	-0.179319
	17.190000	-0.258248
	17.195000	-0.028037
	17.200000	0.047603
	17.205000	-0.185896
	17.210000	-0.264826
	17.215000	-0.034615
	17.220000	0.037737
	17.225000	-0.199051
	17.230000	-0.268114
	17.235000	-0.044481
	17.240000	0.027871
	17.245000	-0.202340
	17.250000	-0.277980
	17.255000	-0.044481
	17.260000	0.024582
	17.265000	-0.208917
	17.270000	-0.274692
	17.275000	-0.044481
	17.280000	0.024582
	17.285000	-0.205628
	17.290000	-0.274692
	17.295000	-0.037904
	17.300000	0.034448
	17.305000	-0.199051
	17.310000	-0.271403
	17.315000	-0.037904
	17.320000	0.037737
	17.325000	-0.189185
	17.330000	-0.261537
	17.335000	-0.028037
	17.340000	0.044314
	17.345000	-0.189185
	17.350000	-0.261537
	17.355000	-0.028037
	17.360000	0.037737
	17.365000	-0.195762
	17.370000	-0.258248
	17.375000	-0.028037
	17.380000	0.041026
	17.385000	-0.195762
	17.390000	-0.268114
	17.395000	-0.028037
	17.400000	0.037737
	17.405000	-0.199051
	17.410000	-0.264826
	17.415000	-0.034615
	17.420000	0.031160
	17.425000	-0.208917
	17.430000	-0.274692
	17.435000	-0.037904
	17.440000	0.027871
	17.445000	-0.212206
	17.450000	-0.274692
	17.455000	-0.044481
	17.460000	0.018005
	17.465000	-0.215495
	17.470000	-0.277980
	17.475000	-0.041192
	17.480000	0.027871
	17.485000	-0.208917
	17.490000	-0.274692
	17.495000	-0.041192
	17.500000	0.027871
	17.505000	-0.202340
	17.510000	-0.271403
	17.515000	-0.034615
	17.520000	0.031160
	17.525000	-0.202340
	17.530000	-0.264826
	17.535000	-0.024749
	17.540000	0.034448
	17.545000	-0.202340
	17.550000	-0.264826
	17.555000	-0.028037
	17.560000	0.037737
	17.565000	-0.205628
	17.570000	-0.261537
	17.575000	-0.028037
	17.580000	0.031160
	17.585000	-0.212206
	17.590000	-0.264826
	17.595000	-0.034615
	17.600000	0.031160
	17.605000	-0.205628
	17.610000	-0.268114
	17.615000	-0.034615
	17.620000	0.027871
	17.625000	-0.212206
	17.630000	-0.268114
	17.635000	-0.031326
	17.640000	0.027871
	17.645000	-0.215495
	17.650000	-0.271403
	17.655000	-0.034615
	17.660000	0.024582
	17.665000	-0.218783
	17.670000	-0.271403
	17.675000	-0.037904
	17.680000	0.024582
	17.685000	-0.215495
	17.690000	-0.271403
	17.695000	-0.031326
	17.700000	0.024582
	17.705000	-0.215495
	17.710000	-0.268114
	17.715000	-0.031326
	17.720000	0.021293
	17.725000	-0.218783
	17.730000	-0.271403
	17.735000	-0.034615
	17.740000	0.021293
	17.745000	-0.218783
	17.750000	-0.274692
	17.755000	-0.034615
	17.760000	0.014716
	17.765000	-0.222072
	17.770000	-0.277980
	17.775000	-0.037904
	17.780000	0.018005
	17.785000	-0.222072
	17.790000	-0.277980
	17.795000	-0.037904
	17.800000	0.018005
	17.805000	-0.222072
	17.810000	-0.271403
	17.815000	-0.037904
	17.820000	0.014716
	17.825000	-0.225361
	17.830000	-0.274692
	17.835000	-0.037904
	17.840000	0.018005
	17.845000	-0.218783
	17.850000	-0.271403
	17.855000	-0.034615
	17.860000	0.024582
	17.865000	-0.222072
	17.870000	-0.268114
	17.875000	-0.028037
	17.880000	0.021293
	17.885000	-0.218783
	17.890000	-0.268114
	17.895000	-0.024749
	17.900000	0.024582
	17.905000	-0.218783
	17.910000	-0.271403
	17.915000	-0.028037
	17.920000	0.021293
	17.925000	-0.218783
	17.930000	-0.264826
	17.935000	-0.028037
	17.940000	0.018005
	17.945000	-0.222072
	17.950000	-0.264826
	17.955000	-0.031326
	17.960000	0.021293
	17.965000	-0.218783
	17.970000	-0.268114
	17.975000	-0.031326
	17.980000	0.018005
	17.985000	-0.225361
	17.990000	-0.268114
	17.995000	-0.028037
	18.000000	0.018005
	18.005000	-0.222072
	18.010000	-0.268114
	18.015000	-0.031326
	18.020000	0.018005
	18.025000	-0.222072
	18.030000	-0.268114
	18.035000	-0.028037
	18.040000	0.011427
	18.045000	-0.225361
	18.050000	-0.271403
	18.055000	-0.028037
	18.060000	0.018005
	18.065000	-0.231938
	18.070000	-0.268114
	18.075000	-0.031326
	18.080000	0.011427
	18.085000	-0.228650
	18.090000	-0.271403
	18.095000	-0.037904
	18.100000	0.008138
	18.105000	-0.235227
	18.110000	-0.274692
	18.115000	-0.034615
	18.120000	0.004850
	18.125000	-0.231938
	18.130000	-0.274692
	18.135000	-0.037904
	18.140000	0.014716
	18.145000	-0.231938
	18.150000	-0.271403
	18.155000	-0.028037
	18.160000	0.004850
	18.165000	-0.231938
	18.170000	-0.271403
	18.175000	-0.028037
	18.180000	0.008138
	18.185000	-0.228650
	18.190000	-0.268114
	18.195000	-0.031326
	18.200000	0.011427
	18.205000	-0.228650
	18.210000	-0.268114
	18.215000	-0.028037
	18.220000	0.008138
	18.225000	-0.231938
	18.230000	-0.271403
	18.235000	-0.031326
	18.240000	0.004850
	18.245000	-0.235227
	18.250000	-0.268114
	18.255000	-0.028037
	18.260000	0.004850
	18.265000	-0.231938
	18.270000	-0.268114
	18.275000	-0.031326
	18.280000	0.008138
	18.285000	-0.228650
	18.290000	-0.268114
	18.295000	-0.028037
	18.300000	0.004850
	18.305000	-0.231938
	18.310000	-0.268114
	18.315000	-0.031326
	18.320000	0.004850
	18.325000	-0.238516
	18.330000	-0.264826
	18.335000	-0.028037
	18.340000	0.011427
	18.345000	-0.235227
	18.350000	-0.264826
	18.355000	-0.028037
	18.360000	0.001561
	18.365000	-0.238516
	18.370000	-0.268114
	18.375000	-0.031326
	18.380000	0.001561
	18.385000	-0.235227
	18.390000	-0.271403
	18.395000	-0.034615
	18.400000	0.001561
	18.405000	-0.238516
	18.410000	-0.264826
	18.415000	-0.028037
	18.420000	0.001561
	18.425000	-0.238516
	18.430000	-0.268114
	18.435000	-0.031326
	18.440000	0.001561
	18.445000	-0.235227
	18.450000	-0.268114
	18.455000	-0.024749
	18.460000	-0.001728
	18.465000	-0.235227
	18.470000	-0.268114
	18.475000	-0.028037
	18.480000	0.001561
	18.485000	-0.238516
	18.490000	-0.264826
	18.495000	-0.028037
	18.500000	0.001561
	18.505000	-0.241804
	18.510000	-0.268114
	18.515000	-0.031326
	18.520000	-0.001728
	18.525000	-0.248382
	18.530000	-0.271403
	18.535000	-0.031326
	18.540000	-0.008305
	18.545000	-0.245093
	18.550000	-0.274692
	18.555000	-0.037904
	18.560000	-0.005016
	18.565000	-0.238516
	18.570000	-0.271403
	18.575000	-0.034615
	18.580000	-0.008305
	18.585000	-0.235227
	18.590000	-0.264826
	18.595000	-0.024749
	18.600000	0.001561
	18.605000	-0.235227
	18.610000	-0.258248
	18.615000	-0.021460
	18.620000	0.004850
	18.625000	-0.235227
	18.630000	-0.258248
	18.635000	-0.018171
	18.640000	0.004850
	18.645000	-0.235227
	18.650000	-0.258248
	18.655000	-0.024749
	18.660000	0.001561
	18.665000	-0.238516
	18.670000	-0.268114
	18.675000	-0.024749
	18.680000	-0.001728
	18.685000	-0.245093
	18.690000	-0.271403
	18.695000	-0.031326
	18.700000	-0.008305
	18.705000	-0.251671
	18.710000	-0.274692
	18.715000	-0.031326
	18.720000	-0.011594
	18.725000	-0.258248
	18.730000	-0.274692
	18.735000	-0.034615
	18.740000	-0.018171
	18.745000	-0.254959
	18.750000	-0.274692
	18.755000	-0.037904
	18.760000	-0.011594
	18.765000	-0.251671
	18.770000	-0.274692
	18.775000	-0.034615
	18.780000	-0.014883
	18.785000	-0.254959
	18.790000	-0.268114
	18.795000	-0.024749
	18.800000	-0.011594
	18.805000	-0.251671
	18.810000	-0.264826
	18.815000	-0.024749
	18.820000	-0.008305
	18.825000	-0.251671
	18.830000	-0.264826
	18.835000	-0.021460
	18.840000	-0.008305
	18.845000	-0.251671
	18.850000	-0.268114
	18.855000	-0.021460
	18.860000	-0.005016
	18.865000	-0.251671
	18.870000	-0.271403
	18.875000	-0.024749
	18.880000	-0.021460
	18.885000	-0.261537
	18.890000	-0.274692
	18.895000	-0.024749
	18.900000	-0.018171
	18.905000	-0.264826
	18.910000	-0.274692
	18.915000	-0.034615
	18.920000	-0.014883
	18.925000	-0.268114
	18.930000	-0.274692
	18.935000	-0.034615
	18.940000	-0.018171
	18.945000	-0.264826
	18.950000	-0.274692
	18.955000	-0.021460
	18.960000	-0.014883
	18.965000	-0.261537
	18.970000	-0.261537
	18.975000	-0.018171
	18.980000	-0.005016
	18.985000	-0.251671
	18.990000	-0.258248
	18.995000	-0.021460
	19.000000	-0.008305
	19.005000	-0.254959
	19.010000	-0.261537
	19.015000	-0.018171
	19.020000	-0.011594
	19.025000	-0.258248
	19.030000	-0.264826
	19.035000	-0.024749
	19.040000	-0.014883
	19.045000	-0.258248
	19.050000	-0.271403
	19.055000	-0.024749
	19.060000	-0.021460
	19.065000	-0.268114
	19.070000	-0.271403
	19.075000	-0.034615
	19.080000	-0.021460
	19.085000	-0.268114
	19.090000	-0.274692
	19.095000	-0.031326
	19.100000	-0.024749
	19.105000	-0.274692
	19.110000	-0.277980
	19.115000	-0.034615
	19.120000	-0.024749
	19.125000	-0.271403
	19.130000	-0.274692
	19.135000	-0.028037
	19.140000	-0.024749
	19.145000	-0.264826
	19.150000	-0.268114
	19.155000	-0.021460
	19.160000	-0.024749
	19.165000	-0.261537
	19.170000	-0.268114
	19.175000	-0.024749
	19.180000	-0.014883
	19.185000	-0.258248
	19.190000	-0.264826
	19.195000	-0.018171
	19.200000	-0.011594
	19.205000	-0.258248
	19.210000	-0.258248
	19.215000	-0.018171
	19.220000	-0.014883
	19.225000	-0.258248
	19.230000	-0.258248
	19.235000	-0.014883
	19.240000	-0.018171
	19.245000	-0.264826
	19.250000	-0.261537
	19.255000	-0.021460
	19.260000	-0.021460
	19.265000	-0.268114
	19.270000	-0.264826
	19.275000	-0.028037
	19.280000	-0.024749
	19.285000	-0.271403
	19.290000	-0.271403
	19.295000	-0.028037
	19.300000	-0.028037
	19.305000	-0.271403
	19.310000	-0.268114
	19.315000	-0.028037
	19.320000	-0.028037
	19.325000	-0.268114
	19.330000	-0.271403
	19.335000	-0.024749
	19.340000	-0.021460
	19.345000	-0.268114
	19.350000	-0.268114
	19.355000	-0.028037
	19.360000	-0.028037
	19.365000	-0.268114
	19.370000	-0.264826
	19.375000	-0.024749
	19.380000	-0.024749
	19.385000	-0.264826
	19.390000	-0.268114
	19.395000	-0.024749
	19.400000	-0.024749
	19.405000	-0.274692
	19.410000	-0.264826
	19.415000	-0.024749
	19.420000	-0.028037
	19.425000	-0.264826
	19.430000	-0.264826
	19.435000	-0.018171
	19.440000	-0.031326
	19.445000	-0.271403
	19.450000	-0.268114
	19.455000	-0.018171
	19.460000	-0.028037
	19.465000	-0.274692
	19.470000	-0.264826
	19.475000	-0.024749
	19.480000	-0.028037
	19.485000	-0.274692
	19.490000	-0.264826
	19.495000	-0.024749
	19.500000	-0.031326
	19.505000	-0.274692
	19.510000	-0.264826
	19.515000	-0.021460
	19.520000	-0.028037
	19.525000	-0.277980
	19.530000	-0.261537
	19.535000	-0.024749
	19.540000	-0.028037
	19.545000	-0.274692
	19.550000	-0.268114
	19.555000	-0.024749
	19.560000	-0.034615
	19.565000	-0.281269
	19.570000	-0.264826
	19.575000	-0.024749
	19.580000	-0.031326
	19.585000	-0.274692
	19.590000	-0.264826
	19.595000	-0.021460
	19.600000	-0.034615
	19.605000	-0.274692
	19.610000	-0.264826
	19.615000	-0.021460
	19.620000	-0.034615
	19.625000	-0.277980
	19.630000	-0.264826
	19.635000	-0.018171
	19.640000	-0.034615
	19.645000	-0.277980
	19.650000	-0.264826
	19.655000	-0.021460
	19.660000	-0.031326
	19.665000	-0.277980
	19.670000	-0.261537
	19.675000	-0.021460
	19.680000	-0.031326
	19.685000	-0.274692
	19.690000	-0.261537
	19.695000	-0.024749
	19.700000	-0.031326
	19.705000	-0.277980
	19.710000	-0.264826
	19.715000	-0.021460
	19.720000	-0.037904
	19.725000	-0.281269
	19.730000	-0.264826
	19.735000	-0.021460
	19.740000	-0.034615
	19.745000	-0.281269
	19.750000	-0.258248
	19.755000	-0.021460
	19.760000	-0.034615
	19.765000	-0.281269
	19.770000	-0.264826
	19.775000	-0.021460
	19.780000	-0.034615
	19.785000	-0.281269
	19.790000	-0.264826
	19.795000	-0.021460
	19.800000	-0.037904
	19.805000	-0.281269
	19.810000	-0.261537
	19.815000	-0.024749
	19.820000	-0.034615
	19.825000	-0.281269
	19.830000	-0.261537
	19.835000	-0.021460
	19.840000	-0.034615
	19.845000	-0.277980
	19.850000	-0.261537
	19.855000	-0.021460
	19.860000	-0.037904
	19.865000	-0.281269
	19.870000	-0.264826
	19.875000	-0.018171
	19.880000	-0.041192
	19.885000	-0.281269
	19.890000	-0.261537
	19.895000	-0.014883
	19.900000	-0.041192
	19.905000	-0.281269
	19.910000	-0.261537
	19.915000	-0.021460
	19.920000	-0.041192
	19.925000	-0.281269
	19.930000	-0.258248
	19.935000	-0.021460
	19.940000	-0.037904
	19.945000	-0.284558
	19.950000	-0.258248
	19.955000	-0.021460
	19.960000	-0.041192
	19.965000	-0.284558
	19.970000	-0.264826
	19.975000	-0.028037
	19.980000	-0.047770
	19.985000	-0.291135
	19.990000	-0.261537
	19.995000	-0.028037
	20.000000	-0.044481
	20.005000	-0.287847
	20.010000	-0.258248
	20.015000	-0.024749
	20.020000	-0.041192
	20.025000	-0.291135
	20.030000	-0.261537
	20.035000	-0.021460
	20.040000	-0.051059
	20.045000	-0.281269
	20.050000	-0.261537
	20.055000	-0.018171
	20.060000	-0.037904
	20.065000	-0.281269
	20.070000	-0.254959
	20.075000	-0.018171
	20.080000	-0.041192
	20.085000	-0.287847
	20.090000	-0.251671
	20.095000	-0.014883
	20.100000	-0.041192
	20.105000	-0.284558
	20.110000	-0.251671
	20.115000	-0.021460
	20.120000	-0.047770
	20.125000	-0.287847
	20.130000	-0.261537
	20.135000	-0.018171
	20.140000	-0.044481
	20.145000	-0.291135
	20.150000	-0.264826
	20.155000	-0.024749
	20.160000	-0.054347
	20.165000	-0.291135
	20.170000	-0.261537
	20.175000	-0.024749
	20.180000	-0.051059
	20.185000	-0.294424
	20.190000	-0.264826
	20.195000	-0.018171
	20.200000	-0.054347
	20.205000	-0.291135
	20.210000	-0.264826
	20.215000	-0.021460
	20.220000	-0.051059
	20.225000	-0.291135
	20.230000	-0.264826
	20.235000	-0.021460
	20.240000	-0.047770
	20.245000	-0.297713
	20.250000	-0.261537
	20.255000	-0.021460
	20.260000	-0.051059
	20.265000	-0.294424
	20.270000	-0.261537
	20.275000	-0.021460
	20.280000	-0.051059
	20.285000	-0.294424
	20.290000	-0.261537
	20.295000	-0.021460
	20.300000	-0.054347
	20.305000	-0.287847
	20.310000	-0.258248
	20.315000	-0.028037
	20.320000	-0.054347
	20.325000	-0.291135
	20.330000	-0.258248
	20.335000	-0.021460
	20.340000	-0.051059
	20.345000	-0.287847
	20.350000	-0.258248
	20.355000	-0.021460
	20.360000	-0.047770
	20.365000	-0.287847
	20.370000	-0.258248
	20.375000	-0.021460
	20.380000	-0.051059
	20.385000	-0.294424
	20.390000	-0.261537
	20.395000	-0.024749
	20.400000	-0.054347
	20.405000	-0.294424
	20.410000	-0.264826
	20.415000	-0.021460
	20.420000	-0.060925
	20.425000	-0.294424
	20.430000	-0.264826
	20.435000	-0.028037
	20.440000	-0.064213
	20.445000	-0.301001
	20.450000	-0.268114
	20.455000	-0.028037
	20.460000	-0.064213
	20.465000	-0.301001
	20.470000	-0.261537
	20.475000	-0.024749
	20.480000	-0.067502
	20.485000	-0.304290
	20.490000	-0.261537
	20.495000	-0.021460
	20.500000	-0.064213
	20.505000	-0.301001
	20.510000	-0.261537
	20.515000	-0.024749
	20.520000	-0.060925
	20.525000	-0.304290
	20.530000	-0.261537
	20.535000	-0.014883
	20.540000	-0.064213
	20.545000	-0.304290
	20.550000	-0.258248
	20.555000	-0.028037
	20.560000	-0.060925
	20.565000	-0.304290
	20.570000	-0.258248
	20.575000	-0.024749
	20.580000	-0.060925
	20.585000	-0.304290
	20.590000	-0.264826
	20.595000	-0.024749
	20.600000	-0.067502
	20.605000	-0.304290
	20.610000	-0.264826
	20.615000	-0.024749
	20.620000	-0.060925
	20.625000	-0.304290
	20.630000	-0.254959
	20.635000	-0.021460
	20.640000	-0.064213
	20.645000	-0.301001
	20.650000	-0.254959
	20.655000	-0.014883
	20.660000	-0.054347
	20.665000	-0.294424
	20.670000	-0.245093
	20.675000	-0.008305
	20.680000	-0.054347
	20.685000	-0.291135
	20.690000	-0.245093
	20.695000	-0.008305
	20.700000	-0.054347
	20.705000	-0.294424
	20.710000	-0.245093
	20.715000	-0.008305
	20.720000	-0.051059
	20.725000	-0.297713
	20.730000	-0.251671
	20.735000	-0.011594
	20.740000	-0.060925
	20.745000	-0.304290
	20.750000	-0.258248
	20.755000	-0.021460
	20.760000	-0.074080
	20.765000	-0.310868
	20.770000	-0.264826
	20.775000	-0.031326
	20.780000	-0.077368
	20.785000	-0.317445
	20.790000	-0.268114
	20.795000	-0.034615
	20.800000	-0.080657
	20.805000	-0.324023
	20.810000	-0.271403
	20.815000	-0.031326
	20.820000	-0.080657
	20.825000	-0.314156
	20.830000	-0.264826
	20.835000	-0.028037
	20.840000	-0.074080
	20.845000	-0.314156
	20.850000	-0.251671
	20.855000	-0.011594
	20.860000	-0.067502
	20.865000	-0.304290
	20.870000	-0.248382
	20.875000	-0.011594
	20.880000	-0.067502
	20.885000	-0.301001
	20.890000	-0.248382
	20.895000	-0.008305
	20.900000	-0.064213
	20.905000	-0.301001
	20.910000	-0.248382
	20.915000	-0.014883
	20.920000	-0.067502
	20.925000	-0.301001
	20.930000	-0.251671
	20.935000	-0.014883
	20.940000	-0.074080
	20.945000	-0.310868
	20.950000	-0.258248
	20.955000	-0.024749
	20.960000	-0.074080
	20.965000	-0.310868
	20.970000	-0.254959
	20.975000	-0.021460
	20.980000	-0.074080
	20.985000	-0.310868
	20.990000	-0.254959
	20.995000	-0.021460
	21.000000	-0.077368
	21.005000	-0.310868
	21.010000	-0.258248
	21.015000	-0.021460
	21.020000	-0.077368
	21.025000	-0.310868
	21.030000	-0.254959
	21.035000	-0.021460
	21.040000	-0.077368
	21.045000	-0.310868
	21.050000	-0.251671
	21.055000	-0.024749
	21.060000	-0.074080
	21.065000	-0.314156
	21.070000	-0.254959
	21.075000	-0.018171
	21.080000	-0.080657
	21.085000	-0.317445
	21.090000	-0.254959
	21.095000	-0.018171
	21.100000	-0.080657
	21.105000	-0.314156
	21.110000	-0.254959
	21.115000	-0.021460
	21.120000	-0.077368
	21.125000	-0.314156
	21.130000	-0.251671
	21.135000	-0.018171
	21.140000	-0.077368
	21.145000	-0.317445
	21.150000	-0.251671
	21.155000	-0.018171
	21.160000	-0.077368
	21.165000	-0.314156
	21.170000	-0.248382
	21.175000	-0.018171
	21.180000	-0.077368
	21.185000	-0.314156
	21.190000	-0.251671
	21.195000	-0.018171
	21.200000	-0.080657
	21.205000	-0.317445
	21.210000	-0.248382
	21.215000	-0.014883
	21.220000	-0.077368
	21.225000	-0.317445
	21.230000	-0.251671
	21.235000	-0.018171
	21.240000	-0.080657
	21.245000	-0.317445
	21.250000	-0.258248
	21.255000	-0.021460
	21.260000	-0.080657
	21.265000	-0.320734
	21.270000	-0.254959
	21.275000	-0.018171
	21.280000	-0.083946
	21.285000	-0.320734
	21.290000	-0.248382
	21.295000	-0.014883
	21.300000	-0.083946
	21.305000	-0.317445
	21.310000	-0.245093
	21.315000	-0.014883
	21.320000	-0.083946
	21.325000	-0.314156
	21.330000	-0.251671
	21.335000	-0.021460
	21.340000	-0.087234
	21.345000	-0.314156
	21.350000	-0.248382
	21.355000	-0.018171
	21.360000	-0.080657
	21.365000	-0.314156
	21.370000	-0.251671
	21.375000	-0.021460
	21.380000	-0.087234
	21.385000	-0.320734
	21.390000	-0.251671
	21.395000	-0.021460
	21.400000	-0.083946
	21.405000	-0.324023
	21.410000	-0.254959
	21.415000	-0.021460
	21.420000	-0.090523
	21.425000	-0.324023
	21.430000	-0.251671
	21.435000	-0.014883
	21.440000	-0.090523
	21.445000	-0.324023
	21.450000	-0.248382
	21.455000	-0.018171
	21.460000	-0.083946
	21.465000	-0.320734
	21.470000	-0.251671
	21.475000	-0.021460
	21.480000	-0.090523
	21.485000	-0.320734
	21.490000	-0.251671
	21.495000	-0.021460
	21.500000	-0.090523
	21.505000	-0.324023
	21.510000	-0.251671
	21.515000	-0.021460
	21.520000	-0.093812
	21.525000	-0.324023
	21.530000	-0.248382
	21.535000	-0.024749
	21.540000	-0.090523
	21.545000	-0.324023
	21.550000	-0.251671
	21.555000	-0.018171
	21.560000	-0.090523
	21.565000	-0.317445
	21.570000	-0.245093
	21.575000	-0.014883
	21.580000	-0.087234
	21.585000	-0.320734
	21.590000	-0.241804
	21.595000	-0.011594
	21.600000	-0.083946
	21.605000	-0.320734
	21.610000	-0.245093
	21.615000	-0.014883
	21.620000	-0.087234
	21.625000	-0.324023
	21.630000	-0.241804
	21.635000	-0.018171
	21.640000	-0.090523
	21.645000	-0.324023
	21.650000	-0.241804
	21.655000	-0.021460
	21.660000	-0.093812
	21.665000	-0.327311
	21.670000	-0.251671
	21.675000	-0.018171
	21.680000	-0.097101
	21.685000	-0.330600
	21.690000	-0.248382
	21.695000	-0.018171
	21.700000	-0.093812
	21.705000	-0.327311
	21.710000	-0.248382
	21.715000	-0.018171
	21.720000	-0.097101
	21.725000	-0.327311
	21.730000	-0.248382
	21.735000	-0.018171
	21.740000	-0.093812
	21.745000	-0.324023
	21.750000	-0.248382
	21.755000	-0.018171
	21.760000	-0.093812
	21.765000	-0.327311
	21.770000	-0.248382
	21.775000	-0.021460
	21.780000	-0.100389
	21.785000	-0.330600
	21.790000	-0.245093
	21.795000	-0.024749
	21.800000	-0.100389
	21.805000	-0.330600
	21.810000	-0.248382
	21.815000	-0.021460
	21.820000	-0.106967
	21.825000	-0.330600
	21.830000	-0.248382
	21.835000	-0.014883
	21.840000	-0.103678
	21.845000	-0.327311
	21.850000	-0.245093
	21.855000	-0.021460
	21.860000	-0.103678
	21.865000	-0.333889
	21.870000	-0.248382
	21.875000	-0.011594
	21.880000	-0.103678
	21.885000	-0.327311
	21.890000	-0.245093
	21.895000	-0.011594
	21.900000	-0.093812
	21.905000	-0.324023
	21.910000	-0.245093
	21.915000	-0.014883
	21.920000	-0.100389
	21.925000	-0.324023
	21.930000	-0.238516
	21.935000	-0.018171
	21.940000	-0.097101
	21.945000	-0.317445
	21.950000	-0.245093
	21.955000	-0.021460
	21.960000	-0.103678
	21.965000	-0.324023
	21.970000	-0.241804
	21.975000	-0.021460
	21.980000	-0.103678
	21.985000	-0.327311
	21.990000	-0.248382
	21.995000	-0.021460
	22.000000	-0.103678
	22.005000	-0.330600
	22.010000	-0.245093
	22.015000	-0.024749
	22.020000	-0.106967
	22.025000	-0.337177
	22.030000	-0.245093
	22.035000	-0.024749
	22.040000	-0.106967
	22.045000	-0.333889
	22.050000	-0.248382
	22.055000	-0.028037
	22.060000	-0.113544
	22.065000	-0.340466
	22.070000	-0.254959
	22.075000	-0.031326
	22.080000	-0.120122
	22.085000	-0.350332
	22.090000	-0.251671
	22.095000	-0.034615
	22.100000	-0.120122
	22.105000	-0.350332
	22.110000	-0.258248
	22.115000	-0.031326
	22.120000	-0.123410
	22.125000	-0.340466
	22.130000	-0.251671
	22.135000	-0.028037
	22.140000	-0.116833
	22.145000	-0.340466
	22.150000	-0.245093
	22.155000	-0.021460
	22.160000	-0.110256
	22.165000	-0.330600
	22.170000	-0.241804
	22.175000	-0.014883
	22.180000	-0.110256
	22.185000	-0.330600
	22.190000	-0.238516
	22.195000	-0.014883
	22.200000	-0.103678
	22.205000	-0.333889
	22.210000	-0.238516
	22.215000	-0.014883
	22.220000	-0.110256
	22.225000	-0.330600
	22.230000	-0.241804
	22.235000	-0.021460
	22.240000	-0.120122
	22.245000	-0.343755
	22.250000	-0.251671
	22.255000	-0.028037
	22.260000	-0.126699
	22.265000	-0.350332
	22.270000	-0.251671
	22.275000	-0.024749
	22.280000	-0.123410
	22.285000	-0.347044
	22.290000	-0.245093
	22.295000	-0.028037
	22.300000	-0.116833
	22.305000	-0.337177
	22.310000	-0.238516
	22.315000	-0.018171
	22.320000	-0.113544
	22.325000	-0.333889
	22.330000	-0.235227
	22.335000	-0.008305
	22.340000	-0.110256
	22.345000	-0.333889
	22.350000	-0.231938
	22.355000	-0.008305
	22.360000	-0.113544
	22.365000	-0.333889
	22.370000	-0.231938
	22.375000	-0.014883
	22.380000	-0.113544
	22.385000	-0.337177
	22.390000	-0.238516
	22.395000	-0.024749
	22.400000	-0.116833
	22.405000	-0.343755
	22.410000	-0.248382
	22.415000	-0.024749
	22.420000	-0.126699
	22.425000	-0.343755
	22.430000	-0.251671
	22.435000	-0.024749
	22.440000	-0.133277
	22.445000	-0.350332
	22.450000	-0.254959
	22.455000	-0.028037
	22.460000	-0.129988
	22.465000	-0.350332
	22.470000	-0.245093
	22.475000	-0.028037
	22.480000	-0.126699
	22.485000	-0.350332
	22.490000	-0.238516
	22.495000	-0.021460
	22.500000	-0.120122
	22.505000	-0.337177
	22.510000	-0.235227
	22.515000	-0.018171
	22.520000	-0.120122
	22.525000	-0.337177
	22.530000	-0.235227
	22.535000	-0.014883
	22.540000	-0.120122
	22.545000	-0.337177
	22.550000	-0.235227
	22.555000	-0.014883
	22.560000	-0.120122
	22.565000	-0.340466
	22.570000	-0.231938
	22.575000	-0.021460
	22.580000	-0.120122
	22.585000	-0.343755
	22.590000	-0.238516
	22.595000	-0.021460
	22.600000	-0.126699
	22.605000	-0.350332
	22.610000	-0.238516
	22.615000	-0.021460
	22.620000	-0.129988
	22.625000	-0.343755
	22.630000	-0.245093
	22.635000	-0.028037
	22.640000	-0.129988
	22.645000	-0.343755
	22.650000	-0.238516
	22.655000	-0.018171
	22.660000	-0.126699
	22.665000	-0.347044
	22.670000	-0.238516
	22.675000	-0.021460
	22.680000	-0.126699
	22.685000	-0.350332
	22.690000	-0.241804
	22.695000	-0.014883
	22.700000	-0.126699
	22.705000	-0.343755
	22.710000	-0.238516
	22.715000	-0.021460
	22.720000	-0.126699
	22.725000	-0.343755
	22.730000	-0.241804
	22.735000	-0.021460
	22.740000	-0.129988
	22.745000	-0.350332
	22.750000	-0.235227
	22.755000	-0.018171
	22.760000	-0.126699
	22.765000	-0.343755
	22.770000	-0.238516
	22.775000	-0.024749
	22.780000	-0.129988
	22.785000	-0.350332
	22.790000	-0.235227
	22.795000	-0.018171
	22.800000	-0.126699
	22.805000	-0.347044
	22.810000	-0.235227
	22.815000	-0.024749
	22.820000	-0.129988
	22.825000	-0.350332
	22.830000	-0.238516
	22.835000	-0.018171
	22.840000	-0.129988
	22.845000	-0.343755
	22.850000	-0.238516
	22.855000	-0.021460
	22.860000	-0.136565
	22.865000	-0.343755
	22.870000	-0.238516
	22.875000	-0.021460
	22.880000	-0.133277
	22.885000	-0.350332
	22.890000	-0.238516
	22.895000	-0.024749
	22.900000	-0.136565
	22.905000	-0.350332
	22.910000	-0.238516
	22.915000	-0.024749
	22.920000	-0.139854
	22.925000	-0.350332
	22.930000	-0.235227
	22.935000	-0.024749
	22.940000	-0.139854
	22.945000	-0.356910
	22.950000	-0.241804
	22.955000	-0.021460
	22.960000	-0.136565
	22.965000	-0.350332
	22.970000	-0.235227
	22.975000	-0.028037
	22.980000	-0.136565
	22.985000	-0.356910
	22.990000	-0.238516
	22.995000	-0.024749
	23.000000	-0.139854
	23.005000	-0.356910
	23.010000	-0.238516
	23.015000	-0.024749
	23.020000	-0.136565
	23.025000	-0.356910
	23.030000	-0.238516
	23.035000	-0.024749
	23.040000	-0.136565
	23.045000	-0.350332
	23.050000	-0.238516
	23.055000	-0.021460
	23.060000	-0.139854
	23.065000	-0.350332
	23.070000	-0.235227
	23.075000	-0.021460
	23.080000	-0.139854
	23.085000	-0.350332
	23.090000	-0.235227
	23.095000	-0.021460
	23.100000	-0.133277
	23.105000	-0.353621
	23.110000	-0.231938
	23.115000	-0.024749
	23.120000	-0.136565
	23.125000	-0.353621
	23.130000	-0.235227
	23.135000	-0.024749
	23.140000	-0.146431
	23.145000	-0.356910
	23.150000	-0.238516
	23.155000	-0.031326
	23.160000	-0.146431
	23.165000	-0.356910
	23.170000	-0.238516
	23.175000	-0.024749
	23.180000	-0.146431
	23.185000	-0.356910
	23.190000	-0.238516
	23.195000	-0.024749
	23.200000	-0.146431
	23.205000	-0.356910
	23.210000	-0.231938
	23.215000	-0.024749
	23.220000	-0.146431
	23.225000	-0.350332
	23.230000	-0.235227
	23.235000	-0.024749
	23.240000	-0.143143
	23.245000	-0.356910
	23.250000	-0.235227
	23.255000	-0.024749
	23.260000	-0.143143
	23.265000	-0.360198
	23.270000	-0.235227
	23.275000	-0.024749
	23.280000	-0.149720
	23.285000	-0.360198
	23.290000	-0.235227
	23.295000	-0.028037
	23.300000	-0.149720
	23.305000	-0.363487
	23.310000	-0.238516
	23.315000	-0.031326
	23.320000	-0.149720
	23.325000	-0.363487
	23.330000	-0.235227
	23.335000	-0.028037
	23.340000	-0.156298
	23.345000	-0.360198
	23.350000	-0.238516
	23.355000	-0.028037
	23.360000	-0.153009
	23.365000	-0.356910
	23.370000	-0.231938
	23.375000	-0.024749
	23.380000	-0.153009
	23.385000	-0.356910
	23.390000	-0.231938
	23.395000	-0.024749
	23.400000	-0.149720
	23.405000	-0.363487
	23.410000	-0.231938
	23.415000	-0.024749
	23.420000	-0.149720
	23.425000	-0.363487
	23.430000	-0.231938
	23.435000	-0.028037
	23.440000	-0.153009
	23.445000	-0.363487
	23.450000	-0.228650
	23.455000	-0.024749
	23.460000	-0.153009
	23.465000	-0.363487
	23.470000	-0.235227
	23.475000	-0.024749
	23.480000	-0.156298
	23.485000	-0.360198
	23.490000	-0.235227
	23.495000	-0.024749
	23.500000	-0.159586
	23.505000	-0.360198
	23.510000	-0.235227
	23.515000	-0.028037
	23.520000	-0.156298
	23.525000	-0.366776
	23.530000	-0.235227
	23.535000	-0.028037
	23.540000	-0.159586
	23.545000	-0.360198
	23.550000	-0.231938
	23.555000	-0.024749
	23.560000	-0.156298
	23.565000	-0.363487
	23.570000	-0.225361
	23.575000	-0.021460
	23.580000	-0.156298
	23.585000	-0.360198
	23.590000	-0.228650
	23.595000	-0.024749
	23.600000	-0.153009
	23.605000	-0.356910
	23.610000	-0.228650
	23.615000	-0.024749
	23.620000	-0.149720
	23.625000	-0.360198
	23.630000	-0.228650
	23.635000	-0.024749
	23.640000	-0.153009
	23.645000	-0.356910
	23.650000	-0.228650
	23.655000	-0.024749
	23.660000	-0.156298
	23.665000	-0.363487
	23.670000	-0.231938
	23.675000	-0.031326
	23.680000	-0.162875
	23.685000	-0.370065
	23.690000	-0.238516
	23.695000	-0.034615
	23.700000	-0.166164
	23.705000	-0.373353
	23.710000	-0.241804
	23.715000	-0.037904
	23.720000	-0.179319
	23.725000	-0.376642
	23.730000	-0.248382
	23.735000	-0.041192
	23.740000	-0.176030
	23.745000	-0.383220
	23.750000	-0.241804
	23.755000	-0.041192
	23.760000	-0.179319
	23.765000	-0.379931
	23.770000	-0.238516
	23.775000	-0.034615
	23.780000	-0.169453
	23.785000	-0.370065
	23.790000	-0.235227
	23.795000	-0.028037
	23.800000	-0.166164
	23.805000	-0.370065
	23.810000	-0.225361
	23.815000	-0.024749
	23.820000	-0.162875
	23.825000	-0.363487
	23.830000	-0.222072
	23.835000	-0.021460
	23.840000	-0.162875
	23.845000	-0.363487
	23.850000	-0.218783
	23.855000	-0.018171
	23.860000	-0.162875
	23.865000	-0.363487
	23.870000	-0.222072
	23.875000	-0.024749
	23.880000	-0.162875
	23.885000	-0.363487
	23.890000	-0.225361
	23.895000	-0.028037
	23.900000	-0.166164
	23.905000	-0.370065
	23.910000	-0.225361
	23.915000	-0.028037
	23.920000	-0.172741
	23.925000	-0.373353
	23.930000	-0.228650
	23.935000	-0.037904
	23.940000	-0.179319
	23.945000	-0.376642
	23.950000	-0.231938
	23.955000	-0.031326
	23.960000	-0.172741
	23.965000	-0.376642
	23.970000	-0.231938
	23.975000	-0.028037
	23.980000	-0.176030
	23.985000	-0.370065
	23.990000	-0.225361
	23.995000	-0.034615
	24.000000	-0.169453
	24.005000	-0.366776
	24.010000	-0.222072
	24.015000	-0.031326
	24.020000	-0.172741
	24.025000	-0.366776
	24.030000	-0.218783
	24.035000	-0.024749
	24.040000	-0.162875
	24.045000	-0.363487
	24.050000	-0.218783
	24.055000	-0.024749
	24.060000	-0.169453
	24.065000	-0.363487
	24.070000	-0.222072
	24.075000	-0.024749
	24.080000	-0.169453
	24.085000	-0.366776
	24.090000	-0.222072
	24.095000	-0.028037
	24.100000	-0.176030
	24.105000	-0.373353
	24.110000	-0.231938
	24.115000	-0.037904
	24.120000	-0.179319
	24.125000	-0.379931
	24.130000	-0.235227
	24.135000	-0.041192
	24.140000	-0.189185
	24.145000	-0.383220
	24.150000	-0.235227
	24.155000	-0.037904
	24.160000	-0.185896
	24.165000	-0.383220
	24.170000	-0.231938
	24.175000	-0.034615
	24.180000	-0.179319
	24.185000	-0.376642
	24.190000	-0.231938
	24.195000	-0.028037
	24.200000	-0.176030
	24.205000	-0.373353
	24.210000	-0.218783
	24.215000	-0.028037
	24.220000	-0.172741
	24.225000	-0.366776
	24.230000	-0.215495
	24.235000	-0.024749
	24.240000	-0.172741
	24.245000	-0.370065
	24.250000	-0.218783
	24.255000	-0.031326
	24.260000	-0.179319
	24.265000	-0.370065
	24.270000	-0.222072
	24.275000	-0.028037
	24.280000	-0.179319
	24.285000	-0.376642
	24.290000	-0.222072
	24.295000	-0.034615
	24.300000	-0.182607
	24.305000	-0.383220
	24.310000	-0.225361
	24.315000	-0.031326
	24.320000	-0.185896
	24.325000	-0.379931
	24.330000	-0.225361
	24.335000	-0.031326
	24.340000	-0.185896
	24.345000	-0.376642
	24.350000	-0.222072
	24.355000	-0.031326
	24.360000	-0.185896
	24.365000	-0.373353
	24.370000	-0.222072
	24.375000	-0.028037
	24.380000	-0.179319
	24.385000	-0.370065
	24.390000	-0.222072
	24.395000	-0.028037
	24.400000	-0.179319
	24.405000	-0.373353
	24.410000	-0.218783
	24.415000	-0.028037
	24.420000	-0.179319
	24.425000	-0.373353
	24.430000	-0.218783
	24.435000	-0.024749
	24.440000	-0.185896
	24.445000	-0.376642
	24.450000	-0.215495
	24.455000	-0.034615
	24.460000	-0.185896
	24.465000	-0.373353
	24.470000	-0.222072
	24.475000	-0.034615
	24.480000	-0.185896
	24.485000	-0.376642
	24.490000	-0.225361
	24.495000	-0.031326
	24.500000	-0.185896
	24.505000	-0.379931
	24.510000	-0.222072
	24.515000	-0.034615
	24.520000	-0.185896
	24.525000	-0.379931
	24.530000	-0.222072
	24.535000	-0.031326
	24.540000	-0.185896
	24.545000	-0.379931
	24.550000	-0.218783
	24.555000	-0.034615
	24.560000	-0.185896
	24.565000	-0.376642
	24.570000	-0.222072
	24.575000	-0.034615
	24.580000	-0.192474
	24.585000	-0.376642
	24.590000	-0.225361
	24.595000	-0.034615
	24.600000	-0.192474
	24.605000	-0.379931
	24.610000	-0.222072
	24.615000	-0.031326
	24.620000	-0.195762
	24.625000	-0.383220
	24.630000	-0.215495
	24.635000	-0.037904
	24.640000	-0.195762
	24.645000	-0.383220
	24.650000	-0.222072
	24.655000	-0.034615
	24.660000	-0.195762
	24.665000	-0.376642
	24.670000	-0.218783
	24.675000	-0.037904
	24.680000	-0.189185
	24.685000	-0.376642
	24.690000	-0.218783
	24.695000	-0.034615
	24.700000	-0.189185
	24.705000	-0.376642
	24.710000	-0.218783
	24.715000	-0.034615
	24.720000	-0.192474
	24.725000	-0.373353
	24.730000	-0.212206
	24.735000	-0.034615
	24.740000	-0.192474
	24.745000	-0.379931
	24.750000	-0.218783
	24.755000	-0.034615
	24.760000	-0.199051
	24.765000	-0.376642
	24.770000	-0.218783
	24.775000	-0.037904
	24.780000	-0.195762
	24.785000	-0.379931
	24.790000	-0.218783
	24.795000	-0.037904
	24.800000	-0.195762
	24.805000	-0.383220
	24.810000	-0.215495
	24.815000	-0.034615
	24.820000	-0.195762
	24.825000	-0.379931
	24.830000	-0.218783
	24.835000	-0.034615
	24.840000	-0.195762
	24.845000	-0.383220
	24.850000	-0.218783
	24.855000	-0.034615
	24.860000	-0.199051
	24.865000	-0.376642
	24.870000	-0.212206
	24.875000	-0.034615
	24.880000	-0.202340
	24.885000	-0.379931
	24.890000	-0.215495
	24.895000	-0.037904
	24.900000	-0.199051
	24.905000	-0.379931
	24.910000	-0.215495
	24.915000	-0.034615
	24.920000	-0.199051
	24.925000	-0.383220
	24.930000	-0.218783
	24.935000	-0.041192
	24.940000	-0.199051
	24.945000	-0.383220
	24.950000	-0.215495
	24.955000	-0.037904
	24.960000	-0.199051
	24.965000	-0.383220
	24.970000	-0.215495
	24.975000	-0.034615
	24.980000	-0.202340
	24.985000	-0.379931
	24.990000	-0.212206
	24.995000	-0.034615
	25.000000	-0.199051
	25.005000	-0.379931
	25.010000	-0.215495
	25.015000	-0.034615
	25.020000	-0.205628
	25.025000	-0.379931
	25.030000	-0.208917
	25.035000	-0.034615
	25.040000	-0.205628
	25.045000	-0.383220
	25.050000	-0.208917
	25.055000	-0.037904
	25.060000	-0.202340
	25.065000	-0.379931
	25.070000	-0.212206
	25.075000	-0.037904
	25.080000	-0.205628
	25.085000	-0.379931
	25.090000	-0.212206
	25.095000	-0.041192
	25.100000	-0.208917
	25.105000	-0.379931
	25.110000	-0.208917
	25.115000	-0.034615
	25.120000	-0.205628
	25.125000	-0.379931
	25.130000	-0.212206
	25.135000	-0.034615
	25.140000	-0.205628
	25.145000	-0.379931
	25.150000	-0.208917
	25.155000	-0.034615
	25.160000	-0.208917
	25.165000	-0.379931
	25.170000	-0.212206
	25.175000	-0.037904
	25.180000	-0.208917
	25.185000	-0.379931
	25.190000	-0.208917
	25.195000	-0.037904
	25.200000	-0.205628
	25.205000	-0.383220
	25.210000	-0.215495
	25.215000	-0.041192
	25.220000	-0.208917
	25.225000	-0.386508
	25.230000	-0.212206
	25.235000	-0.037904
	25.240000	-0.212206
	25.245000	-0.383220
	25.250000	-0.215495
	25.255000	-0.044481
	25.260000	-0.212206
	25.265000	-0.386508
	25.270000	-0.215495
	25.275000	-0.041192
	25.280000	-0.208917
	25.285000	-0.379931
	25.290000	-0.205628
	25.295000	-0.037904
	25.300000	-0.208917
	25.305000	-0.383220
	25.310000	-0.208917
	25.315000	-0.034615
	25.320000	-0.208917
	25.325000	-0.379931
	25.330000	-0.205628
	25.335000	-0.037904
	25.340000	-0.212206
	25.345000	-0.383220
	25.350000	-0.208917
	25.355000	-0.037904
	25.360000	-0.212206
	25.365000	-0.386508
	25.370000	-0.208917
	25.375000	-0.037904
	25.380000	-0.215495
	25.385000	-0.386508
	25.390000	-0.212206
	25.395000	-0.037904
	25.400000	-0.215495
	25.405000	-0.383220
	25.410000	-0.208917
	25.415000	-0.041192
	25.420000	-0.215495
	25.425000	-0.383220
	25.430000	-0.208917
	25.435000	-0.041192
	25.440000	-0.215495
	25.445000	-0.386508
	25.450000	-0.212206
	25.455000	-0.037904
	25.460000	-0.222072
	25.465000	-0.386508
	25.470000	-0.212206
	25.475000	-0.041192
	25.480000	-0.215495
	25.485000	-0.389797
	25.490000	-0.212206
	25.495000	-0.041192
	25.500000	-0.218783
	25.505000	-0.386508
	25.510000	-0.212206
	25.515000	-0.047770
	25.520000	-0.215495
	25.525000	-0.379931
	25.530000	-0.208917
	25.535000	-0.044481
	25.540000	-0.215495
	25.545000	-0.379931
	25.550000	-0.212206
	25.555000	-0.047770
	25.560000	-0.225361
	25.565000	-0.386508
	25.570000	-0.212206
	25.575000	-0.047770
	25.580000	-0.222072
	25.585000	-0.386508
	25.590000	-0.208917
	25.595000	-0.047770
	25.600000	-0.225361
	25.605000	-0.386508
	25.610000	-0.212206
	25.615000	-0.044481
	25.620000	-0.228650
	25.625000	-0.389797
	25.630000	-0.212206
	25.635000	-0.051059
	25.640000	-0.225361
	25.645000	-0.389797
	25.650000	-0.215495
	25.655000	-0.047770
	25.660000	-0.225361
	25.665000	-0.386508
	25.670000	-0.215495
	25.675000	-0.044481
	25.680000	-0.222072
	25.685000	-0.393086
	25.690000	-0.208917
	25.695000	-0.041192
	25.700000	-0.225361
	25.705000	-0.383220
	25.710000	-0.205628
	25.715000	-0.037904
	25.720000	-0.222072
	25.725000	-0.379931
	25.730000	-0.199051
	25.735000	-0.037904
	25.740000	-0.218783
	25.745000	-0.379931
	25.750000	-0.195762
	25.755000	-0.034615
	25.760000	-0.218783
	25.765000	-0.383220
	25.770000	-0.195762
	25.775000	-0.037904
	25.780000	-0.225361
	25.785000	-0.386508
	25.790000	-0.205628
	25.795000	-0.041192
	25.800000	-0.225361
	25.805000	-0.393086
	25.810000	-0.208917
	25.815000	-0.047770
	25.820000	-0.238516
	25.825000	-0.396374
	25.830000	-0.215495
	25.835000	-0.057636
	25.840000	-0.235227
	25.845000	-0.402952
	25.850000	-0.215495
	25.855000	-0.057636
	25.860000	-0.238516
	25.865000	-0.402952
	25.870000	-0.208917
	25.875000	-0.051059
	25.880000	-0.235227
	25.885000	-0.393086
	25.890000	-0.202340
	25.895000	-0.041192
	25.900000	-0.231938
	25.905000	-0.386508
	25.910000	-0.199051
	25.915000	-0.037904
	25.920000	-0.222072
	25.925000	-0.383220
	25.930000	-0.189185
	25.935000	-0.034615
	25.940000	-0.218783
	25.945000	-0.376642
	25.950000	-0.192474
	25.955000	-0.034615
	25.960000	-0.222072
	25.965000	-0.379931
	25.970000	-0.192474
	25.975000	-0.037904
	25.980000	-0.228650
	25.985000	-0.379931
	25.990000	-0.199051
	25.995000	-0.047770
	26.000000	-0.235227
	26.005000	-0.393086
	26.010000	-0.205628
	26.015000	-0.054347
	26.020000	-0.238516
	26.025000	-0.396374
	26.030000	-0.208917
	26.035000	-0.051059
	26.040000	-0.238516
	26.045000	-0.393086
	26.050000	-0.205628
	26.055000	-0.044481
	26.060000	-0.235227
	26.065000	-0.389797
	26.070000	-0.199051
	26.075000	-0.041192
	26.080000	-0.228650
	26.085000	-0.379931
	26.090000	-0.189185
	26.095000	-0.034615
	26.100000	-0.225361
	26.105000	-0.376642
	26.110000	-0.185896
	26.115000	-0.034615
	26.120000	-0.225361
	26.125000	-0.383220
	26.130000	-0.192474
	26.135000	-0.041192
	26.140000	-0.231938
	26.145000	-0.386508
	26.150000	-0.199051
	26.155000	-0.044481
	26.160000	-0.238516
	26.165000	-0.393086
	26.170000	-0.199051
	26.175000	-0.054347
	26.180000	-0.241804
	26.185000	-0.393086
	26.190000	-0.202340
	26.195000	-0.054347
	26.200000	-0.241804
	26.205000	-0.393086
	26.210000	-0.199051
	26.215000	-0.047770
	26.220000	-0.241804
	26.225000	-0.389797
	26.230000	-0.199051
	26.235000	-0.051059
	26.240000	-0.238516
	26.245000	-0.393086
	26.250000	-0.195762
	26.255000	-0.051059
	26.260000	-0.238516
	26.265000	-0.393086
	26.270000	-0.199051
	26.275000	-0.047770
	26.280000	-0.245093
	26.285000	-0.389797
	26.290000	-0.199051
	26.295000	-0.047770
	26.300000	-0.241804
	26.305000	-0.393086
	26.310000	-0.192474
	26.315000	-0.047770
	26.320000	-0.245093
	26.325000	-0.389797
	26.330000	-0.195762
	26.335000	-0.047770
	26.340000	-0.241804
	26.345000	-0.389797
	26.350000	-0.195762
	26.355000	-0.044481
	26.360000	-0.238516
	26.365000	-0.386508
	26.370000	-0.189185
	26.375000	-0.041192
	26.380000	-0.238516
	26.385000	-0.386508
	26.390000	-0.192474
	26.395000	-0.044481
	26.400000	-0.241804
	26.405000	-0.383220
	26.410000	-0.195762
	26.415000	-0.047770
	26.420000	-0.245093
	26.425000	-0.389797
	26.430000	-0.189185
	26.435000	-0.047770
	26.440000	-0.248382
	26.445000	-0.389797
	26.450000	-0.199051
	26.455000	-0.051059
	26.460000	-0.245093
	26.465000	-0.389797
	26.470000	-0.189185
	26.475000	-0.047770
	26.480000	-0.248382
	26.485000	-0.389797
	26.490000	-0.192474
	26.495000	-0.054347
	26.500000	-0.248382
	26.505000	-0.396374
	26.510000	-0.192474
	26.515000	-0.051059
	26.520000	-0.248382
	26.525000	-0.389797
	26.530000	-0.195762
	26.535000	-0.047770
	26.540000	-0.245093
	26.545000	-0.396374
	26.550000	-0.192474
	26.555000	-0.047770
	26.560000	-0.251671
	26.565000	-0.396374
	26.570000	-0.192474
	26.575000	-0.051059
	26.580000	-0.251671
	26.585000	-0.393086
	26.590000	-0.195762
	26.595000	-0.047770
	26.600000	-0.251671
	26.605000	-0.393086
	26.610000	-0.192474
	26.615000	-0.054347
	26.620000	-0.248382
	26.625000	-0.396374
	26.630000	-0.192474
	26.635000	-0.051059
	26.640000	-0.251671
	26.645000	-0.393086
	26.650000	-0.189185
	26.655000	-0.047770
	26.660000	-0.251671
	26.665000	-0.393086
	26.670000	-0.189185
	26.675000	-0.051059
	26.680000	-0.248382
	26.685000	-0.383220
	26.690000	-0.189185
	26.695000	-0.051059
	26.700000	-0.248382
	26.705000	-0.389797
	26.710000	-0.182607
	26.715000	-0.051059
	26.720000	-0.251671
	26.725000	-0.393086
	26.730000	-0.189185
	26.735000	-0.047770
	26.740000	-0.251671
	26.745000	-0.389797
	26.750000	-0.192474
	26.755000	-0.054347
	26.760000	-0.251671
	26.765000	-0.393086
	26.770000	-0.192474
	26.775000	-0.051059
	26.780000	-0.254959
	26.785000	-0.393086
	26.790000	-0.185896
	26.795000	-0.051059
	26.800000	-0.251671
	26.805000	-0.386508
	26.810000	-0.192474
	26.815000	-0.047770
	26.820000	-0.254959
	26.825000	-0.389797
	26.830000	-0.182607
	26.835000	-0.044481
	26.840000	-0.251671
	26.845000	-0.383220
	26.850000	-0.182607
	26.855000	-0.047770
	26.860000	-0.254959
	26.865000	-0.386508
	26.870000	-0.179319
	26.875000	-0.051059
	26.880000	-0.258248
	26.885000	-0.389797
	26.890000	-0.185896
	26.895000	-0.051059
	26.900000	-0.258248
	26.905000	-0.396374
	26.910000	-0.192474
	26.915000	-0.051059
	26.920000	-0.261537
	26.925000	-0.396374
	26.930000	-0.189185
	26.935000	-0.054347
	26.940000	-0.258248
	26.945000	-0.396374
	26.950000	-0.189185
	26.955000	-0.054347
	26.960000	-0.261537
	26.965000	-0.389797
	26.970000	-0.185896
	26.975000	-0.057636
	26.980000	-0.258248
	26.985000	-0.396374
	26.990000	-0.185896
	26.995000	-0.054347
	27.000000	-0.261537
	27.005000	-0.393086
	27.010000	-0.185896
	27.015000	-0.057636
	27.020000	-0.264826
	27.025000	-0.396374
	27.030000	-0.189185
	27.035000	-0.054347
	27.040000	-0.264826
	27.045000	-0.393086
	27.050000	-0.189185
	27.055000	-0.060925
	27.060000	-0.264826
	27.065000	-0.393086
	27.070000	-0.189185
	27.075000	-0.057636
	27.080000	-0.268114
	27.085000	-0.399663
	27.090000	-0.185896
	27.095000	-0.057636
	27.100000	-0.268114
	27.105000	-0.393086
	27.110000	-0.182607
	27.115000	-0.057636
	27.120000	-0.264826
	27.125000	-0.389797
	27.130000	-0.179319
	27.135000	-0.057636
	27.140000	-0.268114
	27.145000	-0.393086
	27.150000	-0.179319
	27.155000	-0.057636
	27.160000	-0.264826
	27.165000	-0.389797
	27.170000	-0.182607
	27.175000	-0.054347
	27.180000	-0.254959
	27.185000	-0.386508
	27.190000	-0.179319
	27.195000	-0.054347
	27.200000	-0.258248
	27.205000	-0.386508
	27.210000	-0.179319
	27.215000	-0.060925
	27.220000	-0.261537
	27.225000	-0.389797
	27.230000	-0.182607
	27.235000	-0.060925
	27.240000	-0.268114
	27.245000	-0.396374
	27.250000	-0.189185
	27.255000	-0.064213
	27.260000	-0.271403
	27.265000	-0.399663
	27.270000	-0.189185
	27.275000	-0.064213
	27.280000	-0.274692
	27.285000	-0.396374
	27.290000	-0.192474
	27.295000	-0.067502
	27.300000	-0.277980
	27.305000	-0.393086
	27.310000	-0.189185
	27.315000	-0.067502
	27.320000	-0.271403
	27.325000	-0.396374
	27.330000	-0.185896
	27.335000	-0.067502
	27.340000	-0.274692
	27.345000	-0.396374
	27.350000	-0.185896
	27.355000	-0.060925
	27.360000	-0.271403
	27.365000	-0.393086
	27.370000	-0.179319
	27.375000	-0.060925
	27.380000	-0.274692
	27.385000	-0.396374
	27.390000	-0.182607
	27.395000	-0.064213
	27.400000	-0.274692
	27.405000	-0.396374
	27.410000	-0.179319
	27.415000	-0.064213
	27.420000	-0.274692
	27.425000	-0.393086
	27.430000	-0.182607
	27.435000	-0.064213
	27.440000	-0.274692
	27.445000	-0.396374
	27.450000	-0.185896
	27.455000	-0.060925
	27.460000	-0.277980
	27.465000	-0.399663
	27.470000	-0.182607
	27.475000	-0.070791
	27.480000	-0.284558
	27.485000	-0.399663
	27.490000	-0.189185
	27.495000	-0.067502
	27.500000	-0.287847
	27.505000	-0.402952
	27.510000	-0.185896
	27.515000	-0.067502
	27.520000	-0.284558
	27.525000	-0.399663
	27.530000	-0.182607
	27.535000	-0.064213
	27.540000	-0.277980
	27.545000	-0.393086
	27.550000	-0.172741
	27.555000	-0.054347
	27.560000	-0.271403
	27.565000	-0.386508
	27.570000	-0.169453
	27.575000	-0.054347
	27.580000	-0.268114
	27.585000	-0.383220
	27.590000	-0.162875
	27.595000	-0.051059
	27.600000	-0.268114
	27.605000	-0.376642
	27.610000	-0.166164
	27.615000	-0.051059
	27.620000	-0.268114
	27.625000	-0.383220
	27.630000	-0.166164
	27.635000	-0.054347
	27.640000	-0.277980
	27.645000	-0.389797
	27.650000	-0.169453
	27.655000	-0.060925
	27.660000	-0.281269
	27.665000	-0.396374
	27.670000	-0.176030
	27.675000	-0.067502
	27.680000	-0.287847
	27.685000	-0.402952
	27.690000	-0.182607
	27.695000	-0.070791
	27.700000	-0.291135
	27.705000	-0.406241
	27.710000	-0.182607
	27.715000	-0.074080
	27.720000	-0.287847
	27.725000	-0.399663
	27.730000	-0.185896
	27.735000	-0.067502
	27.740000	-0.287847
	27.745000	-0.399663
	27.750000	-0.182607
	27.755000	-0.064213
	27.760000	-0.284558
	27.765000	-0.393086
	27.770000	-0.172741
	27.775000	-0.064213
	27.780000	-0.281269
	27.785000	-0.396374
	27.790000	-0.169453
	27.795000	-0.064213
	27.800000	-0.284558
	27.805000	-0.389797
	27.810000	-0.169453
	27.815000	-0.064213
	27.820000	-0.277980
	27.825000	-0.389797
	27.830000	-0.172741
	27.835000	-0.067502
	27.840000	-0.287847
	27.845000	-0.393086
	27.850000	-0.179319
	27.855000	-0.070791
	27.860000	-0.287847
	27.865000	-0.396374
	27.870000	-0.172741
	27.875000	-0.067502
	27.880000	-0.287847
	27.885000	-0.399663
	27.890000	-0.176030
	27.895000	-0.070791
	27.900000	-0.287847
	27.905000	-0.399663
	27.910000	-0.176030
	27.915000	-0.074080
	27.920000	-0.287847
	27.925000	-0.396374
	27.930000	-0.172741
	27.935000	-0.067502
	27.940000	-0.287847
	27.945000	-0.393086
	27.950000	-0.172741
	27.955000	-0.064213
	27.960000	-0.287847
	27.965000	-0.389797
	27.970000	-0.169453
	27.975000	-0.064213
	27.980000	-0.287847
	27.985000	-0.389797
	27.990000	-0.169453
	27.995000	-0.064213
	28.000000	-0.284558
	28.005000	-0.389797
	28.010000	-0.169453
	28.015000	-0.067502
	28.020000	-0.284558
	28.025000	-0.393086
	28.030000	-0.169453
	28.035000	-0.060925
	28.040000	-0.291135
	28.045000	-0.393086
	28.050000	-0.169453
	28.055000	-0.070791
	28.060000	-0.291135
	28.065000	-0.396374
	28.070000	-0.172741
	28.075000	-0.070791
	28.080000	-0.291135
	28.085000	-0.399663
	28.090000	-0.172741
	28.095000	-0.070791
	28.100000	-0.294424
	28.105000	-0.393086
	28.110000	-0.176030
	28.115000	-0.067502
	28.120000	-0.297713
	28.125000	-0.389797
	28.130000	-0.172741
	28.135000	-0.074080
	28.140000	-0.297713
	28.145000	-0.399663
	28.150000	-0.172741
	28.155000	-0.074080
	28.160000	-0.297713
	28.165000	-0.396374
	28.170000	-0.166164
	28.175000	-0.077368
	28.180000	-0.297713
	28.185000	-0.393086
	28.190000	-0.172741
	28.195000	-0.070791
	28.200000	-0.297713
	28.205000	-0.393086
	28.210000	-0.169453
	28.215000	-0.074080
	28.220000	-0.297713
	28.225000	-0.396374
	28.230000	-0.166164
	28.235000	-0.067502
	28.240000	-0.294424
	28.245000	-0.386508
	28.250000	-0.162875
	28.255000	-0.060925
	28.260000	-0.291135
	28.265000	-0.389797
	28.270000	-0.162875
	28.275000	-0.067502
	28.280000	-0.294424
	28.285000	-0.389797
	28.290000	-0.169453
	28.295000	-0.067502
	28.300000	-0.297713
	28.305000	-0.393086
	28.310000	-0.166164
	28.315000	-0.074080
	28.320000	-0.297713
	28.325000	-0.393086
	28.330000	-0.166164
	28.335000	-0.074080
	28.340000	-0.297713
	28.345000	-0.393086
	28.350000	-0.166164
	28.355000	-0.070791
	28.360000	-0.297713
	28.365000	-0.393086
	28.370000	-0.166164
	28.375000	-0.070791
	28.380000	-0.294424
	28.385000	-0.393086
	28.390000	-0.166164
	28.395000	-0.070791
	28.400000	-0.301001
	28.405000	-0.393086
	28.410000	-0.166164
	28.415000	-0.074080
	28.420000	-0.301001
	28.425000	-0.396374
	28.430000	-0.169453
	28.435000	-0.074080
	28.440000	-0.301001
	28.445000	-0.393086
	28.450000	-0.166164
	28.455000	-0.077368
	28.460000	-0.304290
	28.465000	-0.393086
	28.470000	-0.166164
	28.475000	-0.070791
	28.480000	-0.304290
	28.485000	-0.396374
	28.490000	-0.166164
	28.495000	-0.074080
	28.500000	-0.304290
	28.505000	-0.393086
	28.510000	-0.162875
	28.515000	-0.074080
	28.520000	-0.304290
	28.525000	-0.393086
	28.530000	-0.169453
	28.535000	-0.080657
	28.540000	-0.307579
	28.545000	-0.393086
	28.550000	-0.166164
	28.555000	-0.077368
	28.560000	-0.301001
	28.565000	-0.393086
	28.570000	-0.162875
	28.575000	-0.074080
	28.580000	-0.304290
	28.585000	-0.393086
	28.590000	-0.162875
	28.595000	-0.074080
	28.600000	-0.307579
	28.605000	-0.386508
	28.610000	-0.162875
	28.615000	-0.077368
	28.620000	-0.307579
	28.625000	-0.389797
	28.630000	-0.159586
	28.635000	-0.074080
	28.640000	-0.304290
	28.645000	-0.393086
	28.650000	-0.162875
	28.655000	-0.077368
	28.660000	-0.307579
	28.665000	-0.386508
	28.670000	-0.159586
	28.675000	-0.077368
	28.680000	-0.307579
	28.685000	-0.393086
	28.690000	-0.159586
	28.695000	-0.077368
	28.700000	-0.307579
	28.705000	-0.389797
	28.710000	-0.162875
	28.715000	-0.077368
	28.720000	-0.307579
	28.725000	-0.393086
	28.730000	-0.162875
	28.735000	-0.080657
	28.740000	-0.310868
	28.745000	-0.389797
	28.750000	-0.159586
	28.755000	-0.077368
	28.760000	-0.310868
	28.765000	-0.389797
	28.770000	-0.166164
	28.775000	-0.083946
	28.780000	-0.310868
	28.785000	-0.396374
	28.790000	-0.162875
	28.795000	-0.077368
	28.800000	-0.314156
	28.805000	-0.396374
	28.810000	-0.166164
	28.815000	-0.083946
	28.820000	-0.314156
	28.825000	-0.393086
	28.830000	-0.162875
	28.835000	-0.080657
	28.840000	-0.310868
	28.845000	-0.396374
	28.850000	-0.166164
	28.855000	-0.083946
	28.860000	-0.310868
	28.865000	-0.393086
	28.870000	-0.162875
	28.875000	-0.080657
	28.880000	-0.314156
	28.885000	-0.389797
	28.890000	-0.162875
	28.895000	-0.083946
	28.900000	-0.314156
	28.905000	-0.396374
	28.910000	-0.162875
	28.915000	-0.080657
	28.920000	-0.314156
	28.925000	-0.393086
	28.930000	-0.159586
	28.935000	-0.087234
	28.940000	-0.314156
	28.945000	-0.396374
	28.950000	-0.169453
	28.955000	-0.090523
	28.960000	-0.317445
	28.965000	-0.393086
	28.970000	-0.166164
	28.975000	-0.093812
	28.980000	-0.317445
	28.985000	-0.396374
	28.990000	-0.169453
	28.995000	-0.087234
	29.000000	-0.327311
	29.005000	-0.396374
	29.010000	-0.166164
	29.015000	-0.090523
	29.020000	-0.324023
	29.025000	-0.389797
	29.030000	-0.159586
	29.035000	-0.083946
	29.040000	-0.320734
	29.045000	-0.396374
	29.050000	-0.156298
	29.055000	-0.087234
	29.060000	-0.317445
	29.065000	-0.389797
	29.070000	-0.156298
	29.075000	-0.077368
	29.080000	-0.310868
	29.085000	-0.386508
	29.090000	-0.153009
	29.095000	-0.080657
	29.100000	-0.314156
	29.105000	-0.386508
	29.110000	-0.156298
	29.115000	-0.083946
	29.120000	-0.317445
	29.125000	-0.389797
	29.130000	-0.159586
	29.135000	-0.090523
	29.140000	-0.320734
	29.145000	-0.402952
	29.150000	-0.169453
	29.155000	-0.097101
	29.160000	-0.330600
	29.165000	-0.402952
	29.170000	-0.169453
	29.175000	-0.100389
	29.180000	-0.337177
	29.185000	-0.406241
	29.190000	-0.172741
	29.195000	-0.093812
	29.200000	-0.350332
	29.205000	-0.409529
	29.210000	-0.149720
	29.215000	-0.090523
	29.220000	-0.340466
	29.225000	-0.396374
	29.230000	-0.146431
	29.235000	-0.083946
	29.240000	-0.333889
	29.245000	-0.393086
	29.250000	-0.139854
	29.255000	-0.077368
	29.260000	-0.327311
	29.265000	-0.383220
	29.270000	-0.136565
	29.275000	-0.074080
	29.280000	-0.324023
	29.285000	-0.379931
	29.290000	-0.129988
	29.295000	-0.070791
	29.300000	-0.324023
	29.305000	-0.386508
	29.310000	-0.133277
	29.315000	-0.077368
	29.320000	-0.333889
	29.325000	-0.393086
	29.330000	-0.139854
	29.335000	-0.083946
	29.340000	-0.337177
	29.345000	-0.396374
	29.350000	-0.146431
	29.355000	-0.093812
	29.360000	-0.347044
	29.365000	-0.402952
	29.370000	-0.156298
	29.375000	-0.093812
	29.380000	-0.350332
	29.385000	-0.402952
	29.390000	-0.153009
	29.395000	-0.093812
	29.400000	-0.350332
	29.405000	-0.402952
	29.410000	-0.153009
	29.415000	-0.097101
	29.420000	-0.350332
	29.425000	-0.399663
	29.430000	-0.146431
	29.435000	-0.093812
	29.440000	-0.340466
	29.445000	-0.402952
	29.450000	-0.146431
	29.455000	-0.090523
	29.460000	-0.343755
	29.465000	-0.393086
	29.470000	-0.143143
	29.475000	-0.083946
	29.480000	-0.333889
	29.485000	-0.393086
	29.490000	-0.136565
	29.495000	-0.083946
	29.500000	-0.337177
	29.505000	-0.393086
	29.510000	-0.143143
	29.515000	-0.087234
	29.520000	-0.337177
	29.525000	-0.396374
	29.530000	-0.146431
	29.535000	-0.090523
	29.540000	-0.340466
	29.545000	-0.399663
	29.550000	-0.153009
	29.555000	-0.100389
	29.560000	-0.347044
	29.565000	-0.396374
	29.570000	-0.153009
	29.575000	-0.100389
	29.580000	-0.353621
	29.585000	-0.409529
	29.590000	-0.169453
	29.595000	-0.110256
	29.600000	-0.337177
	29.605000	-0.402952
	29.610000	-0.162875
	29.615000	-0.103678
	29.620000	-0.333889
	29.625000	-0.393086
	29.630000	-0.159586
	29.635000	-0.100389
	29.640000	-0.330600
	29.645000	-0.389797
	29.650000	-0.156298
	29.655000	-0.093812
	29.660000	-0.327311
	29.665000	-0.386508
	29.670000	-0.153009
	29.675000	-0.093812
	29.680000	-0.327311
	29.685000	-0.383220
	29.690000	-0.146431
	29.695000	-0.087234
	29.700000	-0.324023
	29.705000	-0.379931
	29.710000	-0.149720
	29.715000	-0.090523
	29.720000	-0.327311
	29.725000	-0.383220
	29.730000	-0.146431
	29.735000	-0.093812
	29.740000	-0.327311
	29.745000	-0.383220
	29.750000	-0.153009
	29.755000	-0.100389
	29.760000	-0.327311
	29.765000	-0.383220
	29.770000	-0.156298
	29.775000	-0.100389
	29.780000	-0.330600
	29.785000	-0.389797
	29.790000	-0.156298
	29.795000	-0.103678
	29.800000	-0.333889
	29.805000	-0.393086
	29.810000	-0.156298
	29.815000	-0.103678
	29.820000	-0.343755
	29.825000	-0.389797
	29.830000	-0.156298
	29.835000	-0.103678
	29.840000	-0.333889
	29.845000	-0.389797
	29.850000	-0.156298
	29.855000	-0.110256
	29.860000	-0.337177
	29.865000	-0.386508
	29.870000	-0.159586
	29.875000	-0.100389
	29.880000	-0.337177
	29.885000	-0.389797
	29.890000	-0.156298
	29.895000	-0.103678
	29.900000	-0.337177
	29.905000	-0.383220
	29.910000	-0.153009
	29.915000	-0.100389
	29.920000	-0.337177
	29.925000	-0.386508
	29.930000	-0.149720
	29.935000	-0.100389
	29.940000	-0.330600
	29.945000	-0.383220
	29.950000	-0.153009
	29.955000	-0.103678
	29.960000	-0.337177
	29.965000	-0.386508
	29.970000	-0.149720
	29.975000	-0.103678
	29.980000	-0.333889
	29.985000	-0.379931
	29.990000	-0.149720
	29.995000	-0.103678
	30.000000	-0.337177
	30.005000	-0.386508
	30.010000	-0.149720
	30.015000	-0.103678
	30.020000	-0.337177
	30.025000	-0.389797
	30.030000	-0.153009
	30.035000	-0.097101
	30.040000	-0.340466
	30.045000	-0.386508
	30.050000	-0.146431
	30.055000	-0.100389
	30.060000	-0.337177
	30.065000	-0.386508
	30.070000	-0.149720
	30.075000	-0.103678
	30.080000	-0.333889
	30.085000	-0.379931
	30.090000	-0.149720
	30.095000	-0.103678
	30.100000	-0.340466
	30.105000	-0.379931
	30.110000	-0.146431
	30.115000	-0.100389
	30.120000	-0.333889
	30.125000	-0.379931
	30.130000	-0.143143
	30.135000	-0.106967
	30.140000	-0.330600
	30.145000	-0.379931
	30.150000	-0.146431
	30.155000	-0.103678
	30.160000	-0.333889
	30.165000	-0.379931
	30.170000	-0.149720
	30.175000	-0.103678
	30.180000	-0.337177
	30.185000	-0.379931
	30.190000	-0.149720
	30.195000	-0.100389
	30.200000	-0.337177
	30.205000	-0.379931
	30.210000	-0.146431
	30.215000	-0.106967
	30.220000	-0.340466
	30.225000	-0.379931
	30.230000	-0.153009
	30.235000	-0.113544
	30.240000	-0.337177
	30.245000	-0.386508
	30.250000	-0.149720
	30.255000	-0.106967
	30.260000	-0.340466
	30.265000	-0.386508
	30.270000	-0.153009
	30.275000	-0.110256
	30.280000	-0.343755
	30.285000	-0.383220
	30.290000	-0.153009
	30.295000	-0.110256
	30.300000	-0.343755
	30.305000	-0.386508
	30.310000	-0.153009
	30.315000	-0.110256
	30.320000	-0.343755
	30.325000	-0.383220
	30.330000	-0.153009
	30.335000	-0.110256
	30.340000	-0.340466
	30.345000	-0.386508
	30.350000	-0.143143
	30.355000	-0.106967
	30.360000	-0.343755
	30.365000	-0.379931
	30.370000	-0.149720
	30.375000	-0.106967
	30.380000	-0.340466
	30.385000	-0.376642
	30.390000	-0.146431
	30.395000	-0.103678
	30.400000	-0.337177
	30.405000	-0.376642
	30.410000	-0.143143
	30.415000	-0.103678
	30.420000	-0.337177
	30.425000	-0.373353
	30.430000	-0.143143
	30.435000	-0.106967
	30.440000	-0.343755
	30.445000	-0.373353
	30.450000	-0.146431
	30.455000	-0.110256
	30.460000	-0.340466
	30.465000	-0.379931
	30.470000	-0.143143
	30.475000	-0.106967
	30.480000	-0.343755
	30.485000	-0.383220
	30.490000	-0.146431
	30.495000	-0.113544
	30.500000	-0.343755
	30.505000	-0.379931
	30.510000	-0.146431
	30.515000	-0.106967
	30.520000	-0.343755
	30.525000	-0.376642
	30.530000	-0.146431
	30.535000	-0.110256
	30.540000	-0.340466
	30.545000	-0.379931
	30.550000	-0.146431
	30.555000	-0.113544
	30.560000	-0.350332
	30.565000	-0.379931
	30.570000	-0.149720
	30.575000	-0.116833
	30.580000	-0.350332
	30.585000	-0.383220
	30.590000	-0.149720
	30.595000	-0.116833
	30.600000	-0.356910
	30.605000	-0.379931
	30.610000	-0.129988
	30.615000	-0.110256
	30.620000	-0.366776
	30.625000	-0.386508
	30.630000	-0.133277
	30.635000	-0.100389
	30.640000	-0.310868
	30.645000	-0.350332
	30.650000	-0.212206
	30.655000	-0.199051
	30.660000	-0.333889
	30.665000	-0.333889
	30.670000	-0.179319
	30.675000	-0.166164
	30.680000	-0.301001
	30.685000	-0.297713
	30.690000	-0.146431
	30.695000	-0.139854
	30.700000	-0.277980
	30.705000	-0.281269
	30.710000	-0.136565
	30.715000	-0.126699
	30.720000	-0.274692
	30.725000	-0.274692
	30.730000	-0.129988
	30.735000	-0.116833
	30.740000	-0.261537
	30.745000	-0.271403
	30.750000	-0.126699
	30.755000	-0.116833
	30.760000	-0.264826
	30.765000	-0.264826
	30.770000	-0.123410
	30.775000	-0.116833
	30.780000	-0.261537
	30.785000	-0.268114
	30.790000	-0.120122
	30.795000	-0.120122
	30.800000	-0.261537
	30.805000	-0.268114
	30.810000	-0.123410
	30.815000	-0.120122
	30.820000	-0.264826
	30.825000	-0.268114
	30.830000	-0.126699
	30.835000	-0.116833
	30.840000	-0.261537
	30.845000	-0.268114
	30.850000	-0.123410
	30.855000	-0.113544
	30.860000	-0.261537
	30.865000	-0.264826
	30.870000	-0.120122
	30.875000	-0.110256
	30.880000	-0.258248
	30.885000	-0.245093
	30.890000	-0.034615
	30.895000	-0.031326
	30.900000	-0.297713
	30.905000	-0.330600
	30.910000	-0.097101
	30.915000	-0.080657
	30.920000	-0.320734
	30.925000	-0.350332
	30.930000	-0.116833
	30.935000	-0.093812
	30.940000	-0.340466
	30.945000	-0.360198
	30.950000	-0.126699
	30.955000	-0.103678
	30.960000	-0.353621
	30.965000	-0.370065
	30.970000	-0.133277
	30.975000	-0.116833
	30.980000	-0.360198
	30.985000	-0.373353
	30.990000	-0.139854
	30.995000	-0.120122
	31.000000	-0.363487
	31.005000	-0.379931
	31.010000	-0.143143
	31.015000	-0.120122
	31.020000	-0.366776
	31.025000	-0.376642
	31.030000	-0.139854
	31.035000	-0.116833
	31.040000	-0.356910
	31.045000	-0.373353
	31.050000	-0.133277
	31.055000	-0.113544
	31.060000	-0.350332
	31.065000	-0.366776
	31.070000	-0.129988
	31.075000	-0.110256
	31.080000	-0.350332
	31.085000	-0.360198
	31.090000	-0.123410
	31.095000	-0.103678
	31.100000	-0.343755
	31.105000	-0.360198
	31.110000	-0.123410
	31.115000	-0.103678
	31.120000	-0.343755
	31.125000	-0.363487
	31.130000	-0.126699
	31.135000	-0.110256
	31.140000	-0.350332
	31.145000	-0.370065
	31.150000	-0.136565
	31.155000	-0.116833
	31.160000	-0.363487
	31.165000	-0.376642
	31.170000	-0.136565
	31.175000	-0.123410
	31.180000	-0.370065
	31.185000	-0.376642
	31.190000	-0.139854
	31.195000	-0.126699
	31.200000	-0.363487
	31.205000	-0.373353
	31.210000	-0.133277
	31.215000	-0.123410
	31.220000	-0.356910
	31.225000	-0.373353
	31.230000	-0.133277
	31.235000	-0.113544
	31.240000	-0.353621
	31.245000	-0.366776
	31.250000	-0.129988
	31.255000	-0.116833
	31.260000	-0.350332
	31.265000	-0.363487
	31.270000	-0.126699
	31.275000	-0.113544
	31.280000	-0.353621
	31.285000	-0.366776
	31.290000	-0.126699
	31.295000	-0.113544
	31.300000	-0.360198
	31.305000	-0.370065
	31.310000	-0.126699
	31.315000	-0.116833
	31.320000	-0.360198
	31.325000	-0.373353
	31.330000	-0.129988
	31.335000	-0.123410
	31.340000	-0.363487
	31.345000	-0.373353
	31.350000	-0.136565
	31.355000	-0.126699
	31.360000	-0.370065
	31.365000	-0.373353
	31.370000	-0.133277
	31.375000	-0.123410
	31.380000	-0.363487
	31.385000	-0.370065
	31.390000	-0.133277
	31.395000	-0.126699
	31.400000	-0.366776
	31.405000	-0.370065
	31.410000	-0.133277
	31.415000	-0.123410
	31.420000	-0.363487
	31.425000	-0.373353
	31.430000	-0.126699
	31.435000	-0.123410
	31.440000	-0.366776
	31.445000	-0.373353
	31.450000	-0.126699
	31.455000	-0.120122
	31.460000	-0.366776
	31.465000	-0.366776
	31.470000	-0.126699
	31.475000	-0.123410
	31.480000	-0.366776
	31.485000	-0.373353
	31.490000	-0.126699
	31.495000	-0.126699
	31.500000	-0.363487
	31.505000	-0.370065
	31.510000	-0.126699
	31.515000	-0.126699
	31.520000	-0.366776
	31.525000	-0.366776
	31.530000	-0.123410
	31.535000	-0.123410
	31.540000	-0.366776
	31.545000	-0.366776
	31.550000	-0.126699
	31.555000	-0.123410
	31.560000	-0.370065
	31.565000	-0.366776
	31.570000	-0.129988
	31.575000	-0.120122
	31.580000	-0.366776
	31.585000	-0.366776
	31.590000	-0.123410
	31.595000	-0.126699
	31.600000	-0.366776
	31.605000	-0.366776
	31.610000	-0.129988
	31.615000	-0.126699
	31.620000	-0.366776
	31.625000	-0.366776
	31.630000	-0.123410
	31.635000	-0.123410
	31.640000	-0.370065
	31.645000	-0.366776
	31.650000	-0.129988
	31.655000	-0.129988
	31.660000	-0.370065
	31.665000	-0.366776
	31.670000	-0.126699
	31.675000	-0.133277
	31.680000	-0.373353
	31.685000	-0.373353
	31.690000	-0.133277
	31.695000	-0.133277
	31.700000	-0.376642
	31.705000	-0.373353
	31.710000	-0.126699
	31.715000	-0.133277
	31.720000	-0.376642
	31.725000	-0.373353
	31.730000	-0.133277
	31.735000	-0.136565
	31.740000	-0.373353
	31.745000	-0.370065
	31.750000	-0.133277
	31.755000	-0.136565
	31.760000	-0.373353
	31.765000	-0.370065
	31.770000	-0.129988
	31.775000	-0.133277
	31.780000	-0.373353
	31.785000	-0.363487
	31.790000	-0.126699
	31.795000	-0.129988
	31.800000	-0.370065
	31.805000	-0.366776
	31.810000	-0.123410
	31.815000	-0.133277
	31.820000	-0.376642
	31.825000	-0.363487
	31.830000	-0.123410
	31.835000	-0.129988
	31.840000	-0.373353
	31.845000	-0.363487
	31.850000	-0.123410
	31.855000	-0.133277
	31.860000	-0.370065
	31.865000	-0.363487
	31.870000	-0.126699
	31.875000	-0.133277
	31.880000	-0.376642
	31.885000	-0.366776
	31.890000	-0.123410
	31.895000	-0.136565
	31.900000	-0.373353
	31.905000	-0.370065
	31.910000	-0.126699
	31.915000	-0.136565
	31.920000	-0.379931
	31.925000	-0.370065
	31.930000	-0.129988
	31.935000	-0.133277
	31.940000	-0.379931
	31.945000	-0.366776
	31.950000	-0.126699
	31.955000	-0.133277
	31.960000	-0.376642
	31.965000	-0.370065
	31.970000	-0.123410
	31.975000	-0.129988
	31.980000	-0.373353
	31.985000	-0.366776
	31.990000	-0.126699
	31.995000	-0.133277
	32.000000	-0.379931
	32.005000	-0.363487
	32.010000	-0.123410
	32.015000	-0.139854
	32.020000	-0.383220
	32.025000	-0.366776
	32.030000	-0.126699
	32.035000	-0.139854
	32.040000	-0.383220
	32.045000	-0.366776
	32.050000	-0.123410
	32.055000	-0.143143
	32.060000	-0.379931
	32.065000	-0.366776
	32.070000	-0.129988
	32.075000	-0.143143
	32.080000	-0.383220
	32.085000	-0.363487
	32.090000	-0.129988
	32.095000	-0.139854
	32.100000	-0.379931
	32.105000	-0.366776
	32.110000	-0.126699
	32.115000	-0.139854
	32.120000	-0.379931
	32.125000	-0.366776
	32.130000	-0.126699
	32.135000	-0.136565
	32.140000	-0.379931
	32.145000	-0.363487
	32.150000	-0.123410
	32.155000	-0.136565
	32.160000	-0.383220
	32.165000	-0.366776
	32.170000	-0.126699
	32.175000	-0.139854
	32.180000	-0.379931
	32.185000	-0.366776
	32.190000	-0.120122
	32.195000	-0.139854
	32.200000	-0.383220
	32.205000	-0.363487
	32.210000	-0.123410
	32.215000	-0.139854
	32.220000	-0.383220
	32.225000	-0.363487
	32.230000	-0.126699
	32.235000	-0.139854
	32.240000	-0.379931
	32.245000	-0.363487
	32.250000	-0.123410
	32.255000	-0.146431
	32.260000	-0.383220
	32.265000	-0.363487
	32.270000	-0.120122
	32.275000	-0.143143
	32.280000	-0.383220
	32.285000	-0.360198
	32.290000	-0.123410
	32.295000	-0.139854
	32.300000	-0.383220
	32.305000	-0.360198
	32.310000	-0.120122
	32.315000	-0.146431
	32.320000	-0.383220
	32.325000	-0.363487
	32.330000	-0.126699
	32.335000	-0.143143
	32.340000	-0.386508
	32.345000	-0.360198
	32.350000	-0.120122
	32.355000	-0.146431
	32.360000	-0.386508
	32.365000	-0.360198
	32.370000	-0.126699
	32.375000	-0.143143
	32.380000	-0.386508
	32.385000	-0.363487
	32.390000	-0.126699
	32.395000	-0.143143
	32.400000	-0.389797
	32.405000	-0.366776
	32.410000	-0.126699
	32.415000	-0.146431
	32.420000	-0.389797
	32.425000	-0.363487
	32.430000	-0.126699
	32.435000	-0.146431
	32.440000	-0.389797
	32.445000	-0.363487
	32.450000	-0.126699
	32.455000	-0.149720
	32.460000	-0.389797
	32.465000	-0.363487
	32.470000	-0.126699
	32.475000	-0.153009
	32.480000	-0.389797
	32.485000	-0.366776
	32.490000	-0.126699
	32.495000	-0.146431
	32.500000	-0.389797
	32.505000	-0.363487
	32.510000	-0.123410
	32.515000	-0.153009
	32.520000	-0.389797
	32.525000	-0.363487
	32.530000	-0.126699
	32.535000	-0.149720
	32.540000	-0.393086
	32.545000	-0.360198
	32.550000	-0.120122
	32.555000	-0.149720
	32.560000	-0.389797
	32.565000	-0.356910
	32.570000	-0.120122
	32.575000	-0.149720
	32.580000	-0.389797
	32.585000	-0.363487
	32.590000	-0.120122
	32.595000	-0.149720
	32.600000	-0.389797
	32.605000	-0.360198
	32.610000	-0.123410
	32.615000	-0.149720
	32.620000	-0.396374
	32.625000	-0.360198
	32.630000	-0.120122
	32.635000	-0.153009
	32.640000	-0.396374
	32.645000	-0.360198
	32.650000	-0.116833
	32.655000	-0.149720
	32.660000	-0.393086
	32.665000	-0.356910
	32.670000	-0.120122
	32.675000	-0.149720
	32.680000	-0.386508
	32.685000	-0.360198
	32.690000	-0.129988
	32.695000	-0.156298
	32.700000	-0.383220
	32.705000	-0.356910
	32.710000	-0.126699
	32.715000	-0.153009
	32.720000	-0.383220
	32.725000	-0.356910
	32.730000	-0.133277
	32.735000	-0.153009
	32.740000	-0.386508
	32.745000	-0.356910
	32.750000	-0.126699
	32.755000	-0.159586
	32.760000	-0.386508
	32.765000	-0.356910
	32.770000	-0.126699
	32.775000	-0.156298
	32.780000	-0.389797
	32.785000	-0.360198
	32.790000	-0.133277
	32.795000	-0.162875
	32.800000	-0.396374
	32.805000	-0.366776
	32.810000	-0.136565
	32.815000	-0.162875
	32.820000	-0.356910
	32.825000	-0.340466
	32.830000	-0.172741
	32.835000	-0.189185
	32.840000	-0.376642
	32.845000	-0.337177
	32.850000	-0.113544
	32.855000	-0.153009
	32.860000	-0.389797
	32.865000	-0.356910
	32.870000	-0.123410
	32.875000	-0.159586
	32.880000	-0.396374
	32.885000	-0.356910
	32.890000	-0.120122
	32.895000	-0.156298
	32.900000	-0.396374
	32.905000	-0.356910
	32.910000	-0.116833
	32.915000	-0.159586
	32.920000	-0.399663
	32.925000	-0.353621
	32.930000	-0.120122
	32.935000	-0.159586
	32.940000	-0.399663
	32.945000	-0.356910
	32.950000	-0.113544
	32.955000	-0.162875
	32.960000	-0.402952
	32.965000	-0.366776
	32.970000	-0.123410
	32.975000	-0.169453
	32.980000	-0.406241
	32.985000	-0.366776
	32.990000	-0.123410
	32.995000	-0.172741
	33.000000	-0.416107
	33.005000	-0.363487
	33.010000	-0.126699
	33.015000	-0.172741
	33.020000	-0.409529
	33.025000	-0.363487
	33.030000	-0.120122
	33.035000	-0.166164
	33.040000	-0.402952
	33.045000	-0.356910
	33.050000	-0.113544
	33.055000	-0.156298
	33.060000	-0.399663
	33.065000	-0.340466
	33.070000	-0.106967
	33.075000	-0.149720
	33.080000	-0.396374
	33.085000	-0.340466
	33.090000	-0.100389
	33.095000	-0.146431
	33.100000	-0.393086
	33.105000	-0.343755
	33.110000	-0.100389
	33.115000	-0.153009
	33.120000	-0.393086
	33.125000	-0.337177
	33.130000	-0.103678
	33.135000	-0.156298
	33.140000	-0.399663
	33.145000	-0.350332
	33.150000	-0.116833
	33.155000	-0.166164
	33.160000	-0.409529
	33.165000	-0.360198
	33.170000	-0.120122
	33.175000	-0.172741
	33.180000	-0.419395
	33.185000	-0.363487
	33.190000	-0.126699
	33.195000	-0.176030
	33.200000	-0.419395
	33.205000	-0.370065
	33.210000	-0.129988
	33.215000	-0.179319
	33.220000	-0.422684
	33.225000	-0.363487
	33.230000	-0.126699
	33.235000	-0.172741
	33.240000	-0.412818
	33.245000	-0.356910
	33.250000	-0.116833
	33.255000	-0.166164
	33.260000	-0.406241
	33.265000	-0.350332
	33.270000	-0.110256
	33.275000	-0.162875
	33.280000	-0.399663
	33.285000	-0.343755
	33.290000	-0.110256
	33.295000	-0.159586
	33.300000	-0.399663
	33.305000	-0.343755
	33.310000	-0.110256
	33.315000	-0.162875
	33.320000	-0.402952
	33.325000	-0.350332
	33.330000	-0.110256
	33.335000	-0.166164
	33.340000	-0.406241
	33.345000	-0.353621
	33.350000	-0.113544
	33.355000	-0.172741
	33.360000	-0.409529
	33.365000	-0.353621
	33.370000	-0.120122
	33.375000	-0.172741
	33.380000	-0.409529
	33.385000	-0.356910
	33.390000	-0.113544
	33.395000	-0.172741
	33.400000	-0.409529
	33.405000	-0.353621
	33.410000	-0.113544
	33.415000	-0.169453
	33.420000	-0.402952
	33.425000	-0.350332
	33.430000	-0.113544
	33.435000	-0.166164
	33.440000	-0.406241
	33.445000	-0.350332
	33.450000	-0.113544
	33.455000	-0.169453
	33.460000	-0.406241
	33.465000	-0.350332
	33.470000	-0.113544
	33.475000	-0.169453
	33.480000	-0.406241
	33.485000	-0.343755
	33.490000	-0.120122
	33.495000	-0.176030
	33.500000	-0.409529
	33.505000	-0.353621
	33.510000	-0.116833
	33.515000	-0.172741
	33.520000	-0.416107
	33.525000	-0.350332
	33.530000	-0.116833
	33.535000	-0.179319
	33.540000	-0.409529
	33.545000	-0.350332
	33.550000	-0.116833
	33.555000	-0.176030
	33.560000	-0.409529
	33.565000	-0.350332
	33.570000	-0.110256
	33.575000	-0.176030
	33.580000	-0.412818
	33.585000	-0.347044
	33.590000	-0.116833
	33.595000	-0.179319
	33.600000	-0.409529
	33.605000	-0.350332
	33.610000	-0.120122
	33.615000	-0.179319
	33.620000	-0.416107
	33.625000	-0.350332
	33.630000	-0.123410
	33.635000	-0.182607
	33.640000	-0.416107
	33.645000	-0.353621
	33.650000	-0.116833
	33.655000	-0.179319
	33.660000	-0.416107
	33.665000	-0.343755
	33.670000	-0.113544
	33.675000	-0.176030
	33.680000	-0.409529
	33.685000	-0.340466
	33.690000	-0.110256
	33.695000	-0.179319
	33.700000	-0.412818
	33.705000	-0.340466
	33.710000	-0.106967
	33.715000	-0.176030
	33.720000	-0.409529
	33.725000	-0.340466
	33.730000	-0.106967
	33.735000	-0.179319
	33.740000	-0.409529
	33.745000	-0.343755
	33.750000	-0.110256
	33.755000	-0.176030
	33.760000	-0.412818
	33.765000	-0.343755
	33.770000	-0.110256
	33.775000	-0.176030
	33.780000	-0.412818
	33.785000	-0.343755
	33.790000	-0.110256
	33.795000	-0.182607
	33.800000	-0.412818
	33.805000	-0.343755
	33.810000	-0.113544
	33.815000	-0.179319
	33.820000	-0.419395
	33.825000	-0.343755
	33.830000	-0.110256
	33.835000	-0.182607
	33.840000	-0.419395
	33.845000	-0.340466
	33.850000	-0.110256
	33.855000	-0.176030
	33.860000	-0.416107
	33.865000	-0.340466
	33.870000	-0.110256
	33.875000	-0.185896
	33.880000	-0.416107
	33.885000	-0.340466
	33.890000	-0.113544
	33.895000	-0.182607
	33.900000	-0.416107
	33.905000	-0.340466
	33.910000	-0.113544
	33.915000	-0.185896
	33.920000	-0.416107
	33.925000	-0.340466
	33.930000	-0.113544
	33.935000	-0.182607
	33.940000	-0.416107
	33.945000	-0.340466
	33.950000	-0.113544
	33.955000	-0.189185
	33.960000	-0.422684
	33.965000	-0.343755
	33.970000	-0.113544
	33.975000	-0.189185
	33.980000	-0.422684
	33.985000	-0.340466
	33.990000	-0.113544
	33.995000	-0.189185
	34.000000	-0.422684
	34.005000	-0.340466
	34.010000	-0.110256
	34.015000	-0.185896
	34.020000	-0.416107
	34.025000	-0.333889
	34.030000	-0.110256
	34.035000	-0.185896
	34.040000	-0.416107
	34.045000	-0.337177
	34.050000	-0.106967
	34.055000	-0.185896
	34.060000	-0.419395
	34.065000	-0.333889
	34.070000	-0.106967
	34.075000	-0.189185
	34.080000	-0.416107
	34.085000	-0.337177
	34.090000	-0.110256
	34.095000	-0.182607
	34.100000	-0.419395
	34.105000	-0.330600
	34.110000	-0.116833
	34.115000	-0.189185
	34.120000	-0.419395
	34.125000	-0.340466
	34.130000	-0.110256
	34.135000	-0.189185
	34.140000	-0.422684
	34.145000	-0.337177
	34.150000	-0.113544
	34.155000	-0.192474
	34.160000	-0.419395
	34.165000	-0.340466
	34.170000	-0.113544
	34.175000	-0.192474
	34.180000	-0.416107
	34.185000	-0.337177
	34.190000	-0.106967
	34.195000	-0.192474
	34.200000	-0.419395
	34.205000	-0.330600
	34.210000	-0.113544
	34.215000	-0.189185
	34.220000	-0.422684
	34.225000	-0.330600
	34.230000	-0.110256
	34.235000	-0.192474
	34.240000	-0.422684
	34.245000	-0.337177
	34.250000	-0.113544
	34.255000	-0.195762
	34.260000	-0.422684
	34.265000	-0.337177
	34.270000	-0.116833
	34.275000	-0.199051
	34.280000	-0.429262
	34.285000	-0.333889
	34.290000	-0.110256
	34.295000	-0.199051
	34.300000	-0.425973
	34.305000	-0.337177
	34.310000	-0.113544
	34.315000	-0.195762
	34.320000	-0.422684
	34.325000	-0.337177
	34.330000	-0.110256
	34.335000	-0.199051
	34.340000	-0.425973
	34.345000	-0.337177
	34.350000	-0.100389
	34.355000	-0.199051
	34.360000	-0.422684
	34.365000	-0.330600
	34.370000	-0.103678
	34.375000	-0.199051
	34.380000	-0.419395
	34.385000	-0.330600
	34.390000	-0.113544
	34.395000	-0.195762
	34.400000	-0.419395
	34.405000	-0.333889
	34.410000	-0.113544
	34.415000	-0.199051
	34.420000	-0.425973
	34.425000	-0.330600
	34.430000	-0.116833
	34.435000	-0.195762
	34.440000	-0.422684
	34.445000	-0.330600
	34.450000	-0.113544
	34.455000	-0.205628
	34.460000	-0.425973
	34.465000	-0.333889
	34.470000	-0.113544
	34.475000	-0.205628
	34.480000	-0.429262
	34.485000	-0.333889
	34.490000	-0.116833
	34.495000	-0.202340
	34.500000	-0.435839
	34.505000	-0.337177
	34.510000	-0.113544
	34.515000	-0.208917
	34.520000	-0.432550
	34.525000	-0.340466
	34.530000	-0.120122
	34.535000	-0.212206
	34.540000	-0.432550
	34.545000	-0.340466
	34.550000	-0.120122
	34.555000	-0.212206
	34.560000	-0.432550
	34.565000	-0.337177
	34.570000	-0.116833
	34.575000	-0.208917
	34.580000	-0.429262
	34.585000	-0.333889
	34.590000	-0.106967
	34.595000	-0.208917
	34.600000	-0.432550
	34.605000	-0.327311
	34.610000	-0.106967
	34.615000	-0.202340
	34.620000	-0.429262
	34.625000	-0.324023
	34.630000	-0.100389
	34.635000	-0.199051
	34.640000	-0.422684
	34.645000	-0.324023
	34.650000	-0.103678
	34.655000	-0.202340
	34.660000	-0.425973
	34.665000	-0.327311
	34.670000	-0.106967
	34.675000	-0.208917
	34.680000	-0.432550
	34.685000	-0.327311
	34.690000	-0.110256
	34.695000	-0.212206
	34.700000	-0.439128
	34.705000	-0.337177
	34.710000	-0.116833
	34.715000	-0.222072
	34.720000	-0.442417
	34.725000	-0.337177
	34.730000	-0.120122
	34.735000	-0.218783
	34.740000	-0.442417
	34.745000	-0.337177
	34.750000	-0.113544
	34.755000	-0.215495
	34.760000	-0.439128
	34.765000	-0.327311
	34.770000	-0.113544
	34.775000	-0.212206
	34.780000	-0.432550
	34.785000	-0.324023
	34.790000	-0.097101
	34.795000	-0.212206
	34.800000	-0.422684
	34.805000	-0.320734
	34.810000	-0.100389
	34.815000	-0.202340
	34.820000	-0.422684
	34.825000	-0.314156
	34.830000	-0.097101
	34.835000	-0.199051
	34.840000	-0.422684
	34.845000	-0.320734
	34.850000	-0.100389
	34.855000	-0.208917
	34.860000	-0.435839
	34.865000	-0.324023
	34.870000	-0.106967
	34.875000	-0.215495
	34.880000	-0.442417
	34.885000	-0.330600
	34.890000	-0.116833
	34.895000	-0.225361
	34.900000	-0.445705
	34.905000	-0.333889
	34.910000	-0.116833
	34.915000	-0.222072
	34.920000	-0.445705
	34.925000	-0.337177
	34.930000	-0.120122
	34.935000	-0.225361
	34.940000	-0.442417
	34.945000	-0.327311
	34.950000	-0.110256
	34.955000	-0.218783
	34.960000	-0.435839
	34.965000	-0.317445
	34.970000	-0.110256
	34.975000	-0.212206
	34.980000	-0.422684
	34.985000	-0.314156
	34.990000	-0.097101
	34.995000	-0.208917
	35.000000	-0.425973
	35.005000	-0.317445
	35.010000	-0.097101
	35.015000	-0.212206
	35.020000	-0.432550
	35.025000	-0.310868
	35.030000	-0.100389
	35.035000	-0.215495
	35.040000	-0.435839
	35.045000	-0.314156
	35.050000	-0.103678
	35.055000	-0.215495
	35.060000	-0.435839
	35.065000	-0.317445
	35.070000	-0.106967
	35.075000	-0.222072
	35.080000	-0.439128
	35.085000	-0.324023
	35.090000	-0.103678
	35.095000	-0.218783
	35.100000	-0.435839
	35.105000	-0.317445
	35.110000	-0.110256
	35.115000	-0.222072
	35.120000	-0.435839
	35.125000	-0.317445
	35.130000	-0.110256
	35.135000	-0.218783
	35.140000	-0.442417
	35.145000	-0.317445
	35.150000	-0.103678
	35.155000	-0.225361
	35.160000	-0.439128
	35.165000	-0.317445
	35.170000	-0.106967
	35.175000	-0.225361
	35.180000	-0.439128
	35.185000	-0.320734
	35.190000	-0.110256
	35.195000	-0.228650
	35.200000	-0.439128
	35.205000	-0.324023
	35.210000	-0.106967
	35.215000	-0.225361
	35.220000	-0.442417
	35.225000	-0.317445
	35.230000	-0.106967
	35.235000	-0.228650
	35.240000	-0.442417
	35.245000	-0.317445
	35.250000	-0.106967
	35.255000	-0.225361
	35.260000	-0.439128
	35.265000	-0.314156
	35.270000	-0.106967
	35.275000	-0.225361
	35.280000	-0.442417
	35.285000	-0.317445
	35.290000	-0.106967
	35.295000	-0.228650
	35.300000	-0.435839
	35.305000	-0.317445
	35.310000	-0.106967
	35.315000	-0.228650
	35.320000	-0.439128
	35.325000	-0.314156
	35.330000	-0.106967
	35.335000	-0.231938
	35.340000	-0.442417
	35.345000	-0.317445
	35.350000	-0.106967
	35.355000	-0.228650
	35.360000	-0.445705
	35.365000	-0.314156
	35.370000	-0.110256
	35.375000	-0.228650
	35.380000	-0.445705
	35.385000	-0.314156
	35.390000	-0.103678
	35.395000	-0.225361
	35.400000	-0.439128
	35.405000	-0.310868
	35.410000	-0.103678
	35.415000	-0.225361
	35.420000	-0.439128
	35.425000	-0.310868
	35.430000	-0.103678
	35.435000	-0.228650
	35.440000	-0.439128
	35.445000	-0.307579
	35.450000	-0.103678
	35.455000	-0.228650
	35.460000	-0.439128
	35.465000	-0.314156
	35.470000	-0.103678
	35.475000	-0.231938
	35.480000	-0.435839
	35.485000	-0.310868
	35.490000	-0.106967
	35.495000	-0.231938
	35.500000	-0.442417
	35.505000	-0.314156
	35.510000	-0.106967
	35.515000	-0.231938
	35.520000	-0.442417
	35.525000	-0.307579
	35.530000	-0.100389
	35.535000	-0.228650
	35.540000	-0.435839
	35.545000	-0.310868
	35.550000	-0.100389
	35.555000	-0.231938
	35.560000	-0.439128
	35.565000	-0.301001
	35.570000	-0.097101
	35.575000	-0.228650
	35.580000	-0.442417
	35.585000	-0.301001
	35.590000	-0.097101
	35.595000	-0.228650
	35.600000	-0.435839
	35.605000	-0.304290
	35.610000	-0.100389
	35.615000	-0.231938
	35.620000	-0.435839
	35.625000	-0.304290
	35.630000	-0.103678
	35.635000	-0.235227
	35.640000	-0.439128
	35.645000	-0.307579
	35.650000	-0.100389
	35.655000	-0.235227
	35.660000	-0.439128
	35.665000	-0.304290
	35.670000	-0.103678
	35.675000	-0.231938
	35.680000	-0.442417
	35.685000	-0.301001
	35.690000	-0.100389
	35.695000	-0.231938
	35.700000	-0.442417
	35.705000	-0.301001
	35.710000	-0.103678
	35.715000	-0.235227
	35.720000	-0.442417
	35.725000	-0.301001
	35.730000	-0.100389
	35.735000	-0.235227
	35.740000	-0.435839
	35.745000	-0.301001
	35.750000	-0.103678
	35.755000	-0.238516
	35.760000	-0.439128
	35.765000	-0.304290
	35.770000	-0.103678
	35.775000	-0.245093
	35.780000	-0.442417
	35.785000	-0.304290
	35.790000	-0.103678
	35.795000	-0.241804
	35.800000	-0.445705
	35.805000	-0.304290
	35.810000	-0.100389
	35.815000	-0.245093
	35.820000	-0.445705
	35.825000	-0.301001
	35.830000	-0.103678
	35.835000	-0.238516
	35.840000	-0.445705
	35.845000	-0.301001
	35.850000	-0.100389
	35.855000	-0.245093
	35.860000	-0.445705
	35.865000	-0.301001
	35.870000	-0.100389
	35.875000	-0.238516
	35.880000	-0.445705
	35.885000	-0.297713
	35.890000	-0.097101
	35.895000	-0.241804
	35.900000	-0.442417
	35.905000	-0.294424
	35.910000	-0.097101
	35.915000	-0.245093
	35.920000	-0.435839
	35.925000	-0.301001
	35.930000	-0.100389
	35.935000	-0.241804
	35.940000	-0.445705
	35.945000	-0.294424
	35.950000	-0.093812
	35.955000	-0.245093
	35.960000	-0.442417
	35.965000	-0.294424
	35.970000	-0.103678
	35.975000	-0.241804
	35.980000	-0.442417
	35.985000	-0.297713
	35.990000	-0.097101
	35.995000	-0.245093
	36.000000	-0.442417
	36.005000	-0.291135
	36.010000	-0.097101
	36.015000	-0.251671
	36.020000	-0.439128
	36.025000	-0.291135
	36.030000	-0.093812
	36.035000	-0.245093
	36.040000	-0.442417
