2024/7/21 	 9:09:11 
 This file comes from Vt only measurement 	 1.000000E-1 
 Voltage Sensitivity 	 0.000000E+0 
 Sampling rate 	 200 
 Number of samples per channel 	 -1 
 No filter from Labview 	 	 	 
 	 
 ***End_of_Header*** 
 	 Time 	  Voltage 	 Filtered Voltage 	 
	0.000000	-0.126699
	0.005000	0.093645
	0.010000	0.113378
	0.015000	-0.103678
	0.020000	-0.126699
	0.025000	0.087068
	0.030000	0.110089
	0.035000	-0.106967
	0.040000	-0.123410
	0.045000	0.087068
	0.050000	0.110089
	0.055000	-0.106967
	0.060000	-0.123410
	0.065000	0.090357
	0.070000	0.106800
	0.075000	-0.110256
	0.080000	-0.126699
	0.085000	0.093645
	0.090000	0.110089
	0.095000	-0.106967
	0.100000	-0.123410
	0.105000	0.090357
	0.110000	0.106800
	0.115000	-0.106967
	0.120000	-0.120122
	0.125000	0.096934
	0.130000	0.113378
	0.135000	-0.106967
	0.140000	-0.116833
	0.145000	0.096934
	0.150000	0.116666
	0.155000	-0.106967
	0.160000	-0.116833
	0.165000	0.096934
	0.170000	0.116666
	0.175000	-0.103678
	0.180000	-0.116833
	0.185000	0.103511
	0.190000	0.113378
	0.195000	-0.106967
	0.200000	-0.113544
	0.205000	0.096934
	0.210000	0.110089
	0.215000	-0.103678
	0.220000	-0.113544
	0.225000	0.103511
	0.230000	0.116666
	0.235000	-0.106967
	0.240000	-0.113544
	0.245000	0.106800
	0.250000	0.113378
	0.255000	-0.100389
	0.260000	-0.113544
	0.265000	0.106800
	0.270000	0.116666
	0.275000	-0.106967
	0.280000	-0.110256
	0.285000	0.106800
	0.290000	0.116666
	0.295000	-0.103678
	0.300000	-0.106967
	0.305000	0.106800
	0.310000	0.116666
	0.315000	-0.103678
	0.320000	-0.106967
	0.325000	0.103511
	0.330000	0.116666
	0.335000	-0.103678
	0.340000	-0.110256
	0.345000	0.106800
	0.350000	0.110089
	0.355000	-0.110256
	0.360000	-0.106967
	0.365000	0.106800
	0.370000	0.113378
	0.375000	-0.103678
	0.380000	-0.106967
	0.385000	0.106800
	0.390000	0.113378
	0.395000	-0.103678
	0.400000	-0.106967
	0.405000	0.113378
	0.410000	0.113378
	0.415000	-0.106967
	0.420000	-0.103678
	0.425000	0.110089
	0.430000	0.116666
	0.435000	-0.103678
	0.440000	-0.100389
	0.445000	0.113378
	0.450000	0.113378
	0.455000	-0.103678
	0.460000	-0.103678
	0.465000	0.116666
	0.470000	0.116666
	0.475000	-0.103678
	0.480000	-0.100389
	0.485000	0.116666
	0.490000	0.113378
	0.495000	-0.103678
	0.500000	-0.100389
	0.505000	0.113378
	0.510000	0.113378
	0.515000	-0.100389
	0.520000	-0.093812
	0.525000	0.119955
	0.530000	0.116666
	0.535000	-0.100389
	0.540000	-0.097101
	0.545000	0.123244
	0.550000	0.113378
	0.555000	-0.097101
	0.560000	-0.097101
	0.565000	0.123244
	0.570000	0.113378
	0.575000	-0.100389
	0.580000	-0.093812
	0.585000	0.123244
	0.590000	0.116666
	0.595000	-0.106967
	0.600000	-0.093812
	0.605000	0.119955
	0.610000	0.113378
	0.615000	-0.100389
	0.620000	-0.093812
	0.625000	0.126533
	0.630000	0.113378
	0.635000	-0.103678
	0.640000	-0.090523
	0.645000	0.126533
	0.650000	0.113378
	0.655000	-0.103678
	0.660000	-0.090523
	0.665000	0.126533
	0.670000	0.119955
	0.675000	-0.100389
	0.680000	-0.087234
	0.685000	0.126533
	0.690000	0.116666
	0.695000	-0.103678
	0.700000	-0.090523
	0.705000	0.119955
	0.710000	0.119955
	0.715000	-0.057636
	0.720000	-0.028037
	0.725000	0.142976
	0.730000	0.116666
	0.735000	-0.067502
	0.740000	-0.037904
	0.745000	0.133110
	0.750000	0.100223
	0.755000	-0.070791
	0.760000	-0.037904
	0.765000	0.129821
	0.770000	0.093645
	0.775000	-0.070791
	0.780000	-0.034615
	0.785000	0.129821
	0.790000	0.090357
	0.795000	-0.077368
	0.800000	-0.034615
	0.805000	0.129821
	0.810000	0.087068
	0.815000	-0.080657
	0.820000	-0.041192
	0.825000	0.126533
	0.830000	0.083779
	0.835000	-0.083946
	0.840000	-0.044481
	0.845000	0.126533
	0.850000	0.087068
	0.855000	-0.083946
	0.860000	-0.041192
	0.865000	0.123244
	0.870000	0.077202
	0.875000	-0.087234
	0.880000	-0.041192
	0.885000	0.126533
	0.890000	0.080490
	0.895000	-0.090523
	0.900000	-0.041192
	0.905000	0.123244
	0.910000	0.077202
	0.915000	-0.090523
	0.920000	-0.037904
	0.925000	0.119955
	0.930000	0.077202
	0.935000	-0.090523
	0.940000	-0.037904
	0.945000	0.129821
	0.950000	0.073913
	0.955000	-0.090523
	0.960000	-0.041192
	0.965000	0.129821
	0.970000	0.083779
	0.975000	-0.090523
	0.980000	-0.047770
	0.985000	0.119955
	0.990000	0.070624
	0.995000	-0.106967
	1.000000	-0.057636
	1.005000	0.110089
	1.010000	0.064047
	1.015000	-0.110256
	1.020000	-0.064213
	1.025000	0.103511
	1.030000	0.057469
	1.035000	-0.113544
	1.040000	-0.067502
	1.045000	0.103511
	1.050000	0.054181
	1.055000	-0.120122
	1.060000	-0.067502
	1.065000	0.100223
	1.070000	0.054181
	1.075000	-0.120122
	1.080000	-0.067502
	1.085000	0.100223
	1.090000	0.050892
	1.095000	-0.123410
	1.100000	-0.067502
	1.105000	0.100223
	1.110000	0.047603
	1.115000	-0.120122
	1.120000	-0.067502
	1.125000	0.093645
	1.130000	0.044314
	1.135000	-0.120122
	1.140000	-0.070791
	1.145000	0.093645
	1.150000	0.044314
	1.155000	-0.126699
	1.160000	-0.070791
	1.165000	0.093645
	1.170000	0.044314
	1.175000	-0.129988
	1.180000	-0.074080
	1.185000	0.096934
	1.190000	0.041026
	1.195000	-0.123410
	1.200000	-0.067502
	1.205000	0.103511
	1.210000	0.054181
	1.215000	-0.126699
	1.220000	-0.080657
	1.225000	0.093645
	1.230000	0.044314
	1.235000	-0.153009
	1.240000	-0.103678
	1.245000	0.073913
	1.250000	0.021293
	1.255000	-0.162875
	1.260000	-0.116833
	1.265000	0.060758
	1.270000	0.014716
	1.275000	-0.162875
	1.280000	-0.106967
	1.285000	0.057469
	1.290000	0.004850
	1.295000	-0.189185
	1.300000	-0.133277
	1.305000	0.083779
	1.310000	0.054181
	1.315000	-0.146431
	1.320000	-0.097101
	1.325000	0.116666
	1.330000	0.077202
	1.335000	-0.129988
	1.340000	-0.080657
	1.345000	0.126533
	1.350000	0.087068
	1.355000	-0.123410
	1.360000	-0.070791
	1.365000	0.133110
	1.370000	0.093645
	1.375000	-0.116833
	1.380000	-0.064213
	1.385000	0.139687
	1.390000	0.096934
	1.395000	-0.113544
	1.400000	-0.060925
	1.405000	0.142976
	1.410000	0.096934
	1.415000	-0.110256
	1.420000	-0.057636
	1.425000	0.149554
	1.430000	0.100223
	1.435000	-0.106967
	1.440000	-0.054347
	1.445000	0.152842
	1.450000	0.103511
	1.455000	-0.110256
	1.460000	-0.064213
	1.465000	0.149554
	1.470000	0.096934
	1.475000	-0.110256
	1.480000	-0.060925
	1.485000	0.149554
	1.490000	0.096934
	1.495000	-0.106967
	1.500000	-0.057636
	1.505000	0.152842
	1.510000	0.106800
	1.515000	-0.110256
	1.520000	-0.057636
	1.525000	0.152842
	1.530000	0.106800
	1.535000	-0.106967
	1.540000	-0.051059
	1.545000	0.159420
	1.550000	0.103511
	1.555000	-0.110256
	1.560000	-0.047770
	1.565000	0.162708
	1.570000	0.106800
	1.575000	-0.106967
	1.580000	-0.051059
	1.585000	0.162708
	1.590000	0.106800
	1.595000	-0.100389
	1.600000	-0.044481
	1.605000	0.165997
	1.610000	0.106800
	1.615000	-0.100389
	1.620000	-0.041192
	1.625000	0.165997
	1.630000	0.106800
	1.635000	-0.100389
	1.640000	-0.041192
	1.645000	0.162708
	1.650000	0.110089
	1.655000	-0.100389
	1.660000	-0.047770
	1.665000	0.156131
	1.670000	0.096934
	1.675000	-0.106967
	1.680000	-0.047770
	1.685000	0.159420
	1.690000	0.096934
	1.695000	-0.110256
	1.700000	-0.047770
	1.705000	0.152842
	1.710000	0.096934
	1.715000	-0.110256
	1.720000	-0.041192
	1.725000	0.159420
	1.730000	0.096934
	1.735000	-0.103678
	1.740000	-0.041192
	1.745000	0.159420
	1.750000	0.103511
	1.755000	-0.103678
	1.760000	-0.041192
	1.765000	0.165997
	1.770000	0.100223
	1.775000	-0.103678
	1.780000	-0.034615
	1.785000	0.169286
	1.790000	0.103511
	1.795000	-0.100389
	1.800000	-0.034615
	1.805000	0.165997
	1.810000	0.106800
	1.815000	-0.100389
	1.820000	-0.031326
	1.825000	0.169286
	1.830000	0.103511
	1.835000	-0.103678
	1.840000	-0.037904
	1.845000	0.169286
	1.850000	0.100223
	1.855000	-0.103678
	1.860000	-0.037904
	1.865000	0.165997
	1.870000	0.096934
	1.875000	-0.103678
	1.880000	-0.034615
	1.885000	0.162708
	1.890000	0.090357
	1.895000	-0.110256
	1.900000	-0.041192
	1.905000	0.162708
	1.910000	0.090357
	1.915000	-0.106967
	1.920000	-0.031326
	1.925000	0.165997
	1.930000	0.090357
	1.935000	-0.110256
	1.940000	-0.034615
	1.945000	0.162708
	1.950000	0.093645
	1.955000	-0.103678
	1.960000	-0.021460
	1.965000	0.165997
	1.970000	0.093645
	1.975000	-0.093812
	1.980000	-0.024749
	1.985000	0.165997
	1.990000	0.100223
	1.995000	-0.087234
	2.000000	-0.018171
	2.005000	0.149554
	2.010000	0.077202
	2.015000	-0.090523
	2.020000	-0.008305
	2.025000	0.156131
	2.030000	0.077202
	2.035000	-0.090523
	2.040000	-0.014883
	2.045000	0.149554
	2.050000	0.067335
	2.055000	-0.087234
	2.060000	-0.008305
	2.065000	0.149554
	2.070000	0.073913
	2.075000	-0.090523
	2.080000	-0.008305
	2.085000	0.152842
	2.090000	0.070624
	2.095000	-0.087234
	2.100000	-0.001728
	2.105000	0.149554
	2.110000	0.067335
	2.115000	-0.087234
	2.120000	-0.005016
	2.125000	0.156131
	2.130000	0.067335
	2.135000	-0.087234
	2.140000	0.001561
	2.145000	0.156131
	2.150000	0.070624
	2.155000	-0.087234
	2.160000	-0.001728
	2.165000	0.149554
	2.170000	0.070624
	2.175000	-0.083946
	2.180000	-0.001728
	2.185000	0.159420
	2.190000	0.067335
	2.195000	-0.087234
	2.200000	-0.005016
	2.205000	0.156131
	2.210000	0.067335
	2.215000	-0.087234
	2.220000	-0.001728
	2.225000	0.149554
	2.230000	0.070624
	2.235000	-0.087234
	2.240000	-0.001728
	2.245000	0.149554
	2.250000	0.067335
	2.255000	-0.087234
	2.260000	0.001561
	2.265000	0.152842
	2.270000	0.060758
	2.275000	-0.090523
	2.280000	0.001561
	2.285000	0.156131
	2.290000	0.064047
	2.295000	-0.090523
	2.300000	0.001561
	2.305000	0.156131
	2.310000	0.064047
	2.315000	-0.087234
	2.320000	0.004850
	2.325000	0.156131
	2.330000	0.064047
	2.335000	-0.090523
	2.340000	0.008138
	2.345000	0.156131
	2.350000	0.060758
	2.355000	-0.087234
	2.360000	0.011427
	2.365000	0.156131
	2.370000	0.064047
	2.375000	-0.080657
	2.380000	0.011427
	2.385000	0.159420
	2.390000	0.064047
	2.395000	-0.080657
	2.400000	0.018005
	2.405000	0.159420
	2.410000	0.060758
	2.415000	-0.087234
	2.420000	0.018005
	2.425000	0.159420
	2.430000	0.054181
	2.435000	-0.087234
	2.440000	0.014716
	2.445000	0.156131
	2.450000	0.060758
	2.455000	-0.080657
	2.460000	0.014716
	2.465000	0.162708
	2.470000	0.064047
	2.475000	-0.080657
	2.480000	0.014716
	2.485000	0.159420
	2.490000	0.067335
	2.495000	-0.080657
	2.500000	0.021293
	2.505000	0.165997
	2.510000	0.064047
	2.515000	-0.080657
	2.520000	0.018005
	2.525000	0.162708
	2.530000	0.057469
	2.535000	-0.083946
	2.540000	0.024582
	2.545000	0.156131
	2.550000	0.057469
	2.555000	-0.083946
	2.560000	0.018005
	2.565000	0.162708
	2.570000	0.057469
	2.575000	-0.097101
	2.580000	0.001561
	2.585000	0.149554
	2.590000	0.041026
	2.595000	-0.116833
	2.600000	-0.014883
	2.605000	0.133110
	2.610000	0.024582
	2.615000	-0.126699
	2.620000	-0.021460
	2.625000	0.119955
	2.630000	0.011427
	2.635000	-0.136565
	2.640000	-0.037904
	2.645000	0.110089
	2.650000	0.001561
	2.655000	-0.143143
	2.660000	-0.044481
	2.665000	0.103511
	2.670000	-0.005016
	2.675000	-0.156298
	2.680000	-0.054347
	2.685000	0.096934
	2.690000	-0.008305
	2.695000	-0.162875
	2.700000	-0.051059
	2.705000	0.096934
	2.710000	-0.014883
	2.715000	-0.159586
	2.720000	-0.047770
	2.725000	0.096934
	2.730000	-0.005016
	2.735000	-0.159586
	2.740000	-0.047770
	2.745000	0.096934
	2.750000	-0.011594
	2.755000	-0.159586
	2.760000	-0.047770
	2.765000	0.096934
	2.770000	-0.011594
	2.775000	-0.159586
	2.780000	-0.051059
	2.785000	0.096934
	2.790000	-0.011594
	2.795000	-0.162875
	2.800000	-0.054347
	2.805000	0.093645
	2.810000	-0.011594
	2.815000	-0.156298
	2.820000	-0.047770
	2.825000	0.093645
	2.830000	-0.021460
	2.835000	-0.159586
	2.840000	-0.051059
	2.845000	0.090357
	2.850000	-0.014883
	2.855000	-0.159586
	2.860000	-0.051059
	2.865000	0.073913
	2.870000	-0.037904
	2.875000	-0.166164
	2.880000	-0.041192
	2.885000	0.087068
	2.890000	-0.024749
	2.895000	-0.149720
	2.900000	-0.034615
	2.905000	0.100223
	2.910000	-0.005016
	2.915000	-0.136565
	2.920000	-0.014883
	2.925000	0.116666
	2.930000	-0.001728
	2.935000	-0.146431
	2.940000	-0.021460
	2.945000	0.139687
	2.950000	0.027871
	2.955000	-0.136565
	2.960000	-0.018171
	2.965000	0.159420
	2.970000	0.044314
	2.975000	-0.123410
	2.980000	-0.001728
	2.985000	0.172575
	2.990000	0.050892
	2.995000	-0.120122
	3.000000	0.004850
	3.005000	0.172575
	3.010000	0.054181
	3.015000	-0.116833
	3.020000	0.004850
	3.025000	0.175863
	3.030000	0.060758
	3.035000	-0.116833
	3.040000	0.008138
	3.045000	0.179152
	3.050000	0.060758
	3.055000	-0.110256
	3.060000	0.011427
	3.065000	0.185730
	3.070000	0.060758
	3.075000	-0.110256
	3.080000	0.014716
	3.085000	0.189018
	3.090000	0.064047
	3.095000	-0.110256
	3.100000	0.018005
	3.105000	0.192307
	3.110000	0.064047
	3.115000	-0.106967
	3.120000	0.018005
	3.125000	0.185730
	3.130000	0.060758
	3.135000	-0.106967
	3.140000	0.014716
	3.145000	0.189018
	3.150000	0.060758
	3.155000	-0.113544
	3.160000	0.014716
	3.165000	0.185730
	3.170000	0.064047
	3.175000	-0.106967
	3.180000	0.024582
	3.185000	0.189018
	3.190000	0.067335
	3.195000	-0.103678
	3.200000	0.027871
	3.205000	0.198884
	3.210000	0.073913
	3.215000	-0.100389
	3.220000	0.031160
	3.225000	0.198884
	3.230000	0.077202
	3.235000	-0.070791
	3.240000	0.044314
	3.245000	0.169286
	3.250000	0.047603
	3.255000	-0.087234
	3.260000	0.031160
	3.265000	0.162708
	3.270000	0.037737
	3.275000	-0.090523
	3.280000	0.031160
	3.285000	0.156131
	3.290000	0.031160
	3.295000	-0.093812
	3.300000	0.027871
	3.305000	0.156131
	3.310000	0.027871
	3.315000	-0.100389
	3.320000	0.027871
	3.325000	0.152842
	3.330000	0.027871
	3.335000	-0.093812
	3.340000	0.031160
	3.345000	0.149554
	3.350000	0.027871
	3.355000	-0.097101
	3.360000	0.031160
	3.365000	0.156131
	3.370000	0.024582
	3.375000	-0.093812
	3.380000	0.034448
	3.385000	0.152842
	3.390000	0.031160
	3.395000	-0.093812
	3.400000	0.031160
	3.405000	0.152842
	3.410000	0.027871
	3.415000	-0.090523
	3.420000	0.034448
	3.425000	0.159420
	3.430000	0.034448
	3.435000	-0.090523
	3.440000	0.037737
	3.445000	0.159420
	3.450000	0.034448
	3.455000	-0.083946
	3.460000	0.044314
	3.465000	0.162708
	3.470000	0.034448
	3.475000	-0.083946
	3.480000	0.044314
	3.485000	0.159420
	3.490000	0.031160
	3.495000	-0.083946
	3.500000	0.047603
	3.505000	0.162708
	3.510000	0.031160
	3.515000	-0.087234
	3.520000	0.044314
	3.525000	0.159420
	3.530000	0.031160
	3.535000	-0.090523
	3.540000	0.037737
	3.545000	0.156131
	3.550000	0.031160
	3.555000	-0.087234
	3.560000	0.044314
	3.565000	0.162708
	3.570000	0.031160
	3.575000	-0.087234
	3.580000	0.047603
	3.585000	0.159420
	3.590000	0.027871
	3.595000	-0.083946
	3.600000	0.047603
	3.605000	0.162708
	3.610000	0.027871
	3.615000	-0.087234
	3.620000	0.050892
	3.625000	0.159420
	3.630000	0.024582
	3.635000	-0.090523
	3.640000	0.044314
	3.645000	0.159420
	3.650000	0.024582
	3.655000	-0.093812
	3.660000	0.044314
	3.665000	0.152842
	3.670000	0.021293
	3.675000	-0.093812
	3.680000	0.037737
	3.685000	0.156131
	3.690000	0.018005
	3.695000	-0.087234
	3.700000	0.041026
	3.705000	0.149554
	3.710000	0.021293
	3.715000	-0.090523
	3.720000	0.044314
	3.725000	0.156131
	3.730000	0.021293
	3.735000	-0.090523
	3.740000	0.047603
	3.745000	0.162708
	3.750000	0.024582
	3.755000	-0.080657
	3.760000	0.047603
	3.765000	0.165997
	3.770000	0.027871
	3.775000	-0.083946
	3.780000	0.054181
	3.785000	0.165997
	3.790000	0.024582
	3.795000	-0.080657
	3.800000	0.057469
	3.805000	0.162708
	3.810000	0.027871
	3.815000	-0.077368
	3.820000	0.057469
	3.825000	0.165997
	3.830000	0.031160
	3.835000	-0.074080
	3.840000	0.064047
	3.845000	0.169286
	3.850000	0.034448
	3.855000	-0.070791
	3.860000	0.064047
	3.865000	0.165997
	3.870000	0.031160
	3.875000	-0.080657
	3.880000	0.064047
	3.885000	0.169286
	3.890000	0.027871
	3.895000	-0.074080
	3.900000	0.060758
	3.905000	0.169286
	3.910000	0.031160
	3.915000	-0.083946
	3.920000	0.044314
	3.925000	0.156131
	3.930000	0.014716
	3.935000	-0.103678
	3.940000	0.031160
	3.945000	0.142976
	3.950000	-0.005016
	3.955000	-0.116833
	3.960000	0.021293
	3.965000	0.129821
	3.970000	-0.011594
	3.975000	-0.126699
	3.980000	0.011427
	3.985000	0.123244
	3.990000	-0.018171
	3.995000	-0.133277
	4.000000	0.008138
	4.005000	0.116666
	4.010000	-0.024749
	4.015000	-0.139854
	4.020000	0.001561
	4.025000	0.113378
	4.030000	-0.028037
	4.035000	-0.146431
	4.040000	-0.008305
	4.045000	0.106800
	4.050000	-0.037904
	4.055000	-0.149720
	4.060000	-0.005016
	4.065000	0.103511
	4.070000	-0.037904
	4.075000	-0.153009
	4.080000	-0.011594
	4.085000	0.103511
	4.090000	-0.041192
	4.095000	-0.153009
	4.100000	-0.011594
	4.105000	0.103511
	4.110000	-0.047770
	4.115000	-0.156298
	4.120000	-0.005016
	4.125000	0.110089
	4.130000	-0.041192
	4.135000	-0.156298
	4.140000	-0.005016
	4.145000	0.106800
	4.150000	-0.041192
	4.155000	-0.146431
	4.160000	-0.001728
	4.165000	0.103511
	4.170000	-0.044481
	4.175000	-0.153009
	4.180000	-0.008305
	4.185000	0.096934
	4.190000	-0.044481
	4.195000	-0.159586
	4.200000	-0.008305
	4.205000	0.100223
	4.210000	-0.054347
	4.215000	-0.159586
	4.220000	-0.011594
	4.225000	0.093645
	4.230000	-0.051059
	4.235000	-0.159586
	4.240000	-0.021460
	4.245000	0.093645
	4.250000	-0.054347
	4.255000	-0.159586
	4.260000	-0.018171
	4.265000	0.090357
	4.270000	-0.057636
	4.275000	-0.162875
	4.280000	-0.014883
	4.285000	0.090357
	4.290000	-0.060925
	4.295000	-0.166164
	4.300000	-0.018171
	4.305000	0.087068
	4.310000	-0.064213
	4.315000	-0.169453
	4.320000	-0.021460
	4.325000	0.083779
	4.330000	-0.067502
	4.335000	-0.172741
	4.340000	-0.018171
	4.345000	0.083779
	4.350000	-0.074080
	4.355000	-0.172741
	4.360000	-0.021460
	4.365000	0.080490
	4.370000	-0.067502
	4.375000	-0.169453
	4.380000	-0.024749
	4.385000	0.077202
	4.390000	-0.067502
	4.395000	-0.169453
	4.400000	-0.014883
	4.405000	0.073913
	4.410000	-0.074080
	4.415000	-0.153009
	4.420000	0.004850
	4.425000	0.093645
	4.430000	-0.047770
	4.435000	-0.133277
	4.440000	0.021293
	4.445000	0.106800
	4.450000	-0.041192
	4.455000	-0.120122
	4.460000	0.031160
	4.465000	0.119955
	4.470000	-0.054347
	4.475000	-0.176030
	4.480000	-0.001728
	4.485000	0.129821
	4.490000	-0.031326
	4.495000	-0.146431
	4.500000	0.027871
	4.505000	0.156131
	4.510000	-0.008305
	4.515000	-0.133277
	4.520000	0.041026
	4.525000	0.169286
	4.530000	0.008138
	4.535000	-0.123410
	4.540000	0.047603
	4.545000	0.175863
	4.550000	0.001561
	4.555000	-0.120122
	4.560000	0.047603
	4.565000	0.175863
	4.570000	0.004850
	4.575000	-0.120122
	4.580000	0.050892
	4.585000	0.175863
	4.590000	0.001561
	4.595000	-0.123410
	4.600000	0.050892
	4.605000	0.172575
	4.610000	0.004850
	4.615000	-0.120122
	4.620000	0.050892
	4.625000	0.172575
	4.630000	0.001561
	4.635000	-0.123410
	4.640000	0.054181
	4.645000	0.175863
	4.650000	0.001561
	4.655000	-0.123410
	4.660000	0.054181
	4.665000	0.179152
	4.670000	0.008138
	4.675000	-0.116833
	4.680000	0.057469
	4.685000	0.179152
	4.690000	0.011427
	4.695000	-0.110256
	4.700000	0.064047
	4.705000	0.185730
	4.710000	0.014716
	4.715000	-0.106967
	4.720000	0.073913
	4.725000	0.189018
	4.730000	0.018005
	4.735000	-0.100389
	4.740000	0.077202
	4.745000	0.198884
	4.750000	0.021293
	4.755000	-0.093812
	4.760000	0.067335
	4.765000	0.169286
	4.770000	0.011427
	4.775000	-0.097101
	4.780000	0.064047
	4.785000	0.169286
	4.790000	0.011427
	4.795000	-0.080657
	4.800000	0.070624
	4.805000	0.156131
	4.810000	-0.005016
	4.815000	-0.090523
	4.820000	0.067335
	4.825000	0.149554
	4.830000	-0.008305
	4.835000	-0.090523
	4.840000	0.064047
	4.845000	0.146265
	4.850000	-0.011594
	4.855000	-0.090523
	4.860000	0.073913
	4.865000	0.149554
	4.870000	-0.008305
	4.875000	-0.083946
	4.880000	0.073913
	4.885000	0.152842
	4.890000	-0.001728
	4.895000	-0.087234
	4.900000	0.077202
	4.905000	0.152842
	4.910000	-0.008305
	4.915000	-0.080657
	4.920000	0.073913
	4.925000	0.152842
	4.930000	-0.008305
	4.935000	-0.083946
	4.940000	0.077202
	4.945000	0.149554
	4.950000	-0.011594
	4.955000	-0.083946
	4.960000	0.077202
	4.965000	0.149554
	4.970000	-0.014883
	4.975000	-0.087234
	4.980000	0.070624
	4.985000	0.146265
	4.990000	-0.011594
	4.995000	-0.090523
	5.000000	0.067335
	5.005000	0.146265
	5.010000	-0.018171
	5.015000	-0.093812
	5.020000	0.070624
	5.025000	0.142976
	5.030000	-0.014883
	5.035000	-0.090523
	5.040000	0.073913
	5.045000	0.146265
	5.050000	-0.014883
	5.055000	-0.083946
	5.060000	0.073913
	5.065000	0.146265
	5.070000	-0.014883
	5.075000	-0.083946
	5.080000	0.077202
	5.085000	0.149554
	5.090000	-0.011594
	5.095000	-0.077368
	5.100000	0.087068
	5.105000	0.152842
	5.110000	-0.005016
	5.115000	-0.074080
	5.120000	0.083779
	5.125000	0.152842
	5.130000	-0.008305
	5.135000	-0.077368
	5.140000	0.083779
	5.145000	0.156131
	5.150000	-0.008305
	5.155000	-0.077368
	5.160000	0.083779
	5.165000	0.156131
	5.170000	-0.008305
	5.175000	-0.077368
	5.180000	0.083779
	5.185000	0.149554
	5.190000	-0.008305
	5.195000	-0.080657
	5.200000	0.083779
	5.205000	0.152842
	5.210000	-0.014883
	5.215000	-0.077368
	5.220000	0.083779
	5.225000	0.152842
	5.230000	-0.011594
	5.235000	-0.077368
	5.240000	0.087068
	5.245000	0.156131
	5.250000	-0.008305
	5.255000	-0.077368
	5.260000	0.087068
	5.265000	0.152842
	5.270000	-0.008305
	5.275000	-0.074080
	5.280000	0.093645
	5.285000	0.146265
	5.290000	-0.014883
	5.295000	-0.070791
	5.300000	0.090357
	5.305000	0.149554
	5.310000	-0.014883
	5.315000	-0.080657
	5.320000	0.090357
	5.325000	0.149554
	5.330000	-0.018171
	5.335000	-0.074080
	5.340000	0.093645
	5.345000	0.152842
	5.350000	-0.005016
	5.355000	-0.070791
	5.360000	0.093645
	5.365000	0.156131
	5.370000	-0.008305
	5.375000	-0.067502
	5.380000	0.096934
	5.385000	0.156131
	5.390000	-0.011594
	5.395000	-0.067502
	5.400000	0.096934
	5.405000	0.152842
	5.410000	-0.008305
	5.415000	-0.064213
	5.420000	0.096934
	5.425000	0.152842
	5.430000	-0.011594
	5.435000	-0.060925
	5.440000	0.100223
	5.445000	0.159420
	5.450000	-0.008305
	5.455000	-0.067502
	5.460000	0.100223
	5.465000	0.156131
	5.470000	-0.011594
	5.475000	-0.064213
	5.480000	0.100223
	5.485000	0.156131
	5.490000	-0.008305
	5.495000	-0.060925
	5.500000	0.103511
	5.505000	0.156131
	5.510000	-0.011594
	5.515000	-0.060925
	5.520000	0.106800
	5.525000	0.152842
	5.530000	-0.014883
	5.535000	-0.064213
	5.540000	0.103511
	5.545000	0.156131
	5.550000	-0.011594
	5.555000	-0.070791
	5.560000	0.100223
	5.565000	0.156131
	5.570000	-0.018171
	5.575000	-0.080657
	5.580000	0.090357
	5.585000	0.146265
	5.590000	-0.028037
	5.595000	-0.083946
	5.600000	0.083779
	5.605000	0.136399
	5.610000	-0.034615
	5.615000	-0.093812
	5.620000	0.073913
	5.625000	0.129821
	5.630000	-0.041192
	5.635000	-0.097101
	5.640000	0.073913
	5.645000	0.126533
	5.650000	-0.047770
	5.655000	-0.103678
	5.660000	0.070624
	5.665000	0.129821
	5.670000	-0.054347
	5.675000	-0.110256
	5.680000	0.067335
	5.685000	0.116666
	5.690000	-0.054347
	5.695000	-0.106967
	5.700000	0.064047
	5.705000	0.116666
	5.710000	-0.057636
	5.715000	-0.113544
	5.720000	0.064047
	5.725000	0.116666
	5.730000	-0.060925
	5.735000	-0.113544
	5.740000	0.060758
	5.745000	0.113378
	5.750000	-0.060925
	5.755000	-0.116833
	5.760000	0.057469
	5.765000	0.110089
	5.770000	-0.067502
	5.775000	-0.123410
	5.780000	0.054181
	5.785000	0.106800
	5.790000	-0.067502
	5.795000	-0.120122
	5.800000	0.050892
	5.805000	0.106800
	5.810000	-0.077368
	5.815000	-0.126699
	5.820000	0.050892
	5.825000	0.103511
	5.830000	-0.067502
	5.835000	-0.120122
	5.840000	0.054181
	5.845000	0.110089
	5.850000	-0.064213
	5.855000	-0.116833
	5.860000	0.057469
	5.865000	0.110089
	5.870000	-0.064213
	5.875000	-0.113544
	5.880000	0.057469
	5.885000	0.113378
	5.890000	-0.064213
	5.895000	-0.116833
	5.900000	0.064047
	5.905000	0.116666
	5.910000	-0.060925
	5.915000	-0.113544
	5.920000	0.064047
	5.925000	0.110089
	5.930000	-0.067502
	5.935000	-0.113544
	5.940000	0.064047
	5.945000	0.110089
	5.950000	-0.067502
	5.955000	-0.116833
	5.960000	0.064047
	5.965000	0.110089
	5.970000	-0.067502
	5.975000	-0.113544
	5.980000	0.060758
	5.985000	0.110089
	5.990000	-0.067502
	5.995000	-0.113544
	6.000000	0.064047
	6.005000	0.110089
	6.010000	-0.067502
	6.015000	-0.120122
	6.020000	0.064047
	6.025000	0.110089
	6.030000	-0.067502
	6.035000	-0.116833
	6.040000	0.060758
	6.045000	0.106800
	6.050000	-0.070791
	6.055000	-0.113544
	6.060000	0.060758
	6.065000	0.106800
	6.070000	-0.067502
	6.075000	-0.113544
	6.080000	0.064047
	6.085000	0.106800
	6.090000	-0.077368
	6.095000	-0.116833
	6.100000	0.060758
	6.105000	0.093645
	6.110000	-0.083946
	6.115000	-0.120122
	6.120000	0.054181
	6.125000	0.090357
	6.130000	-0.087234
	6.135000	-0.123410
	6.140000	0.050892
	6.145000	0.090357
	6.150000	-0.087234
	6.155000	-0.123410
	6.160000	0.054181
	6.165000	0.090357
	6.170000	-0.090523
	6.175000	-0.129988
	6.180000	0.050892
	6.185000	0.090357
	6.190000	-0.093812
	6.195000	-0.126699
	6.200000	0.050892
	6.205000	0.087068
	6.210000	-0.093812
	6.215000	-0.126699
	6.220000	0.047603
	6.225000	0.087068
	6.230000	-0.093812
	6.235000	-0.129988
	6.240000	0.050892
	6.245000	0.080490
	6.250000	-0.093812
	6.255000	-0.129988
	6.260000	0.050892
	6.265000	0.087068
	6.270000	-0.097101
	6.275000	-0.129988
	6.280000	0.047603
	6.285000	0.080490
	6.290000	-0.097101
	6.295000	-0.129988
	6.300000	0.050892
	6.305000	0.083779
	6.310000	-0.100389
	6.315000	-0.129988
	6.320000	0.047603
	6.325000	0.080490
	6.330000	-0.100389
	6.335000	-0.136565
	6.340000	0.047603
	6.345000	0.080490
	6.350000	-0.106967
	6.355000	-0.133277
	6.360000	0.044314
	6.365000	0.073913
	6.370000	-0.100389
	6.375000	-0.123410
	6.380000	0.047603
	6.385000	0.073913
	6.390000	-0.103678
	6.395000	-0.126699
	6.400000	0.047603
	6.405000	0.073913
	6.410000	-0.093812
	6.415000	-0.106967
	6.420000	0.070624
	6.425000	0.093645
	6.430000	-0.077368
	6.435000	-0.093812
	6.440000	0.087068
	6.445000	0.103511
	6.450000	-0.070791
	6.455000	-0.083946
	6.460000	0.093645
	6.465000	0.133110
	6.470000	-0.070791
	6.475000	-0.113544
	6.480000	0.087068
	6.485000	0.133110
	6.490000	-0.067502
	6.495000	-0.103678
	6.500000	0.100223
	6.505000	0.152842
	6.510000	-0.054347
	6.515000	-0.093812
	6.520000	0.116666
	6.525000	0.169286
	6.530000	-0.041192
	6.535000	-0.080657
	6.540000	0.123244
	6.545000	0.169286
	6.550000	-0.041192
	6.555000	-0.083946
	6.560000	0.123244
	6.565000	0.169286
	6.570000	-0.047770
	6.575000	-0.083946
	6.580000	0.119955
	6.585000	0.165997
	6.590000	-0.047770
	6.595000	-0.090523
	6.600000	0.119955
	6.605000	0.165997
	6.610000	-0.044481
	6.615000	-0.087234
	6.620000	0.126533
	6.625000	0.165997
	6.630000	-0.044481
	6.635000	-0.080657
	6.640000	0.129821
	6.645000	0.169286
	6.650000	-0.041192
	6.655000	-0.080657
	6.660000	0.129821
	6.665000	0.169286
	6.670000	-0.044481
	6.675000	-0.077368
	6.680000	0.133110
	6.685000	0.165997
	6.690000	-0.041192
	6.695000	-0.070791
	6.700000	0.129821
	6.705000	0.172575
	6.710000	-0.037904
	6.715000	-0.070791
	6.720000	0.142976
	6.725000	0.179152
	6.730000	-0.034615
	6.735000	-0.070791
	6.740000	0.139687
	6.745000	0.175863
	6.750000	-0.031326
	6.755000	-0.067502
	6.760000	0.139687
	6.765000	0.175863
	6.770000	-0.037904
	6.775000	-0.067502
	6.780000	0.142976
	6.785000	0.172575
	6.790000	-0.044481
	6.795000	-0.077368
	6.800000	0.139687
	6.805000	0.165997
	6.810000	-0.037904
	6.815000	-0.074080
	6.820000	0.136399
	6.825000	0.162708
	6.830000	-0.034615
	6.835000	-0.064213
	6.840000	0.123244
	6.845000	0.142976
	6.850000	-0.034615
	6.855000	-0.034615
	6.860000	0.139687
	6.865000	0.146265
	6.870000	-0.031326
	6.875000	-0.041192
	6.880000	0.142976
	6.885000	0.149554
	6.890000	-0.031326
	6.895000	-0.034615
	6.900000	0.142976
	6.905000	0.142976
	6.910000	-0.031326
	6.915000	-0.034615
	6.920000	0.136399
	6.925000	0.142976
	6.930000	-0.037904
	6.935000	-0.041192
	6.940000	0.136399
	6.945000	0.139687
	6.950000	-0.041192
	6.955000	-0.041192
	6.960000	0.139687
	6.965000	0.139687
	6.970000	-0.044481
	6.975000	-0.041192
	6.980000	0.133110
	6.985000	0.136399
	6.990000	-0.044481
	6.995000	-0.047770
	7.000000	0.129821
	7.005000	0.136399
	7.010000	-0.047770
	7.015000	-0.041192
	7.020000	0.129821
	7.025000	0.133110
	7.030000	-0.047770
	7.035000	-0.044481
	7.040000	0.136399
	7.045000	0.136399
	7.050000	-0.041192
	7.055000	-0.044481
	7.060000	0.136399
	7.065000	0.136399
	7.070000	-0.037904
	7.075000	-0.034615
	7.080000	0.142976
	7.085000	0.142976
	7.090000	-0.031326
	7.095000	-0.028037
	7.100000	0.149554
	7.105000	0.139687
	7.110000	-0.034615
	7.115000	-0.028037
	7.120000	0.146265
	7.125000	0.139687
	7.130000	-0.037904
	7.135000	-0.028037
	7.140000	0.146265
	7.145000	0.136399
	7.150000	-0.037904
	7.155000	-0.028037
	7.160000	0.142976
	7.165000	0.136399
	7.170000	-0.037904
	7.175000	-0.028037
	7.180000	0.149554
	7.185000	0.136399
	7.190000	-0.041192
	7.195000	-0.031326
	7.200000	0.142976
	7.205000	0.136399
	7.210000	-0.041192
	7.215000	-0.028037
	7.220000	0.149554
	7.225000	0.142976
	7.230000	-0.041192
	7.235000	-0.024749
	7.240000	0.146265
	7.245000	0.136399
	7.250000	-0.041192
	7.255000	-0.024749
	7.260000	0.149554
	7.265000	0.136399
	7.270000	-0.034615
	7.275000	-0.021460
	7.280000	0.149554
	7.285000	0.142976
	7.290000	-0.034615
	7.295000	-0.024749
	7.300000	0.152842
	7.305000	0.136399
	7.310000	-0.034615
	7.315000	-0.018171
	7.320000	0.156131
	7.325000	0.142976
	7.330000	-0.037904
	7.335000	-0.021460
	7.340000	0.156131
	7.345000	0.139687
	7.350000	-0.037904
	7.355000	-0.014883
	7.360000	0.156131
	7.365000	0.142976
	7.370000	-0.034615
	7.375000	-0.014883
	7.380000	0.159420
	7.385000	0.139687
	7.390000	-0.037904
	7.395000	-0.014883
	7.400000	0.159420
	7.405000	0.139687
	7.410000	-0.037904
	7.415000	-0.014883
	7.420000	0.159420
	7.425000	0.142976
	7.430000	-0.037904
	7.435000	-0.018171
	7.440000	0.162708
	7.445000	0.142976
	7.450000	-0.037904
	7.455000	-0.008305
	7.460000	0.162708
	7.465000	0.146265
	7.470000	-0.031326
	7.475000	-0.008305
	7.480000	0.169286
	7.485000	0.146265
	7.490000	-0.028037
	7.495000	-0.008305
	7.500000	0.162708
	7.505000	0.142976
	7.510000	-0.031326
	7.515000	-0.005016
	7.520000	0.165997
	7.525000	0.139687
	7.530000	-0.034615
	7.535000	-0.008305
	7.540000	0.162708
	7.545000	0.136399
	7.550000	-0.034615
	7.555000	-0.008305
	7.560000	0.162708
	7.565000	0.139687
	7.570000	-0.034615
	7.575000	-0.008305
	7.580000	0.162708
	7.585000	0.136399
	7.590000	-0.037904
	7.595000	-0.008305
	7.600000	0.162708
	7.605000	0.133110
	7.610000	-0.041192
	7.615000	-0.008305
	7.620000	0.165997
	7.625000	0.136399
	7.630000	-0.037904
	7.635000	-0.008305
	7.640000	0.162708
	7.645000	0.136399
	7.650000	-0.041192
	7.655000	-0.008305
	7.660000	0.159420
	7.665000	0.139687
	7.670000	-0.037904
	7.675000	-0.008305
	7.680000	0.162708
	7.685000	0.133110
	7.690000	-0.037904
	7.695000	-0.001728
	7.700000	0.172575
	7.705000	0.136399
	7.710000	-0.037904
	7.715000	-0.001728
	7.720000	0.169286
	7.725000	0.133110
	7.730000	-0.034615
	7.735000	-0.001728
	7.740000	0.169286
	7.745000	0.139687
	7.750000	-0.037904
	7.755000	0.001561
	7.760000	0.172575
	7.765000	0.139687
	7.770000	-0.034615
	7.775000	0.004850
	7.780000	0.172575
	7.785000	0.142976
	7.790000	-0.034615
	7.795000	0.001561
	7.800000	0.169286
	7.805000	0.133110
	7.810000	-0.041192
	7.815000	-0.008305
	7.820000	0.162708
	7.825000	0.123244
	7.830000	-0.054347
	7.835000	-0.021460
	7.840000	0.146265
	7.845000	0.110089
	7.850000	-0.067502
	7.855000	-0.034615
	7.860000	0.139687
	7.865000	0.103511
	7.870000	-0.070791
	7.875000	-0.041192
	7.880000	0.136399
	7.885000	0.093645
	7.890000	-0.087234
	7.895000	-0.054347
	7.900000	0.123244
	7.905000	0.083779
	7.910000	-0.100389
	7.915000	-0.060925
	7.920000	0.116666
	7.925000	0.077202
	7.930000	-0.103678
	7.935000	-0.067502
	7.940000	0.113378
	7.945000	0.073913
	7.950000	-0.103678
	7.955000	-0.067502
	7.960000	0.106800
	7.965000	0.067335
	7.970000	-0.113544
	7.975000	-0.067502
	7.980000	0.110089
	7.985000	0.070624
	7.990000	-0.113544
	7.995000	-0.074080
	8.000000	0.103511
	8.005000	0.064047
	8.010000	-0.120122
	8.015000	-0.080657
	8.020000	0.103511
	8.025000	0.064047
	8.030000	-0.116833
	8.035000	-0.077368
	8.040000	0.103511
	8.045000	0.060758
	8.050000	-0.123410
	8.055000	-0.080657
	8.060000	0.100223
	8.065000	0.060758
	8.070000	-0.126699
	8.075000	-0.083946
	8.080000	0.096934
	8.085000	0.054181
	8.090000	-0.126699
	8.095000	-0.080657
	8.100000	0.096934
	8.105000	0.050892
	8.110000	-0.126699
	8.115000	-0.083946
	8.120000	0.090357
	8.125000	0.047603
	8.130000	-0.129988
	8.135000	-0.080657
	8.140000	0.090357
	8.145000	0.044314
	8.150000	-0.126699
	8.155000	-0.074080
	8.160000	0.096934
	8.165000	0.044314
	8.170000	-0.116833
	8.175000	-0.054347
	8.180000	0.110089
	8.185000	0.060758
	8.190000	-0.097101
	8.195000	-0.041192
	8.200000	0.126533
	8.205000	0.070624
	8.210000	-0.087234
	8.215000	-0.031326
	8.220000	0.149554
	8.225000	0.106800
	8.230000	-0.077368
	8.235000	-0.024749
	8.240000	0.172575
	8.245000	0.129821
	8.250000	-0.067502
	8.255000	-0.028037
	8.260000	0.175863
	8.265000	0.133110
	8.270000	-0.070791
	8.275000	-0.028037
	8.280000	0.172575
	8.285000	0.129821
	8.290000	-0.067502
	8.295000	-0.031326
	8.300000	0.169286
	8.305000	0.133110
	8.310000	-0.074080
	8.315000	-0.028037
	8.320000	0.175863
	8.325000	0.129821
	8.330000	-0.077368
	8.335000	-0.031326
	8.340000	0.175863
	8.345000	0.133110
	8.350000	-0.074080
	8.355000	-0.031326
	8.360000	0.179152
	8.365000	0.129821
	8.370000	-0.074080
	8.375000	-0.024749
	8.380000	0.175863
	8.385000	0.129821
	8.390000	-0.070791
	8.395000	-0.024749
	8.400000	0.179152
	8.405000	0.133110
	8.410000	-0.070791
	8.415000	-0.021460
	8.420000	0.179152
	8.425000	0.133110
	8.430000	-0.070791
	8.435000	-0.014883
	8.440000	0.182441
	8.445000	0.139687
	8.450000	-0.064213
	8.455000	-0.014883
	8.460000	0.192307
	8.465000	0.139687
	8.470000	-0.060925
	8.475000	-0.014883
	8.480000	0.192307
	8.485000	0.142976
	8.490000	-0.064213
	8.495000	-0.005016
	8.500000	0.192307
	8.505000	0.142976
	8.510000	-0.060925
	8.515000	-0.011594
	8.520000	0.175863
	8.525000	0.129821
	8.530000	-0.051059
	8.535000	0.004850
	8.540000	0.169286
	8.545000	0.113378
	8.550000	-0.054347
	8.555000	0.004850
	8.560000	0.169286
	8.565000	0.106800
	8.570000	-0.060925
	8.575000	0.001561
	8.580000	0.165997
	8.585000	0.096934
	8.590000	-0.060925
	8.595000	0.004850
	8.600000	0.165997
	8.605000	0.106800
	8.610000	-0.057636
	8.615000	0.011427
	8.620000	0.169286
	8.625000	0.106800
	8.630000	-0.047770
	8.635000	0.018005
	8.640000	0.175863
	8.645000	0.110089
	8.650000	-0.051059
	8.655000	0.021293
	8.660000	0.182441
	8.665000	0.113378
	8.670000	-0.051059
	8.675000	0.024582
	8.680000	0.182441
	8.685000	0.113378
	8.690000	-0.051059
	8.695000	0.021293
	8.700000	0.175863
	8.705000	0.103511
	8.710000	-0.057636
	8.715000	0.018005
	8.720000	0.175863
	8.725000	0.103511
	8.730000	-0.057636
	8.735000	0.014716
	8.740000	0.169286
	8.745000	0.096934
	8.750000	-0.064213
	8.755000	0.008138
	8.760000	0.169286
	8.765000	0.093645
	8.770000	-0.064213
	8.775000	0.011427
	8.780000	0.169286
	8.785000	0.090357
	8.790000	-0.060925
	8.795000	0.011427
	8.800000	0.165997
	8.805000	0.093645
	8.810000	-0.060925
	8.815000	0.011427
	8.820000	0.172575
	8.825000	0.096934
	8.830000	-0.057636
	8.835000	0.014716
	8.840000	0.175863
	8.845000	0.100223
	8.850000	-0.057636
	8.855000	0.018005
	8.860000	0.179152
	8.865000	0.100223
	8.870000	-0.054347
	8.875000	0.021293
	8.880000	0.182441
	8.885000	0.103511
	8.890000	-0.054347
	8.895000	0.018005
	8.900000	0.175863
	8.905000	0.096934
	8.910000	-0.060925
	8.915000	0.018005
	8.920000	0.179152
	8.925000	0.093645
	8.930000	-0.057636
	8.935000	0.014716
	8.940000	0.175863
	8.945000	0.096934
	8.950000	-0.060925
	8.955000	0.018005
	8.960000	0.172575
	8.965000	0.093645
	8.970000	-0.067502
	8.975000	0.021293
	8.980000	0.172575
	8.985000	0.093645
	8.990000	-0.060925
	8.995000	0.021293
	9.000000	0.175863
	9.005000	0.093645
	9.010000	-0.064213
	9.015000	0.024582
	9.020000	0.172575
	9.025000	0.100223
	9.030000	-0.060925
	9.035000	0.024582
	9.040000	0.179152
	9.045000	0.100223
	9.050000	-0.057636
	9.055000	0.027871
	9.060000	0.185730
	9.065000	0.100223
	9.070000	-0.051059
	9.075000	0.037737
	9.080000	0.185730
	9.085000	0.096934
	9.090000	-0.047770
	9.095000	0.034448
	9.100000	0.185730
	9.105000	0.096934
	9.110000	-0.051059
	9.115000	0.031160
	9.120000	0.182441
	9.125000	0.096934
	9.130000	-0.054347
	9.135000	0.031160
	9.140000	0.179152
	9.145000	0.100223
	9.150000	-0.057636
	9.155000	0.034448
	9.160000	0.182441
	9.165000	0.100223
	9.170000	-0.051059
	9.175000	0.034448
	9.180000	0.192307
	9.185000	0.103511
	9.190000	-0.047770
	9.195000	0.041026
	9.200000	0.185730
	9.205000	0.103511
	9.210000	-0.047770
	9.215000	0.041026
	9.220000	0.189018
	9.225000	0.103511
	9.230000	-0.044481
	9.235000	0.037737
	9.240000	0.192307
	9.245000	0.103511
	9.250000	-0.047770
	9.255000	0.044314
	9.260000	0.192307
	9.265000	0.106800
	9.270000	-0.041192
	9.275000	0.047603
	9.280000	0.198884
	9.285000	0.106800
	9.290000	-0.044481
	9.295000	0.047603
	9.300000	0.198884
	9.305000	0.110089
	9.310000	-0.041192
	9.315000	0.047603
	9.320000	0.195596
	9.325000	0.106800
	9.330000	-0.047770
	9.335000	0.044314
	9.340000	0.195596
	9.345000	0.106800
	9.350000	-0.047770
	9.355000	0.044314
	9.360000	0.195596
	9.365000	0.100223
	9.370000	-0.047770
	9.375000	0.047603
	9.380000	0.192307
	9.385000	0.100223
	9.390000	-0.051059
	9.395000	0.044314
	9.400000	0.195596
	9.405000	0.100223
	9.410000	-0.047770
	9.415000	0.044314
	9.420000	0.198884
	9.425000	0.096934
	9.430000	-0.047770
	9.435000	0.047603
	9.440000	0.195596
	9.445000	0.103511
	9.450000	-0.044481
	9.455000	0.050892
	9.460000	0.195596
	9.465000	0.100223
	9.470000	-0.044481
	9.475000	0.054181
	9.480000	0.195596
	9.485000	0.106800
	9.490000	-0.044481
	9.495000	0.054181
	9.500000	0.198884
	9.505000	0.100223
	9.510000	-0.047770
	9.515000	0.054181
	9.520000	0.198884
	9.525000	0.096934
	9.530000	-0.054347
	9.535000	0.044314
	9.540000	0.195596
	9.545000	0.093645
	9.550000	-0.051059
	9.555000	0.044314
	9.560000	0.189018
	9.565000	0.090357
	9.570000	-0.064213
	9.575000	0.031160
	9.580000	0.175863
	9.585000	0.077202
	9.590000	-0.074080
	9.595000	0.018005
	9.600000	0.172575
	9.605000	0.070624
	9.610000	-0.080657
	9.615000	0.024582
	9.620000	0.172575
	9.625000	0.067335
	9.630000	-0.087234
	9.635000	0.014716
	9.640000	0.165997
	9.645000	0.064047
	9.650000	-0.090523
	9.655000	0.008138
	9.660000	0.156131
	9.665000	0.054181
	9.670000	-0.100389
	9.675000	0.001561
	9.680000	0.152842
	9.685000	0.050892
	9.690000	-0.103678
	9.695000	0.001561
	9.700000	0.152842
	9.705000	0.054181
	9.710000	-0.100389
	9.715000	-0.005016
	9.720000	0.152842
	9.725000	0.050892
	9.730000	-0.106967
	9.735000	-0.001728
	9.740000	0.152842
	9.745000	0.044314
	9.750000	-0.106967
	9.755000	-0.001728
	9.760000	0.149554
	9.765000	0.044314
	9.770000	-0.106967
	9.775000	0.001561
	9.780000	0.152842
	9.785000	0.044314
	9.790000	-0.106967
	9.795000	-0.001728
	9.800000	0.146265
	9.805000	0.037737
	9.810000	-0.106967
	9.815000	0.001561
	9.820000	0.149554
	9.825000	0.044314
	9.830000	-0.103678
	9.835000	-0.005016
	9.840000	0.129821
	9.845000	0.027871
	9.850000	-0.106967
	9.855000	0.008138
	9.860000	0.142976
	9.865000	0.041026
	9.870000	-0.090523
	9.875000	0.021293
	9.880000	0.162708
	9.885000	0.044314
	9.890000	-0.116833
	9.895000	-0.014883
	9.900000	0.142976
	9.905000	0.034448
	9.910000	-0.116833
	9.915000	0.001561
	9.920000	0.175863
	9.925000	0.064047
	9.930000	-0.106967
	9.935000	0.018005
	9.940000	0.195596
	9.945000	0.087068
	9.950000	-0.090523
	9.955000	0.031160
	9.960000	0.205462
	9.965000	0.096934
	9.970000	-0.080657
	9.975000	0.027871
	9.980000	0.208751
	9.985000	0.093645
	9.990000	-0.083946
	9.995000	0.034448
	10.000000	0.208751
	10.005000	0.096934
	10.010000	-0.083946
	10.015000	0.034448
	10.020000	0.212039
	10.025000	0.093645
	10.030000	-0.083946
	10.035000	0.034448
	10.040000	0.212039
	10.045000	0.093645
	10.050000	-0.087234
	10.055000	0.034448
	10.060000	0.212039
	10.065000	0.096934
	10.070000	-0.077368
	10.075000	0.034448
	10.080000	0.212039
	10.085000	0.093645
	10.090000	-0.083946
	10.095000	0.041026
	10.100000	0.218617
	10.105000	0.100223
	10.110000	-0.077368
	10.115000	0.047603
	10.120000	0.215328
	10.125000	0.096934
	10.130000	-0.074080
	10.135000	0.050892
	10.140000	0.225194
	10.145000	0.103511
	10.150000	-0.067502
	10.155000	0.057469
	10.160000	0.225194
	10.165000	0.106800
	10.170000	-0.067502
	10.175000	0.050892
	10.180000	0.218617
	10.185000	0.096934
	10.190000	-0.047770
	10.195000	0.064047
	10.200000	0.208751
	10.205000	0.090357
	10.210000	-0.054347
	10.215000	0.060758
	10.220000	0.198884
	10.225000	0.077202
	10.230000	-0.054347
	10.235000	0.064047
	10.240000	0.192307
	10.245000	0.077202
	10.250000	-0.051059
	10.255000	0.067335
	10.260000	0.198884
	10.265000	0.077202
	10.270000	-0.054347
	10.275000	0.070624
	10.280000	0.198884
	10.285000	0.080490
	10.290000	-0.047770
	10.295000	0.073913
	10.300000	0.202173
	10.305000	0.080490
	10.310000	-0.044481
	10.315000	0.077202
	10.320000	0.208751
	10.325000	0.083779
	10.330000	-0.044481
	10.335000	0.073913
	10.340000	0.202173
	10.345000	0.077202
	10.350000	-0.047770
	10.355000	0.070624
	10.360000	0.198884
	10.365000	0.077202
	10.370000	-0.051059
	10.375000	0.073913
	10.380000	0.192307
	10.385000	0.070624
	10.390000	-0.054347
	10.395000	0.067335
	10.400000	0.192307
	10.405000	0.067335
	10.410000	-0.057636
	10.415000	0.067335
	10.420000	0.189018
	10.425000	0.067335
	10.430000	-0.057636
	10.435000	0.070624
	10.440000	0.192307
	10.445000	0.064047
	10.450000	-0.057636
	10.455000	0.073913
	10.460000	0.192307
	10.465000	0.064047
	10.470000	-0.057636
	10.475000	0.073913
	10.480000	0.198884
	10.485000	0.067335
	10.490000	-0.047770
	10.495000	0.077202
	10.500000	0.198884
	10.505000	0.070624
	10.510000	-0.051059
	10.515000	0.083779
	10.520000	0.198884
	10.525000	0.073913
	10.530000	-0.047770
	10.535000	0.083779
	10.540000	0.198884
	10.545000	0.070624
	10.550000	-0.041192
	10.555000	0.080490
	10.560000	0.205462
	10.565000	0.067335
	10.570000	-0.051059
	10.575000	0.077202
	10.580000	0.192307
	10.585000	0.067335
	10.590000	-0.051059
	10.595000	0.077202
	10.600000	0.202173
	10.605000	0.073913
	10.610000	-0.047770
	10.615000	0.080490
	10.620000	0.202173
	10.625000	0.073913
	10.630000	-0.047770
	10.635000	0.080490
	10.640000	0.198884
	10.645000	0.070624
	10.650000	-0.044481
	10.655000	0.087068
	10.660000	0.205462
	10.665000	0.070624
	10.670000	-0.047770
	10.675000	0.090357
	10.680000	0.205462
	10.685000	0.073913
	10.690000	-0.041192
	10.695000	0.087068
	10.700000	0.205462
	10.705000	0.073913
	10.710000	-0.037904
	10.715000	0.093645
	10.720000	0.205462
	10.725000	0.073913
	10.730000	-0.041192
	10.735000	0.090357
	10.740000	0.202173
	10.745000	0.077202
	10.750000	-0.041192
	10.755000	0.093645
	10.760000	0.205462
	10.765000	0.077202
	10.770000	-0.041192
	10.775000	0.090357
	10.780000	0.208751
	10.785000	0.073913
	10.790000	-0.041192
	10.795000	0.093645
	10.800000	0.205462
	10.805000	0.070624
	10.810000	-0.044481
	10.815000	0.093645
	10.820000	0.205462
	10.825000	0.070624
	10.830000	-0.041192
	10.835000	0.093645
	10.840000	0.208751
	10.845000	0.070624
	10.850000	-0.041192
	10.855000	0.093645
	10.860000	0.208751
	10.865000	0.070624
	10.870000	-0.044481
	10.875000	0.096934
	10.880000	0.205462
	10.885000	0.070624
	10.890000	-0.041192
	10.895000	0.093645
	10.900000	0.205462
	10.905000	0.067335
	10.910000	-0.041192
	10.915000	0.100223
	10.920000	0.205462
	10.925000	0.067335
	10.930000	-0.044481
	10.935000	0.096934
	10.940000	0.205462
	10.945000	0.070624
	10.950000	-0.047770
	10.955000	0.093645
	10.960000	0.202173
	10.965000	0.064047
	10.970000	-0.044481
	10.975000	0.093645
	10.980000	0.202173
	10.985000	0.060758
	10.990000	-0.041192
	10.995000	0.087068
	11.000000	0.198884
	11.005000	0.060758
	11.010000	-0.047770
	11.015000	0.090357
	11.020000	0.198884
	11.025000	0.057469
	11.030000	-0.051059
	11.035000	0.090357
	11.040000	0.198884
	11.045000	0.057469
	11.050000	-0.044481
	11.055000	0.090357
	11.060000	0.202173
	11.065000	0.060758
	11.070000	-0.047770
	11.075000	0.093645
	11.080000	0.202173
	11.085000	0.060758
	11.090000	-0.047770
	11.095000	0.093645
	11.100000	0.202173
	11.105000	0.057469
	11.110000	-0.047770
	11.115000	0.096934
	11.120000	0.198884
	11.125000	0.057469
	11.130000	-0.044481
	11.135000	0.093645
	11.140000	0.198884
	11.145000	0.060758
	11.150000	-0.044481
	11.155000	0.100223
	11.160000	0.202173
	11.165000	0.057469
	11.170000	-0.041192
	11.175000	0.100223
	11.180000	0.205462
	11.185000	0.057469
	11.190000	-0.047770
	11.195000	0.096934
	11.200000	0.198884
	11.205000	0.060758
	11.210000	-0.054347
	11.215000	0.090357
	11.220000	0.192307
	11.225000	0.047603
	11.230000	-0.057636
	11.235000	0.087068
	11.240000	0.185730
	11.245000	0.034448
	11.250000	-0.060925
	11.255000	0.080490
	11.260000	0.185730
	11.265000	0.041026
	11.270000	-0.067502
	11.275000	0.077202
	11.280000	0.179152
	11.285000	0.027871
	11.290000	-0.074080
	11.295000	0.077202
	11.300000	0.175863
	11.305000	0.024582
	11.310000	-0.077368
	11.315000	0.070624
	11.320000	0.172575
	11.325000	0.021293
	11.330000	-0.087234
	11.335000	0.060758
	11.340000	0.162708
	11.345000	0.011427
	11.350000	-0.097101
	11.355000	0.054181
	11.360000	0.156131
	11.365000	0.001561
	11.370000	-0.103678
	11.375000	0.047603
	11.380000	0.149554
	11.385000	0.001561
	11.390000	-0.103678
	11.395000	0.044314
	11.400000	0.142976
	11.405000	-0.008305
	11.410000	-0.106967
	11.415000	0.047603
	11.420000	0.142976
	11.425000	-0.005016
	11.430000	-0.106967
	11.435000	0.041026
	11.440000	0.142976
	11.445000	-0.008305
	11.450000	-0.110256
	11.455000	0.041026
	11.460000	0.139687
	11.465000	-0.014883
	11.470000	-0.116833
	11.475000	0.041026
	11.480000	0.139687
	11.485000	-0.021460
	11.490000	-0.116833
	11.495000	0.037737
	11.500000	0.136399
	11.505000	-0.021460
	11.510000	-0.116833
	11.515000	0.037737
	11.520000	0.136399
	11.525000	-0.024749
	11.530000	-0.113544
	11.535000	0.041026
	11.540000	0.129821
	11.545000	-0.021460
	11.550000	-0.113544
	11.555000	0.034448
	11.560000	0.123244
	11.565000	-0.021460
	11.570000	-0.103678
	11.575000	0.050892
	11.580000	0.142976
	11.585000	-0.005016
	11.590000	-0.083946
	11.595000	0.070624
	11.600000	0.156131
	11.605000	0.008138
	11.610000	-0.090523
	11.615000	0.064047
	11.620000	0.162708
	11.625000	0.008138
	11.630000	-0.103678
	11.635000	0.064047
	11.640000	0.195596
	11.645000	0.027871
	11.650000	-0.093812
	11.655000	0.083779
	11.660000	0.208751
	11.665000	0.037737
	11.670000	-0.083946
	11.675000	0.090357
	11.680000	0.208751
	11.685000	0.037737
	11.690000	-0.083946
	11.695000	0.090357
	11.700000	0.212039
	11.705000	0.037737
	11.710000	-0.087234
	11.715000	0.090357
	11.720000	0.212039
	11.725000	0.034448
	11.730000	-0.080657
	11.735000	0.090357
	11.740000	0.212039
	11.745000	0.034448
	11.750000	-0.083946
	11.755000	0.096934
	11.760000	0.208751
	11.765000	0.034448
	11.770000	-0.080657
	11.775000	0.090357
	11.780000	0.212039
	11.785000	0.041026
	11.790000	-0.080657
	11.795000	0.096934
	11.800000	0.215328
	11.805000	0.031160
	11.810000	-0.077368
	11.815000	0.100223
	11.820000	0.208751
	11.825000	0.034448
	11.830000	-0.077368
	11.835000	0.103511
	11.840000	0.215328
	11.845000	0.044314
	11.850000	-0.070791
	11.855000	0.106800
	11.860000	0.225194
	11.865000	0.044314
	11.870000	-0.067502
	11.875000	0.110089
	11.880000	0.221905
	11.885000	0.047603
	11.890000	-0.060925
	11.895000	0.106800
	11.900000	0.208751
	11.905000	0.050892
	11.910000	-0.041192
	11.915000	0.113378
	11.920000	0.185730
	11.925000	0.031160
	11.930000	-0.051059
	11.935000	0.110089
	11.940000	0.189018
	11.945000	0.024582
	11.950000	-0.047770
	11.955000	0.106800
	11.960000	0.179152
	11.965000	0.024582
	11.970000	-0.047770
	11.975000	0.110089
	11.980000	0.182441
	11.985000	0.021293
	11.990000	-0.047770
	11.995000	0.113378
	12.000000	0.182441
	12.005000	0.024582
	12.010000	-0.047770
	12.015000	0.110089
	12.020000	0.189018
	12.025000	0.024582
	12.030000	-0.041192
	12.035000	0.116666
	12.040000	0.192307
	12.045000	0.027871
	12.050000	-0.037904
	12.055000	0.119955
	12.060000	0.195596
	12.065000	0.031160
	12.070000	-0.037904
	12.075000	0.119955
	12.080000	0.189018
	12.085000	0.027871
	12.090000	-0.041192
	12.095000	0.123244
	12.100000	0.185730
	12.105000	0.027871
	12.110000	-0.041192
	12.115000	0.119955
	12.120000	0.185730
	12.125000	0.024582
	12.130000	-0.041192
	12.135000	0.116666
	12.140000	0.182441
	12.145000	0.024582
	12.150000	-0.047770
	12.155000	0.116666
	12.160000	0.182441
	12.165000	0.021293
	12.170000	-0.044481
	12.175000	0.123244
	12.180000	0.189018
	12.185000	0.027871
	12.190000	-0.041192
	12.195000	0.129821
	12.200000	0.192307
	12.205000	0.031160
	12.210000	-0.031326
	12.215000	0.133110
	12.220000	0.202173
	12.225000	0.041026
	12.230000	-0.024749
	12.235000	0.139687
	12.240000	0.202173
	12.245000	0.037737
	12.250000	-0.024749
	12.255000	0.139687
	12.260000	0.202173
	12.265000	0.034448
	12.270000	-0.028037
	12.275000	0.136399
	12.280000	0.198884
	12.285000	0.031160
	12.290000	-0.028037
	12.295000	0.139687
	12.300000	0.195596
	12.305000	0.027871
	12.310000	-0.034615
	12.315000	0.133110
	12.320000	0.195596
	12.325000	0.024582
	12.330000	-0.034615
	12.335000	0.129821
	12.340000	0.195596
	12.345000	0.027871
	12.350000	-0.037904
	12.355000	0.129821
	12.360000	0.189018
	12.365000	0.027871
	12.370000	-0.034615
	12.375000	0.133110
	12.380000	0.189018
	12.385000	0.024582
	12.390000	-0.031326
	12.395000	0.133110
	12.400000	0.195596
	12.405000	0.024582
	12.410000	-0.031326
	12.415000	0.136399
	12.420000	0.195596
	12.425000	0.024582
	12.430000	-0.031326
	12.435000	0.139687
	12.440000	0.195596
	12.445000	0.024582
	12.450000	-0.031326
	12.455000	0.136399
	12.460000	0.195596
	12.465000	0.024582
	12.470000	-0.024749
	12.475000	0.139687
	12.480000	0.192307
	12.485000	0.024582
	12.490000	-0.028037
	12.495000	0.139687
	12.500000	0.195596
	12.505000	0.024582
	12.510000	-0.031326
	12.515000	0.136399
	12.520000	0.189018
	12.525000	0.021293
	12.530000	-0.031326
	12.535000	0.142976
	12.540000	0.195596
	12.545000	0.024582
	12.550000	-0.031326
	12.555000	0.139687
	12.560000	0.189018
	12.565000	0.021293
	12.570000	-0.031326
	12.575000	0.139687
	12.580000	0.189018
	12.585000	0.018005
	12.590000	-0.028037
	12.595000	0.139687
	12.600000	0.195596
	12.605000	0.024582
	12.610000	-0.031326
	12.615000	0.142976
	12.620000	0.192307
	12.625000	0.021293
	12.630000	-0.028037
	12.635000	0.139687
	12.640000	0.192307
	12.645000	0.021293
	12.650000	-0.028037
	12.655000	0.139687
	12.660000	0.192307
	12.665000	0.021293
	12.670000	-0.024749
	12.675000	0.146265
	12.680000	0.195596
	12.685000	0.021293
	12.690000	-0.021460
	12.695000	0.146265
	12.700000	0.192307
	12.705000	0.024582
	12.710000	-0.021460
	12.715000	0.149554
	12.720000	0.195596
	12.725000	0.024582
	12.730000	-0.018171
	12.735000	0.146265
	12.740000	0.192307
	12.745000	0.021293
	12.750000	-0.011594
	12.755000	0.156131
	12.760000	0.198884
	12.765000	0.027871
	12.770000	-0.011594
	12.775000	0.162708
	12.780000	0.198884
	12.785000	0.031160
	12.790000	-0.011594
	12.795000	0.156131
	12.800000	0.202173
	12.805000	0.024582
	12.810000	-0.008305
	12.815000	0.165997
	12.820000	0.205462
	12.825000	0.027871
	12.830000	-0.011594
	12.835000	0.156131
	12.840000	0.198884
	12.845000	0.024582
	12.850000	-0.021460
	12.855000	0.149554
	12.860000	0.198884
	12.865000	0.014716
	12.870000	-0.034615
	12.875000	0.133110
	12.880000	0.179152
	12.885000	0.001561
	12.890000	-0.054347
	12.895000	0.119955
	12.900000	0.169286
	12.905000	-0.011594
	12.910000	-0.060925
	12.915000	0.113378
	12.920000	0.162708
	12.925000	-0.021460
	12.930000	-0.060925
	12.935000	0.113378
	12.940000	0.156131
	12.945000	-0.018171
	12.950000	-0.060925
	12.955000	0.116666
	12.960000	0.156131
	12.965000	-0.021460
	12.970000	-0.067502
	12.975000	0.113378
	12.980000	0.152842
	12.985000	-0.028037
	12.990000	-0.060925
	12.995000	0.110089
	13.000000	0.156131
	13.005000	-0.024749
	13.010000	-0.060925
	13.015000	0.113378
	13.020000	0.149554
	13.025000	-0.028037
	13.030000	-0.067502
	13.035000	0.110089
	13.040000	0.149554
	13.045000	-0.031326
	13.050000	-0.067502
	13.055000	0.110089
	13.060000	0.142976
	13.065000	-0.041192
	13.070000	-0.077368
	13.075000	0.103511
	13.080000	0.136399
	13.085000	-0.044481
	13.090000	-0.080657
	13.095000	0.103511
	13.100000	0.133110
	13.105000	-0.054347
	13.110000	-0.083946
	13.115000	0.093645
	13.120000	0.129821
	13.125000	-0.054347
	13.130000	-0.083946
	13.135000	0.090357
	13.140000	0.126533
	13.145000	-0.057636
	13.150000	-0.087234
	13.155000	0.090357
	13.160000	0.126533
	13.165000	-0.060925
	13.170000	-0.090523
	13.175000	0.090357
	13.180000	0.116666
	13.185000	-0.064213
	13.190000	-0.090523
	13.195000	0.090357
	13.200000	0.116666
	13.205000	-0.064213
	13.210000	-0.090523
	13.215000	0.087068
	13.220000	0.116666
	13.225000	-0.064213
	13.230000	-0.093812
	13.235000	0.087068
	13.240000	0.116666
	13.245000	-0.060925
	13.250000	-0.093812
	13.255000	0.087068
	13.260000	0.119955
	13.265000	-0.064213
	13.270000	-0.090523
	13.275000	0.090357
	13.280000	0.116666
	13.285000	-0.067502
	13.290000	-0.090523
	13.295000	0.093645
	13.300000	0.119955
	13.305000	-0.067502
	13.310000	-0.090523
	13.315000	0.090357
	13.320000	0.123244
	13.325000	-0.064213
	13.330000	-0.090523
	13.335000	0.093645
	13.340000	0.123244
	13.345000	-0.067502
	13.350000	-0.093812
	13.355000	0.090357
	13.360000	0.116666
	13.365000	-0.067502
	13.370000	-0.093812
	13.375000	0.090357
	13.380000	0.116666
	13.385000	-0.051059
	13.390000	-0.054347
	13.395000	0.119955
	13.400000	0.136399
	13.405000	-0.031326
	13.410000	-0.044481
	13.415000	0.133110
	13.420000	0.149554
	13.425000	-0.024749
	13.430000	-0.037904
	13.435000	0.152842
	13.440000	0.185730
	13.445000	-0.008305
	13.450000	-0.041192
	13.455000	0.146265
	13.460000	0.175863
	13.465000	-0.021460
	13.470000	-0.057636
	13.475000	0.146265
	13.480000	0.189018
	13.485000	-0.014883
	13.490000	-0.054347
	13.495000	0.149554
	13.500000	0.192307
	13.505000	-0.018171
	13.510000	-0.054347
	13.515000	0.152842
	13.520000	0.198884
	13.525000	-0.021460
	13.530000	-0.057636
	13.535000	0.149554
	13.540000	0.189018
	13.545000	-0.018171
	13.550000	-0.054347
	13.555000	0.152842
	13.560000	0.189018
	13.565000	-0.018171
	13.570000	-0.054347
	13.575000	0.156131
	13.580000	0.189018
	13.585000	-0.021460
	13.590000	-0.054347
	13.595000	0.156131
	13.600000	0.189018
	13.605000	-0.018171
	13.610000	-0.054347
	13.615000	0.162708
	13.620000	0.195596
	13.625000	-0.021460
	13.630000	-0.047770
	13.635000	0.159420
	13.640000	0.195596
	13.645000	-0.018171
	13.650000	-0.047770
	13.655000	0.162708
	13.660000	0.195596
	13.665000	-0.018171
	13.670000	-0.044481
	13.675000	0.165997
	13.680000	0.198884
	13.685000	-0.014883
	13.690000	-0.041192
	13.695000	0.165997
	13.700000	0.202173
	13.705000	-0.008305
	13.710000	-0.041192
	13.715000	0.169286
	13.720000	0.202173
	13.725000	-0.011594
	13.730000	-0.041192
	13.735000	0.162708
	13.740000	0.189018
	13.745000	-0.014883
	13.750000	-0.034615
	13.755000	0.142976
	13.760000	0.162708
	13.765000	-0.014883
	13.770000	-0.021460
	13.775000	0.159420
	13.780000	0.162708
	13.785000	-0.018171
	13.790000	-0.024749
	13.795000	0.152842
	13.800000	0.156131
	13.805000	-0.024749
	13.810000	-0.021460
	13.815000	0.149554
	13.820000	0.156131
	13.825000	-0.024749
	13.830000	-0.018171
	13.835000	0.156131
	13.840000	0.152842
	13.845000	-0.024749
	13.850000	-0.014883
	13.855000	0.156131
	13.860000	0.156131
	13.865000	-0.021460
	13.870000	-0.011594
	13.875000	0.159420
	13.880000	0.159420
	13.885000	-0.018171
	13.890000	-0.014883
	13.895000	0.162708
	13.900000	0.159420
	13.905000	-0.018171
	13.910000	-0.011594
	13.915000	0.162708
	13.920000	0.159420
	13.925000	-0.014883
	13.930000	-0.008305
	13.935000	0.165997
	13.940000	0.159420
	13.945000	-0.018171
	13.950000	-0.014883
	13.955000	0.162708
	13.960000	0.156131
	13.965000	-0.024749
	13.970000	-0.014883
	13.975000	0.159420
	13.980000	0.149554
	13.985000	-0.024749
	13.990000	-0.018171
	13.995000	0.156131
	14.000000	0.152842
	14.005000	-0.024749
	14.010000	-0.021460
	14.015000	0.159420
	14.020000	0.146265
	14.025000	-0.024749
	14.030000	-0.018171
	14.035000	0.156131
	14.040000	0.149554
	14.045000	-0.024749
	14.050000	-0.014883
	14.055000	0.162708
	14.060000	0.149554
	14.065000	-0.024749
	14.070000	-0.008305
	14.075000	0.169286
	14.080000	0.156131
	14.085000	-0.021460
	14.090000	-0.005016
	14.095000	0.172575
	14.100000	0.162708
	14.105000	-0.014883
	14.110000	-0.001728
	14.115000	0.175863
	14.120000	0.162708
	14.125000	-0.014883
	14.130000	-0.001728
	14.135000	0.169286
	14.140000	0.156131
	14.145000	-0.021460
	14.150000	-0.001728
	14.155000	0.169286
	14.160000	0.152842
	14.165000	-0.021460
	14.170000	-0.005016
	14.175000	0.169286
	14.180000	0.156131
	14.185000	-0.024749
	14.190000	-0.005016
	14.195000	0.172575
	14.200000	0.152842
	14.205000	-0.018171
	14.210000	-0.008305
	14.215000	0.165997
	14.220000	0.156131
	14.225000	-0.014883
	14.230000	-0.005016
	14.235000	0.172575
	14.240000	0.159420
	14.245000	-0.021460
	14.250000	-0.001728
	14.255000	0.172575
	14.260000	0.156131
	14.265000	-0.018171
	14.270000	0.004850
	14.275000	0.175863
	14.280000	0.162708
	14.285000	-0.014883
	14.290000	0.001561
	14.295000	0.172575
	14.300000	0.162708
	14.305000	-0.014883
	14.310000	0.001561
	14.315000	0.179152
	14.320000	0.165997
	14.325000	-0.014883
	14.330000	0.008138
	14.335000	0.179152
	14.340000	0.162708
	14.345000	-0.011594
	14.350000	0.011427
	14.355000	0.182441
	14.360000	0.162708
	14.365000	-0.011594
	14.370000	0.011427
	14.375000	0.185730
	14.380000	0.169286
	14.385000	-0.005016
	14.390000	0.018005
	14.395000	0.189018
	14.400000	0.172575
	14.405000	-0.005016
	14.410000	0.018005
	14.415000	0.195596
	14.420000	0.172575
	14.425000	-0.001728
	14.430000	0.024582
	14.435000	0.198884
	14.440000	0.175863
	14.445000	-0.001728
	14.450000	0.011427
	14.455000	0.189018
	14.460000	0.165997
	14.465000	-0.014883
	14.470000	0.001561
	14.475000	0.175863
	14.480000	0.156131
	14.485000	-0.021460
	14.490000	-0.008305
	14.495000	0.169286
	14.500000	0.152842
	14.505000	-0.034615
	14.510000	-0.014883
	14.515000	0.165997
	14.520000	0.149554
	14.525000	-0.034615
	14.530000	-0.014883
	14.535000	0.159420
	14.540000	0.142976
	14.545000	-0.037904
	14.550000	-0.021460
	14.555000	0.162708
	14.560000	0.136399
	14.565000	-0.047770
	14.570000	-0.024749
	14.575000	0.156131
	14.580000	0.133110
	14.585000	-0.047770
	14.590000	-0.024749
	14.595000	0.149554
	14.600000	0.133110
	14.605000	-0.054347
	14.610000	-0.028037
	14.615000	0.149554
	14.620000	0.129821
	14.625000	-0.054347
	14.630000	-0.028037
	14.635000	0.152842
	14.640000	0.126533
	14.645000	-0.057636
	14.650000	-0.028037
	14.655000	0.149554
	14.660000	0.126533
	14.665000	-0.054347
	14.670000	-0.031326
	14.675000	0.146265
	14.680000	0.126533
	14.685000	-0.057636
	14.690000	-0.034615
	14.695000	0.142976
	14.700000	0.116666
	14.705000	-0.064213
	14.710000	-0.034615
	14.715000	0.136399
	14.720000	0.106800
	14.725000	-0.060925
	14.730000	-0.021460
	14.735000	0.152842
	14.740000	0.123244
	14.745000	-0.044481
	14.750000	-0.005016
	14.755000	0.156131
	14.760000	0.133110
	14.765000	-0.034615
	14.770000	-0.001728
	14.775000	0.172575
	14.780000	0.136399
	14.785000	-0.041192
	14.790000	0.001561
	14.795000	0.175863
	14.800000	0.139687
	14.805000	-0.064213
	14.810000	-0.034615
	14.815000	0.172575
	14.820000	0.156131
	14.825000	-0.051059
	14.830000	-0.024749
	14.835000	0.182441
	14.840000	0.162708
	14.845000	-0.044481
	14.850000	-0.018171
	14.855000	0.192307
	14.860000	0.172575
	14.865000	-0.041192
	14.870000	-0.018171
	14.875000	0.198884
	14.880000	0.175863
	14.885000	-0.041192
	14.890000	-0.014883
	14.895000	0.192307
	14.900000	0.169286
	14.905000	-0.044481
	14.910000	-0.021460
	14.915000	0.195596
	14.920000	0.172575
	14.925000	-0.047770
	14.930000	-0.014883
	14.935000	0.192307
	14.940000	0.165997
	14.945000	-0.041192
	14.950000	-0.021460
	14.955000	0.189018
	14.960000	0.162708
	14.965000	-0.047770
	14.970000	-0.018171
	14.975000	0.195596
	14.980000	0.169286
	14.985000	-0.041192
	14.990000	-0.014883
	14.995000	0.195596
	15.000000	0.172575
	15.005000	-0.037904
	15.010000	-0.011594
	15.015000	0.198884
	15.020000	0.169286
	15.025000	-0.041192
	15.030000	-0.008305
	15.035000	0.198884
	15.040000	0.172575
	15.045000	-0.044481
	15.050000	-0.014883
	15.055000	0.198884
	15.060000	0.165997
	15.065000	-0.044481
	15.070000	-0.011594
	15.075000	0.198884
	15.080000	0.169286
	15.085000	-0.041192
	15.090000	-0.005016
	15.095000	0.202173
	15.100000	0.172575
	15.105000	-0.037904
	15.110000	-0.005016
	15.115000	0.202173
	15.120000	0.169286
	15.125000	-0.037904
	15.130000	-0.001728
	15.135000	0.202173
	15.140000	0.162708
	15.145000	-0.047770
	15.150000	-0.008305
	15.155000	0.198884
	15.160000	0.162708
	15.165000	-0.047770
	15.170000	-0.008305
	15.175000	0.195596
	15.180000	0.159420
	15.185000	-0.047770
	15.190000	-0.008305
	15.195000	0.192307
	15.200000	0.159420
	15.205000	-0.034615
	15.210000	0.004850
	15.215000	0.192307
	15.220000	0.156131
	15.225000	-0.014883
	15.230000	0.027871
	15.235000	0.198884
	15.240000	0.142976
	15.245000	-0.021460
	15.250000	0.024582
	15.255000	0.189018
	15.260000	0.139687
	15.265000	-0.028037
	15.270000	0.031160
	15.275000	0.189018
	15.280000	0.139687
	15.285000	-0.031326
	15.290000	0.027871
	15.295000	0.195596
	15.300000	0.142976
	15.305000	-0.024749
	15.310000	0.031160
	15.315000	0.192307
	15.320000	0.142976
	15.325000	-0.028037
	15.330000	0.024582
	15.335000	0.195596
	15.340000	0.136399
	15.345000	-0.034615
	15.350000	0.024582
	15.355000	0.185730
	15.360000	0.133110
	15.365000	-0.031326
	15.370000	0.024582
	15.375000	0.189018
	15.380000	0.133110
	15.385000	-0.034615
	15.390000	0.021293
	15.395000	0.189018
	15.400000	0.129821
	15.405000	-0.034615
	15.410000	0.021293
	15.415000	0.189018
	15.420000	0.133110
	15.425000	-0.031326
	15.430000	0.031160
	15.435000	0.189018
	15.440000	0.142976
	15.445000	-0.031326
	15.450000	0.031160
	15.455000	0.198884
	15.460000	0.139687
	15.465000	-0.021460
	15.470000	0.034448
	15.475000	0.202173
	15.480000	0.139687
	15.485000	-0.024749
	15.490000	0.034448
	15.495000	0.198884
	15.500000	0.139687
	15.505000	-0.028037
	15.510000	0.031160
	15.515000	0.198884
	15.520000	0.133110
	15.525000	-0.034615
	15.530000	0.031160
	15.535000	0.195596
	15.540000	0.129821
	15.545000	-0.031326
	15.550000	0.027871
	15.555000	0.192307
	15.560000	0.136399
	15.565000	-0.031326
	15.570000	0.031160
	15.575000	0.192307
	15.580000	0.133110
	15.585000	-0.031326
	15.590000	0.034448
	15.595000	0.198884
	15.600000	0.136399
	15.605000	-0.028037
	15.610000	0.041026
	15.615000	0.202173
	15.620000	0.142976
	15.625000	-0.024749
	15.630000	0.034448
	15.635000	0.208751
	15.640000	0.139687
	15.645000	-0.021460
	15.650000	0.044314
	15.655000	0.205462
	15.660000	0.139687
	15.665000	-0.024749
	15.670000	0.047603
	15.675000	0.208751
	15.680000	0.142976
	15.685000	-0.018171
	15.690000	0.044314
	15.695000	0.208751
	15.700000	0.142976
	15.705000	-0.021460
	15.710000	0.047603
	15.715000	0.208751
	15.720000	0.139687
	15.725000	-0.024749
	15.730000	0.047603
	15.735000	0.212039
	15.740000	0.142976
	15.745000	-0.021460
	15.750000	0.050892
	15.755000	0.212039
	15.760000	0.146265
	15.765000	-0.014883
	15.770000	0.050892
	15.775000	0.212039
	15.780000	0.142976
	15.785000	-0.018171
	15.790000	0.054181
	15.795000	0.215328
	15.800000	0.139687
	15.805000	-0.031326
	15.810000	0.034448
	15.815000	0.202173
	15.820000	0.126533
	15.825000	-0.047770
	15.830000	0.027871
	15.835000	0.192307
	15.840000	0.113378
	15.845000	-0.057636
	15.850000	0.014716
	15.855000	0.179152
	15.860000	0.113378
	15.865000	-0.064213
	15.870000	0.011427
	15.875000	0.182441
	15.880000	0.110089
	15.885000	-0.060925
	15.890000	0.004850
	15.895000	0.172575
	15.900000	0.100223
	15.905000	-0.064213
	15.910000	0.001561
	15.915000	0.175863
	15.920000	0.100223
	15.925000	-0.064213
	15.930000	0.004850
	15.935000	0.172575
	15.940000	0.100223
	15.945000	-0.070791
	15.950000	0.001561
	15.955000	0.175863
	15.960000	0.100223
	15.965000	-0.067502
	15.970000	-0.001728
	15.975000	0.172575
	15.980000	0.100223
	15.985000	-0.074080
	15.990000	-0.001728
	15.995000	0.172575
	16.000000	0.093645
	16.005000	-0.080657
	16.010000	-0.001728
	16.015000	0.169286
	16.020000	0.090357
	16.025000	-0.080657
	16.030000	0.001561
	16.035000	0.162708
	16.040000	0.083779
	16.045000	-0.080657
	16.050000	-0.008305
	16.055000	0.165997
	16.060000	0.080490
	16.065000	-0.087234
	16.070000	-0.008305
	16.075000	0.162708
	16.080000	0.083779
	16.085000	-0.090523
	16.090000	-0.008305
	16.095000	0.159420
	16.100000	0.087068
	16.105000	-0.090523
	16.110000	-0.008305
	16.115000	0.159420
	16.120000	0.083779
	16.125000	-0.090523
	16.130000	-0.008305
	16.135000	0.162708
	16.140000	0.080490
	16.145000	-0.090523
	16.150000	-0.008305
	16.155000	0.162708
	16.160000	0.073913
	16.165000	-0.100389
	16.170000	-0.011594
	16.175000	0.156131
	16.180000	0.073913
	16.185000	-0.090523
	16.190000	-0.008305
	16.195000	0.156131
	16.200000	0.067335
	16.205000	-0.093812
	16.210000	-0.014883
	16.215000	0.159420
	16.220000	0.077202
	16.225000	-0.093812
	16.230000	-0.011594
	16.235000	0.159420
	16.240000	0.073913
	16.245000	-0.097101
	16.250000	-0.011594
	16.255000	0.159420
	16.260000	0.067335
	16.265000	-0.093812
	16.270000	-0.011594
	16.275000	0.156131
	16.280000	0.070624
	16.285000	-0.097101
	16.290000	-0.008305
	16.295000	0.156131
	16.300000	0.070624
	16.305000	-0.100389
	16.310000	-0.011594
	16.315000	0.152842
	16.320000	0.064047
	16.325000	-0.097101
	16.330000	-0.011594
	16.335000	0.152842
	16.340000	0.067335
	16.345000	-0.106967
	16.350000	-0.018171
	16.355000	0.149554
	16.360000	0.060758
	16.365000	-0.106967
	16.370000	-0.018171
	16.375000	0.152842
	16.380000	0.057469
	16.385000	-0.110256
	16.390000	-0.018171
	16.395000	0.142976
	16.400000	0.057469
	16.405000	-0.110256
	16.410000	-0.018171
	16.415000	0.149554
	16.420000	0.057469
	16.425000	-0.106967
	16.430000	-0.014883
	16.435000	0.146265
	16.440000	0.054181
	16.445000	-0.100389
	16.450000	-0.008305
	16.455000	0.146265
	16.460000	0.054181
	16.465000	-0.090523
	16.470000	0.018005
	16.475000	0.162708
	16.480000	0.064047
	16.485000	-0.077368
	16.490000	0.024582
	16.495000	0.169286
	16.500000	0.083779
	16.505000	-0.070791
	16.510000	0.024582
	16.515000	0.182441
	16.520000	0.077202
	16.525000	-0.060925
	16.530000	0.041026
	16.535000	0.182441
	16.540000	0.087068
	16.545000	-0.057636
	16.550000	0.041026
	16.555000	0.185730
	16.560000	0.090357
	16.565000	-0.054347
	16.570000	0.044314
	16.575000	0.192307
	16.580000	0.093645
	16.585000	-0.054347
	16.590000	0.054181
	16.595000	0.225194
	16.600000	0.119955
	16.605000	-0.057636
	16.610000	0.037737
	16.615000	0.218617
	16.620000	0.113378
	16.625000	-0.067502
	16.630000	0.037737
	16.635000	0.221905
	16.640000	0.116666
	16.645000	-0.070791
	16.650000	0.037737
	16.655000	0.225194
	16.660000	0.123244
	16.665000	-0.060925
	16.670000	0.041026
	16.675000	0.231772
	16.680000	0.126533
	16.685000	-0.060925
	16.690000	0.047603
	16.695000	0.228483
	16.700000	0.119955
	16.705000	-0.064213
	16.710000	0.044314
	16.715000	0.231772
	16.720000	0.123244
	16.725000	-0.064213
	16.730000	0.044314
	16.735000	0.225194
	16.740000	0.116666
	16.745000	-0.067502
	16.750000	0.047603
	16.755000	0.225194
	16.760000	0.116666
	16.765000	-0.064213
	16.770000	0.047603
	16.775000	0.225194
	16.780000	0.119955
	16.785000	-0.060925
	16.790000	0.050892
	16.795000	0.231772
	16.800000	0.116666
	16.805000	-0.057636
	16.810000	0.057469
	16.815000	0.238349
	16.820000	0.126533
	16.825000	-0.057636
	16.830000	0.054181
	16.835000	0.235060
	16.840000	0.123244
	16.845000	-0.060925
	16.850000	0.054181
	16.855000	0.238349
	16.860000	0.123244
	16.865000	-0.060925
	16.870000	0.057469
	16.875000	0.241638
	16.880000	0.129821
	16.885000	-0.054347
	16.890000	0.057469
	16.895000	0.231772
	16.900000	0.123244
	16.905000	-0.057636
	16.910000	0.060758
	16.915000	0.235060
	16.920000	0.119955
	16.925000	-0.060925
	16.930000	0.057469
	16.935000	0.228483
	16.940000	0.116666
	16.945000	-0.060925
	16.950000	0.054181
	16.955000	0.231772
	16.960000	0.113378
	16.965000	-0.060925
	16.970000	0.057469
	16.975000	0.231772
	16.980000	0.113378
	16.985000	-0.060925
	16.990000	0.060758
	16.995000	0.231772
	17.000000	0.116666
	17.005000	-0.054347
	17.010000	0.067335
	17.015000	0.238349
	17.020000	0.119955
	17.025000	-0.047770
	17.030000	0.070624
	17.035000	0.235060
	17.040000	0.119955
	17.045000	-0.041192
	17.050000	0.073913
	17.055000	0.235060
	17.060000	0.119955
	17.065000	-0.044481
	17.070000	0.070624
	17.075000	0.235060
	17.080000	0.113378
	17.085000	-0.047770
	17.090000	0.073913
	17.095000	0.231772
	17.100000	0.113378
	17.105000	-0.054347
	17.110000	0.067335
	17.115000	0.221905
	17.120000	0.103511
	17.125000	-0.057636
	17.130000	0.057469
	17.135000	0.215328
	17.140000	0.096934
	17.145000	-0.064213
	17.150000	0.054181
	17.155000	0.208751
	17.160000	0.090357
	17.165000	-0.057636
	17.170000	0.057469
	17.175000	0.195596
	17.180000	0.080490
	17.185000	-0.054347
	17.190000	0.064047
	17.195000	0.202173
	17.200000	0.083779
	17.205000	-0.044481
	17.210000	0.080490
	17.215000	0.212039
	17.220000	0.090357
	17.225000	-0.041192
	17.230000	0.093645
	17.235000	0.215328
	17.240000	0.103511
	17.245000	-0.031326
	17.250000	0.093645
	17.255000	0.221905
	17.260000	0.096934
	17.265000	-0.031326
	17.270000	0.093645
	17.275000	0.215328
	17.280000	0.093645
	17.285000	-0.031326
	17.290000	0.093645
	17.295000	0.218617
	17.300000	0.087068
	17.305000	-0.037904
	17.310000	0.087068
	17.315000	0.215328
	17.320000	0.090357
	17.325000	-0.037904
	17.330000	0.083779
	17.335000	0.212039
	17.340000	0.087068
	17.345000	-0.044481
	17.350000	0.090357
	17.355000	0.215328
	17.360000	0.087068
	17.365000	-0.037904
	17.370000	0.090357
	17.375000	0.212039
	17.380000	0.083779
	17.385000	-0.037904
	17.390000	0.093645
	17.395000	0.215328
	17.400000	0.093645
	17.405000	-0.034615
	17.410000	0.093645
	17.415000	0.215328
	17.420000	0.090357
	17.425000	-0.031326
	17.430000	0.090357
	17.435000	0.215328
	17.440000	0.093645
	17.445000	-0.034615
	17.450000	0.096934
	17.455000	0.215328
	17.460000	0.090357
	17.465000	-0.034615
	17.470000	0.093645
	17.475000	0.215328
	17.480000	0.087068
	17.485000	-0.031326
	17.490000	0.093645
	17.495000	0.215328
	17.500000	0.087068
	17.505000	-0.031326
	17.510000	0.096934
	17.515000	0.218617
	17.520000	0.083779
	17.525000	-0.034615
	17.530000	0.096934
	17.535000	0.215328
	17.540000	0.083779
	17.545000	-0.031326
	17.550000	0.103511
	17.555000	0.215328
	17.560000	0.087068
	17.565000	-0.034615
	17.570000	0.096934
	17.575000	0.215328
	17.580000	0.083779
	17.585000	-0.031326
	17.590000	0.100223
	17.595000	0.218617
	17.600000	0.087068
	17.605000	-0.037904
	17.610000	0.100223
	17.615000	0.215328
	17.620000	0.083779
	17.625000	-0.034615
	17.630000	0.100223
	17.635000	0.218617
	17.640000	0.083779
	17.645000	-0.034615
	17.650000	0.100223
	17.655000	0.218617
	17.660000	0.087068
	17.665000	-0.034615
	17.670000	0.103511
	17.675000	0.215328
	17.680000	0.083779
	17.685000	-0.031326
	17.690000	0.103511
	17.695000	0.218617
	17.700000	0.083779
	17.705000	-0.034615
	17.710000	0.100223
	17.715000	0.215328
	17.720000	0.077202
	17.725000	-0.034615
	17.730000	0.100223
	17.735000	0.215328
	17.740000	0.080490
	17.745000	-0.034615
	17.750000	0.103511
	17.755000	0.215328
	17.760000	0.077202
	17.765000	-0.031326
	17.770000	0.100223
	17.775000	0.212039
	17.780000	0.080490
	17.785000	-0.028037
	17.790000	0.110089
	17.795000	0.218617
	17.800000	0.080490
	17.805000	-0.034615
	17.810000	0.106800
	17.815000	0.215328
	17.820000	0.077202
	17.825000	-0.034615
	17.830000	0.103511
	17.835000	0.215328
	17.840000	0.077202
	17.845000	-0.044481
	17.850000	0.093645
	17.855000	0.205462
	17.860000	0.064047
	17.865000	-0.057636
	17.870000	0.083779
	17.875000	0.195596
	17.880000	0.054181
	17.885000	-0.064213
	17.890000	0.077202
	17.895000	0.189018
	17.900000	0.044314
	17.905000	-0.074080
	17.910000	0.067335
	17.915000	0.185730
	17.920000	0.041026
	17.925000	-0.077368
	17.930000	0.067335
	17.935000	0.179152
	17.940000	0.034448
	17.945000	-0.070791
	17.950000	0.067335
	17.955000	0.172575
	17.960000	0.031160
	17.965000	-0.067502
	17.970000	0.083779
	17.975000	0.185730
	17.980000	0.044314
	17.985000	-0.051059
	17.990000	0.093645
	17.995000	0.198884
	18.000000	0.054181
	18.005000	-0.041192
	18.010000	0.103511
	18.015000	0.202173
	18.020000	0.060758
	18.025000	-0.034615
	18.030000	0.110089
	18.035000	0.218617
	18.040000	0.064047
	18.045000	-0.064213
	18.050000	0.093645
	18.055000	0.228483
	18.060000	0.077202
	18.065000	-0.064213
	18.070000	0.103511
	18.075000	0.238349
	18.080000	0.080490
	18.085000	-0.057636
	18.090000	0.103511
	18.095000	0.241638
	18.100000	0.077202
	18.105000	-0.060925
	18.110000	0.103511
	18.115000	0.241638
	18.120000	0.077202
	18.125000	-0.064213
	18.130000	0.100223
	18.135000	0.238349
	18.140000	0.077202
	18.145000	-0.060925
	18.150000	0.096934
	18.155000	0.241638
	18.160000	0.073913
	18.165000	-0.064213
	18.170000	0.103511
	18.175000	0.241638
	18.180000	0.077202
	18.185000	-0.060925
	18.190000	0.110089
	18.195000	0.244927
	18.200000	0.080490
	18.205000	-0.054347
	18.210000	0.110089
	18.215000	0.244927
	18.220000	0.073913
	18.225000	-0.054347
	18.230000	0.113378
	18.235000	0.241638
	18.240000	0.080490
	18.245000	-0.054347
	18.250000	0.113378
	18.255000	0.248215
	18.260000	0.083779
	18.265000	-0.047770
	18.270000	0.119955
	18.275000	0.251504
	18.280000	0.090357
	18.285000	-0.041192
	18.290000	0.123244
	18.295000	0.248215
	18.300000	0.083779
	18.305000	-0.044481
	18.310000	0.113378
	18.315000	0.238349
	18.320000	0.083779
	18.325000	-0.021460
	18.330000	0.126533
	18.335000	0.225194
	18.340000	0.067335
	18.345000	-0.031326
	18.350000	0.119955
	18.355000	0.218617
	18.360000	0.064047
	18.365000	-0.037904
	18.370000	0.119955
	18.375000	0.208751
	18.380000	0.057469
	18.385000	-0.037904
	18.390000	0.116666
	18.395000	0.208751
	18.400000	0.054181
	18.405000	-0.034615
	18.410000	0.119955
	18.415000	0.218617
	18.420000	0.064047
	18.425000	-0.031326
	18.430000	0.123244
	18.435000	0.218617
	18.440000	0.057469
	18.445000	-0.028037
	18.450000	0.126533
	18.455000	0.218617
	18.460000	0.060758
	18.465000	-0.024749
	18.470000	0.126533
	18.475000	0.215328
	18.480000	0.064047
	18.485000	-0.031326
	18.490000	0.129821
	18.495000	0.218617
	18.500000	0.064047
	18.505000	-0.028037
	18.510000	0.126533
	18.515000	0.215328
	18.520000	0.057469
	18.525000	-0.031326
	18.530000	0.123244
	18.535000	0.212039
	18.540000	0.054181
	18.545000	-0.041192
	18.550000	0.116666
	18.555000	0.205462
	18.560000	0.050892
	18.565000	-0.037904
	18.570000	0.119955
	18.575000	0.205462
	18.580000	0.047603
	18.585000	-0.037904
	18.590000	0.116666
	18.595000	0.205462
	18.600000	0.050892
	18.605000	-0.037904
	18.610000	0.123244
	18.615000	0.208751
	18.620000	0.050892
	18.625000	-0.034615
	18.630000	0.123244
	18.635000	0.208751
	18.640000	0.050892
	18.645000	-0.034615
	18.650000	0.126533
	18.655000	0.215328
	18.660000	0.054181
	18.665000	-0.031326
	18.670000	0.129821
	18.675000	0.215328
	18.680000	0.050892
	18.685000	-0.034615
	18.690000	0.126533
	18.695000	0.212039
	18.700000	0.050892
	18.705000	-0.028037
	18.710000	0.126533
	18.715000	0.212039
	18.720000	0.047603
	18.725000	-0.031326
	18.730000	0.126533
	18.735000	0.208751
	18.740000	0.050892
	18.745000	-0.031326
	18.750000	0.126533
	18.755000	0.208751
	18.760000	0.044314
	18.765000	-0.031326
	18.770000	0.126533
	18.775000	0.212039
	18.780000	0.044314
	18.785000	-0.031326
	18.790000	0.129821
	18.795000	0.208751
	18.800000	0.044314
	18.805000	-0.037904
	18.810000	0.123244
	18.815000	0.205462
	18.820000	0.041026
	18.825000	-0.037904
	18.830000	0.123244
	18.835000	0.205462
	18.840000	0.041026
	18.845000	-0.034615
	18.850000	0.123244
	18.855000	0.205462
	18.860000	0.041026
	18.865000	-0.041192
	18.870000	0.126533
	18.875000	0.208751
	18.880000	0.037737
	18.885000	-0.034615
	18.890000	0.129821
	18.895000	0.212039
	18.900000	0.041026
	18.905000	-0.034615
	18.910000	0.126533
	18.915000	0.208751
	18.920000	0.041026
	18.925000	-0.034615
	18.930000	0.133110
	18.935000	0.212039
	18.940000	0.041026
	18.945000	-0.037904
	18.950000	0.133110
	18.955000	0.208751
	18.960000	0.041026
	18.965000	-0.034615
	18.970000	0.136399
	18.975000	0.208751
	18.980000	0.044314
	18.985000	-0.031326
	18.990000	0.139687
	18.995000	0.208751
	19.000000	0.041026
	19.005000	-0.034615
	19.010000	0.129821
	19.015000	0.208751
	19.020000	0.037737
	19.025000	-0.031326
	19.030000	0.139687
	19.035000	0.212039
	19.040000	0.037737
	19.045000	-0.037904
	19.050000	0.133110
	19.055000	0.208751
	19.060000	0.037737
	19.065000	-0.031326
	19.070000	0.136399
	19.075000	0.208751
	19.080000	0.034448
	19.085000	-0.028037
	19.090000	0.136399
	19.095000	0.212039
	19.100000	0.037737
	19.105000	-0.037904
	19.110000	0.136399
	19.115000	0.208751
	19.120000	0.034448
	19.125000	-0.031326
	19.130000	0.139687
	19.135000	0.205462
	19.140000	0.034448
	19.145000	-0.034615
	19.150000	0.139687
	19.155000	0.208751
	19.160000	0.037737
	19.165000	-0.034615
	19.170000	0.139687
	19.175000	0.208751
	19.180000	0.034448
	19.185000	-0.031326
	19.190000	0.149554
	19.195000	0.208751
	19.200000	0.041026
	19.205000	-0.031326
	19.210000	0.139687
	19.215000	0.202173
	19.220000	0.034448
	19.225000	-0.028037
	19.230000	0.142976
	19.235000	0.208751
	19.240000	0.034448
	19.245000	-0.028037
	19.250000	0.142976
	19.255000	0.208751
	19.260000	0.034448
	19.265000	-0.028037
	19.270000	0.139687
	19.275000	0.205462
	19.280000	0.037737
	19.285000	-0.031326
	19.290000	0.142976
	19.295000	0.205462
	19.300000	0.034448
	19.305000	-0.028037
	19.310000	0.142976
	19.315000	0.205462
	19.320000	0.031160
	19.325000	-0.028037
	19.330000	0.146265
	19.335000	0.202173
	19.340000	0.027871
	19.345000	-0.037904
	19.350000	0.126533
	19.355000	0.189018
	19.360000	0.014716
	19.365000	-0.051059
	19.370000	0.119955
	19.375000	0.179152
	19.380000	0.011427
	19.385000	-0.037904
	19.390000	0.133110
	19.395000	0.189018
	19.400000	0.021293
	19.405000	-0.031326
	19.410000	0.136399
	19.415000	0.189018
	19.420000	0.018005
	19.425000	-0.028037
	19.430000	0.146265
	19.435000	0.195596
	19.440000	0.027871
	19.445000	-0.014883
	19.450000	0.149554
	19.455000	0.198884
	19.460000	0.034448
	19.465000	-0.011594
	19.470000	0.156131
	19.475000	0.195596
	19.480000	0.014716
	19.485000	-0.054347
	19.490000	0.142976
	19.495000	0.225194
	19.500000	0.027871
	19.505000	-0.044481
	19.510000	0.149554
	19.515000	0.225194
	19.520000	0.031160
	19.525000	-0.041192
	19.530000	0.152842
	19.535000	0.228483
	19.540000	0.027871
	19.545000	-0.051059
	19.550000	0.152842
	19.555000	0.228483
	19.560000	0.027871
	19.565000	-0.047770
	19.570000	0.149554
	19.575000	0.225194
	19.580000	0.024582
	19.585000	-0.051059
	19.590000	0.156131
	19.595000	0.225194
	19.600000	0.024582
	19.605000	-0.051059
	19.610000	0.156131
	19.615000	0.228483
	19.620000	0.024582
	19.625000	-0.047770
	19.630000	0.156131
	19.635000	0.228483
	19.640000	0.027871
	19.645000	-0.041192
	19.650000	0.162708
	19.655000	0.231772
	19.660000	0.031160
	19.665000	-0.047770
	19.670000	0.159420
	19.675000	0.231772
	19.680000	0.027871
	19.685000	-0.044481
	19.690000	0.159420
	19.695000	0.231772
	19.700000	0.027871
	19.705000	-0.041192
	19.710000	0.162708
	19.715000	0.228483
	19.720000	0.021293
	19.725000	-0.041192
	19.730000	0.162708
	19.735000	0.228483
	19.740000	0.034448
	19.745000	-0.034615
	19.750000	0.169286
	19.755000	0.235060
	19.760000	0.027871
	19.765000	-0.031326
	19.770000	0.165997
	19.775000	0.225194
	19.780000	0.024582
	19.785000	-0.037904
	19.790000	0.162708
	19.795000	0.221905
	19.800000	0.018005
	19.805000	-0.041192
	19.810000	0.152842
	19.815000	0.215328
	19.820000	0.018005
	19.825000	-0.041192
	19.830000	0.149554
	19.835000	0.208751
	19.840000	0.011427
	19.845000	-0.044481
	19.850000	0.146265
	19.855000	0.202173
	19.860000	0.018005
	19.865000	-0.041192
	19.870000	0.149554
	19.875000	0.198884
	19.880000	0.018005
	19.885000	-0.021460
	19.890000	0.162708
	19.895000	0.218617
	19.900000	0.031160
	19.905000	-0.014883
	19.910000	0.169286
	19.915000	0.215328
	19.920000	0.031160
	19.925000	-0.011594
	19.930000	0.172575
	19.935000	0.218617
	19.940000	0.027871
	19.945000	-0.011594
	19.950000	0.165997
	19.955000	0.212039
	19.960000	0.027871
	19.965000	-0.011594
	19.970000	0.165997
	19.975000	0.208751
	19.980000	0.021293
	19.985000	-0.014883
	19.990000	0.169286
	19.995000	0.195596
	20.000000	0.014716
	20.005000	-0.008305
	20.010000	0.172575
	20.015000	0.195596
	20.020000	0.021293
	20.025000	-0.005016
	20.030000	0.172575
	20.035000	0.195596
	20.040000	0.018005
	20.045000	-0.008305
	20.050000	0.169286
	20.055000	0.198884
	20.060000	0.018005
	20.065000	-0.008305
	20.070000	0.172575
	20.075000	0.192307
	20.080000	0.021293
	20.085000	-0.001728
	20.090000	0.175863
	20.095000	0.202173
	20.100000	0.018005
	20.105000	-0.001728
	20.110000	0.175863
	20.115000	0.202173
	20.120000	0.024582
	20.125000	0.001561
	20.130000	0.175863
	20.135000	0.198884
	20.140000	0.024582
	20.145000	0.001561
	20.150000	0.179152
	20.155000	0.195596
	20.160000	0.021293
	20.165000	-0.001728
	20.170000	0.169286
	20.175000	0.195596
	20.180000	0.018005
	20.185000	-0.001728
	20.190000	0.169286
	20.195000	0.195596
	20.200000	0.018005
	20.205000	-0.001728
	20.210000	0.175863
	20.215000	0.189018
	20.220000	0.018005
	20.225000	-0.001728
	20.230000	0.175863
	20.235000	0.192307
	20.240000	0.014716
	20.245000	-0.005016
	20.250000	0.172575
	20.255000	0.189018
	20.260000	0.011427
	20.265000	-0.005016
	20.270000	0.172575
	20.275000	0.189018
	20.280000	0.011427
	20.285000	0.001561
	20.290000	0.172575
	20.295000	0.192307
	20.300000	0.011427
	20.305000	0.001561
	20.310000	0.175863
	20.315000	0.185730
	20.320000	0.011427
	20.325000	-0.001728
	20.330000	0.179152
	20.335000	0.189018
	20.340000	0.011427
	20.345000	0.004850
	20.350000	0.179152
	20.355000	0.192307
	20.360000	0.008138
	20.365000	0.001561
	20.370000	0.179152
	20.375000	0.189018
	20.380000	0.011427
	20.385000	0.001561
	20.390000	0.179152
	20.395000	0.192307
	20.400000	0.011427
	20.405000	0.004850
	20.410000	0.179152
	20.415000	0.185730
	20.420000	0.011427
	20.425000	0.001561
	20.430000	0.179152
	20.435000	0.189018
	20.440000	0.008138
	20.445000	0.004850
	20.450000	0.182441
	20.455000	0.189018
	20.460000	0.011427
	20.465000	0.004850
	20.470000	0.182441
	20.475000	0.185730
	20.480000	0.008138
	20.485000	0.001561
	20.490000	0.179152
	20.495000	0.185730
	20.500000	0.011427
	20.505000	0.008138
	20.510000	0.182441
	20.515000	0.189018
	20.520000	0.004850
	20.525000	0.004850
	20.530000	0.182441
	20.535000	0.185730
	20.540000	0.011427
	20.545000	0.004850
	20.550000	0.182441
	20.555000	0.185730
	20.560000	0.004850
	20.565000	0.001561
	20.570000	0.182441
	20.575000	0.179152
	20.580000	0.011427
	20.585000	0.011427
	20.590000	0.182441
	20.595000	0.185730
	20.600000	-0.001728
	20.605000	-0.008305
	20.610000	0.172575
	20.615000	0.169286
	20.620000	-0.008305
	20.625000	-0.014883
	20.630000	0.159420
	20.635000	0.162708
	20.640000	-0.021460
	20.645000	-0.034615
	20.650000	0.146265
	20.655000	0.149554
	20.660000	-0.034615
	20.665000	-0.041192
	20.670000	0.129821
	20.675000	0.139687
	20.680000	-0.041192
	20.685000	-0.044481
	20.690000	0.133110
	20.695000	0.139687
	20.700000	-0.044481
	20.705000	-0.047770
	20.710000	0.126533
	20.715000	0.133110
	20.720000	-0.047770
	20.725000	-0.054347
	20.730000	0.133110
	20.735000	0.136399
	20.740000	-0.047770
	20.745000	-0.054347
	20.750000	0.126533
	20.755000	0.129821
	20.760000	-0.054347
	20.765000	-0.057636
	20.770000	0.129821
	20.775000	0.129821
	20.780000	-0.047770
	20.785000	-0.057636
	20.790000	0.129821
	20.795000	0.129821
	20.800000	-0.051059
	20.805000	-0.051059
	20.810000	0.129821
	20.815000	0.133110
	20.820000	-0.057636
	20.825000	-0.051059
	20.830000	0.133110
	20.835000	0.129821
	20.840000	-0.054347
	20.845000	-0.051059
	20.850000	0.133110
	20.855000	0.123244
	20.860000	-0.060925
	20.865000	-0.051059
	20.870000	0.126533
	20.875000	0.119955
	20.880000	-0.060925
	20.885000	-0.047770
	20.890000	0.129821
	20.895000	0.116666
	20.900000	-0.067502
	20.905000	-0.054347
	20.910000	0.123244
	20.915000	0.116666
	20.920000	-0.067502
	20.925000	-0.057636
	20.930000	0.123244
	20.935000	0.113378
	20.940000	-0.067502
	20.945000	-0.057636
	20.950000	0.119955
	20.955000	0.116666
	20.960000	-0.070791
	20.965000	-0.060925
	20.970000	0.116666
	20.975000	0.113378
	20.980000	-0.074080
	20.985000	-0.060925
	20.990000	0.113378
	20.995000	0.103511
	21.000000	-0.080657
	21.005000	-0.064213
	21.010000	0.110089
	21.015000	0.096934
	21.020000	-0.087234
	21.025000	-0.070791
	21.030000	0.106800
	21.035000	0.090357
	21.040000	-0.083946
	21.045000	-0.067502
	21.050000	0.106800
	21.055000	0.093645
	21.060000	-0.080657
	21.065000	-0.067502
	21.070000	0.110089
	21.075000	0.090357
	21.080000	-0.080657
	21.085000	-0.064213
	21.090000	0.110089
	21.095000	0.093645
	21.100000	-0.087234
	21.105000	-0.067502
	21.110000	0.110089
	21.115000	0.087068
	21.120000	-0.087234
	21.125000	-0.067502
	21.130000	0.103511
	21.135000	0.090357
	21.140000	-0.087234
	21.145000	-0.064213
	21.150000	0.106800
	21.155000	0.087068
	21.160000	-0.090523
	21.165000	-0.077368
	21.170000	0.100223
	21.175000	0.083779
	21.180000	-0.100389
	21.185000	-0.074080
	21.190000	0.103511
	21.195000	0.083779
	21.200000	-0.093812
	21.205000	-0.077368
	21.210000	0.096934
	21.215000	0.073913
	21.220000	-0.103678
	21.225000	-0.080657
	21.230000	0.090357
	21.235000	0.064047
	21.240000	-0.110256
	21.245000	-0.080657
	21.250000	0.096934
	21.255000	0.060758
	21.260000	-0.110256
	21.265000	-0.074080
	21.270000	0.106800
	21.275000	0.087068
	21.280000	-0.083946
	21.285000	-0.051059
	21.290000	0.123244
	21.295000	0.093645
	21.300000	-0.074080
	21.305000	-0.034615
	21.310000	0.159420
	21.315000	0.152842
	21.320000	-0.057636
	21.325000	-0.041192
	21.330000	0.169286
	21.335000	0.162708
	21.340000	-0.051059
	21.345000	-0.031326
	21.350000	0.172575
	21.355000	0.169286
	21.360000	-0.044481
	21.365000	-0.034615
	21.370000	0.179152
	21.375000	0.169286
	21.380000	-0.051059
	21.385000	-0.031326
	21.390000	0.182441
	21.395000	0.169286
	21.400000	-0.047770
	21.405000	-0.031326
	21.410000	0.182441
	21.415000	0.169286
	21.420000	-0.044481
	21.425000	-0.024749
	21.430000	0.179152
	21.435000	0.172575
	21.440000	-0.044481
	21.445000	-0.024749
	21.450000	0.185730
	21.455000	0.169286
	21.460000	-0.041192
	21.465000	-0.028037
	21.470000	0.189018
	21.475000	0.172575
	21.480000	-0.041192
	21.485000	-0.024749
	21.490000	0.192307
	21.495000	0.175863
	21.500000	-0.037904
	21.505000	-0.014883
	21.510000	0.192307
	21.515000	0.179152
	21.520000	-0.028037
	21.525000	-0.008305
	21.530000	0.189018
	21.535000	0.179152
	21.540000	-0.005016
	21.545000	0.024582
	21.550000	0.198884
	21.555000	0.159420
	21.560000	-0.018171
	21.565000	0.018005
	21.570000	0.185730
	21.575000	0.139687
	21.580000	-0.031326
	21.585000	0.008138
	21.590000	0.172575
	21.595000	0.136399
	21.600000	-0.034615
	21.605000	0.004850
	21.610000	0.172575
	21.615000	0.129821
	21.620000	-0.041192
	21.625000	0.001561
	21.630000	0.172575
	21.635000	0.136399
	21.640000	-0.034615
	21.645000	0.001561
	21.650000	0.172575
	21.655000	0.136399
	21.660000	-0.037904
	21.665000	0.008138
	21.670000	0.175863
	21.675000	0.133110
	21.680000	-0.037904
	21.685000	0.011427
	21.690000	0.179152
	21.695000	0.139687
	21.700000	-0.037904
	21.705000	0.008138
	21.710000	0.182441
	21.715000	0.142976
	21.720000	-0.041192
	21.725000	0.001561
	21.730000	0.172575
	21.735000	0.133110
	21.740000	-0.044481
	21.745000	-0.008305
	21.750000	0.165997
	21.755000	0.126533
	21.760000	-0.057636
	21.765000	-0.014883
	21.770000	0.156131
	21.775000	0.119955
	21.780000	-0.060925
	21.785000	-0.021460
	21.790000	0.149554
	21.795000	0.106800
	21.800000	-0.074080
	21.805000	-0.031326
	21.810000	0.149554
	21.815000	0.103511
	21.820000	-0.077368
	21.825000	-0.041192
	21.830000	0.139687
	21.835000	0.100223
	21.840000	-0.083946
	21.845000	-0.037904
	21.850000	0.142976
	21.855000	0.096934
	21.860000	-0.083946
	21.865000	-0.037904
	21.870000	0.142976
	21.875000	0.103511
	21.880000	-0.080657
	21.885000	-0.037904
	21.890000	0.142976
	21.895000	0.100223
	21.900000	-0.080657
	21.905000	-0.034615
	21.910000	0.139687
	21.915000	0.100223
	21.920000	-0.083946
	21.925000	-0.037904
	21.930000	0.139687
	21.935000	0.096934
	21.940000	-0.083946
	21.945000	-0.037904
	21.950000	0.136399
	21.955000	0.090357
	21.960000	-0.093812
	21.965000	-0.041192
	21.970000	0.133110
	21.975000	0.087068
	21.980000	-0.090523
	21.985000	-0.044481
	21.990000	0.133110
	21.995000	0.083779
	22.000000	-0.093812
	22.005000	-0.047770
	22.010000	0.133110
	22.015000	0.087068
	22.020000	-0.093812
	22.025000	-0.051059
	22.030000	0.133110
	22.035000	0.087068
	22.040000	-0.097101
	22.045000	-0.041192
	22.050000	0.129821
	22.055000	0.087068
	22.060000	-0.093812
	22.065000	-0.047770
	22.070000	0.133110
	22.075000	0.087068
	22.080000	-0.097101
	22.085000	-0.041192
	22.090000	0.136399
	22.095000	0.083779
	22.100000	-0.100389
	22.105000	-0.044481
	22.110000	0.133110
	22.115000	0.080490
	22.120000	-0.093812
	22.125000	-0.044481
	22.130000	0.136399
	22.135000	0.090357
	22.140000	-0.103678
	22.145000	-0.044481
	22.150000	0.133110
	22.155000	0.083779
	22.160000	-0.103678
	22.165000	-0.041192
	22.170000	0.129821
	22.175000	0.077202
	22.180000	-0.106967
	22.185000	-0.047770
	22.190000	0.136399
	22.195000	0.077202
	22.200000	-0.100389
	22.205000	-0.044481
	22.210000	0.133110
	22.215000	0.077202
	22.220000	-0.103678
	22.225000	-0.047770
	22.230000	0.129821
	22.235000	0.077202
	22.240000	-0.103678
	22.245000	-0.047770
	22.250000	0.133110
	22.255000	0.073913
	22.260000	-0.103678
	22.265000	-0.051059
	22.270000	0.133110
	22.275000	0.073913
	22.280000	-0.106967
	22.285000	-0.044481
	22.290000	0.133110
	22.295000	0.073913
	22.300000	-0.106967
	22.305000	-0.041192
	22.310000	0.136399
	22.315000	0.070624
	22.320000	-0.106967
	22.325000	-0.044481
	22.330000	0.126533
	22.335000	0.067335
	22.340000	-0.110256
	22.345000	-0.051059
	22.350000	0.129821
	22.355000	0.067335
	22.360000	-0.113544
	22.365000	-0.047770
	22.370000	0.129821
	22.375000	0.067335
	22.380000	-0.113544
	22.385000	-0.047770
	22.390000	0.129821
	22.395000	0.067335
	22.400000	-0.113544
	22.405000	-0.051059
	22.410000	0.129821
	22.415000	0.067335
	22.420000	-0.113544
	22.425000	-0.051059
	22.430000	0.129821
	22.435000	0.067335
	22.440000	-0.106967
	22.445000	-0.044481
	22.450000	0.129821
	22.455000	0.067335
	22.460000	-0.116833
	22.465000	-0.051059
	22.470000	0.129821
	22.475000	0.064047
	22.480000	-0.113544
	22.485000	-0.051059
	22.490000	0.126533
	22.495000	0.064047
	22.500000	-0.120122
	22.505000	-0.044481
	22.510000	0.126533
	22.515000	0.057469
	22.520000	-0.116833
	22.525000	-0.047770
	22.530000	0.126533
	22.535000	0.064047
	22.540000	-0.116833
	22.545000	-0.044481
	22.550000	0.126533
	22.555000	0.057469
	22.560000	-0.116833
	22.565000	-0.047770
	22.570000	0.129821
	22.575000	0.060758
	22.580000	-0.120122
	22.585000	-0.047770
	22.590000	0.129821
	22.595000	0.054181
	22.600000	-0.120122
	22.605000	-0.037904
	22.610000	0.129821
	22.615000	0.057469
	22.620000	-0.120122
	22.625000	-0.044481
	22.630000	0.126533
	22.635000	0.060758
	22.640000	-0.116833
	22.645000	-0.041192
	22.650000	0.129821
	22.655000	0.054181
	22.660000	-0.116833
	22.665000	-0.044481
	22.670000	0.126533
	22.675000	0.050892
	22.680000	-0.120122
	22.685000	-0.047770
	22.690000	0.126533
	22.695000	0.054181
	22.700000	-0.123410
	22.705000	-0.044481
	22.710000	0.126533
	22.715000	0.047603
	22.720000	-0.126699
	22.725000	-0.044481
	22.730000	0.133110
	22.735000	0.054181
	22.740000	-0.126699
	22.745000	-0.047770
	22.750000	0.126533
	22.755000	0.047603
	22.760000	-0.126699
	22.765000	-0.047770
	22.770000	0.126533
	22.775000	0.047603
	22.780000	-0.129988
	22.785000	-0.044481
	22.790000	0.126533
	22.795000	0.047603
	22.800000	-0.133277
	22.805000	-0.044481
	22.810000	0.126533
	22.815000	0.044314
	22.820000	-0.126699
	22.825000	-0.047770
	22.830000	0.123244
	22.835000	0.050892
	22.840000	-0.126699
	22.845000	-0.044481
	22.850000	0.126533
	22.855000	0.041026
	22.860000	-0.126699
	22.865000	-0.041192
	22.870000	0.126533
	22.875000	0.044314
	22.880000	-0.133277
	22.885000	-0.044481
	22.890000	0.126533
	22.895000	0.041026
	22.900000	-0.126699
	22.905000	-0.037904
	22.910000	0.129821
	22.915000	0.041026
	22.920000	-0.123410
	22.925000	-0.037904
	22.930000	0.129821
	22.935000	0.037737
	22.940000	-0.123410
	22.945000	-0.034615
	22.950000	0.119955
	22.955000	0.041026
	22.960000	-0.116833
	22.965000	-0.028037
	22.970000	0.129821
	22.975000	0.034448
	22.980000	-0.106967
	22.985000	-0.018171
	22.990000	0.139687
	22.995000	0.047603
	23.000000	-0.097101
	23.005000	0.008138
	23.010000	0.195596
	23.015000	0.110089
	23.020000	-0.080657
	23.025000	0.008138
	23.030000	0.189018
	23.035000	0.106800
	23.040000	-0.087234
	23.045000	0.004850
	23.050000	0.198884
	23.055000	0.110089
	23.060000	-0.080657
	23.065000	0.011427
	23.070000	0.205462
	23.075000	0.110089
	23.080000	-0.080657
	23.085000	0.014716
	23.090000	0.202173
	23.095000	0.113378
	23.100000	-0.083946
	23.105000	0.011427
	23.110000	0.202173
	23.115000	0.110089
	23.120000	-0.083946
	23.125000	0.011427
	23.130000	0.202173
	23.135000	0.110089
	23.140000	-0.083946
	23.145000	0.014716
	23.150000	0.202173
	23.155000	0.106800
	23.160000	-0.080657
	23.165000	0.011427
	23.170000	0.205462
	23.175000	0.110089
	23.180000	-0.077368
	23.185000	0.018005
	23.190000	0.208751
	23.195000	0.113378
	23.200000	-0.080657
	23.205000	0.018005
	23.210000	0.212039
	23.215000	0.116666
	23.220000	-0.077368
	23.225000	0.021293
	23.230000	0.208751
	23.235000	0.113378
	23.240000	-0.077368
	23.245000	0.024582
	23.250000	0.215328
	23.255000	0.113378
	23.260000	-0.070791
	23.265000	0.027871
	23.270000	0.212039
	23.275000	0.113378
	23.280000	-0.067502
	23.285000	0.034448
	23.290000	0.215328
	23.295000	0.116666
	23.300000	-0.067502
	23.305000	0.031160
	23.310000	0.215328
	23.315000	0.116666
	23.320000	-0.074080
	23.325000	0.021293
	23.330000	0.195596
	23.335000	0.093645
	23.340000	-0.067502
	23.345000	0.021293
	23.350000	0.185730
	23.355000	0.087068
	23.360000	-0.067502
	23.365000	0.031160
	23.370000	0.182441
	23.375000	0.080490
	23.380000	-0.064213
	23.385000	0.034448
	23.390000	0.185730
	23.395000	0.087068
	23.400000	-0.067502
	23.405000	0.041026
	23.410000	0.185730
	23.415000	0.080490
	23.420000	-0.060925
	23.425000	0.044314
	23.430000	0.189018
	23.435000	0.093645
	23.440000	-0.054347
	23.445000	0.047603
	23.450000	0.198884
	23.455000	0.090357
	23.460000	-0.051059
	23.465000	0.054181
	23.470000	0.198884
	23.475000	0.093645
	23.480000	-0.054347
	23.485000	0.054181
	23.490000	0.198884
	23.495000	0.090357
	23.500000	-0.057636
	23.505000	0.054181
	23.510000	0.195596
	23.515000	0.087068
	23.520000	-0.060925
	23.525000	0.044314
	23.530000	0.195596
	23.535000	0.083779
	23.540000	-0.064213
	23.545000	0.044314
	23.550000	0.195596
	23.555000	0.083779
	23.560000	-0.060925
	23.565000	0.041026
	23.570000	0.185730
	23.575000	0.080490
	23.580000	-0.067502
	23.585000	0.047603
	23.590000	0.185730
	23.595000	0.080490
	23.600000	-0.060925
	23.605000	0.044314
	23.610000	0.192307
	23.615000	0.080490
	23.620000	-0.060925
	23.625000	0.047603
	23.630000	0.198884
	23.635000	0.087068
	23.640000	-0.054347
	23.645000	0.054181
	23.650000	0.198884
	23.655000	0.087068
	23.660000	-0.057636
	23.665000	0.057469
	23.670000	0.195596
	23.675000	0.083779
	23.680000	-0.054347
	23.685000	0.054181
	23.690000	0.195596
	23.695000	0.080490
	23.700000	-0.060925
	23.705000	0.047603
	23.710000	0.195596
	23.715000	0.080490
	23.720000	-0.064213
	23.725000	0.054181
	23.730000	0.189018
	23.735000	0.077202
	23.740000	-0.060925
	23.745000	0.050892
	23.750000	0.192307
	23.755000	0.077202
	23.760000	-0.064213
	23.765000	0.050892
	23.770000	0.185730
	23.775000	0.077202
	23.780000	-0.060925
	23.785000	0.054181
	23.790000	0.195596
	23.795000	0.080490
	23.800000	-0.057636
	23.805000	0.064047
	23.810000	0.198884
	23.815000	0.077202
	23.820000	-0.054347
	23.825000	0.070624
	23.830000	0.198884
	23.835000	0.083779
	23.840000	-0.054347
	23.845000	0.064047
	23.850000	0.198884
	23.855000	0.080490
	23.860000	-0.054347
	23.865000	0.070624
	23.870000	0.198884
	23.875000	0.083779
	23.880000	-0.057636
	23.885000	0.064047
	23.890000	0.198884
	23.895000	0.077202
	23.900000	-0.054347
	23.905000	0.060758
	23.910000	0.192307
	23.915000	0.073913
	23.920000	-0.064213
	23.925000	0.064047
	23.930000	0.192307
	23.935000	0.067335
	23.940000	-0.060925
	23.945000	0.054181
	23.950000	0.192307
	23.955000	0.070624
	23.960000	-0.060925
	23.965000	0.057469
	23.970000	0.185730
	23.975000	0.067335
	23.980000	-0.057636
	23.985000	0.060758
	23.990000	0.192307
	23.995000	0.064047
	24.000000	-0.057636
	24.005000	0.067335
	24.010000	0.198884
	24.015000	0.073913
	24.020000	-0.054347
	24.025000	0.070624
	24.030000	0.198884
	24.035000	0.073913
	24.040000	-0.051059
	24.045000	0.070624
	24.050000	0.202173
	24.055000	0.073913
	24.060000	-0.051059
	24.065000	0.080490
	24.070000	0.195596
	24.075000	0.080490
	24.080000	-0.041192
	24.085000	0.080490
	24.090000	0.208751
	24.095000	0.080490
	24.100000	-0.044481
	24.105000	0.090357
	24.110000	0.205462
	24.115000	0.083779
	24.120000	-0.037904
	24.125000	0.087068
	24.130000	0.208751
	24.135000	0.080490
	24.140000	-0.041192
	24.145000	0.087068
	24.150000	0.205462
	24.155000	0.077202
	24.160000	-0.047770
	24.165000	0.083779
	24.170000	0.205462
	24.175000	0.083779
	24.180000	-0.044481
	24.185000	0.083779
	24.190000	0.202173
	24.195000	0.070624
	24.200000	-0.047770
	24.205000	0.070624
	24.210000	0.198884
	24.215000	0.067335
	24.220000	-0.064213
	24.225000	0.057469
	24.230000	0.185730
	24.235000	0.050892
	24.240000	-0.077368
	24.245000	0.050892
	24.250000	0.179152
	24.255000	0.041026
	24.260000	-0.090523
	24.265000	0.041026
	24.270000	0.169286
	24.275000	0.037737
	24.280000	-0.093812
	24.285000	0.041026
	24.290000	0.169286
	24.295000	0.034448
	24.300000	-0.100389
	24.305000	0.037737
	24.310000	0.169286
	24.315000	0.027871
	24.320000	-0.097101
	24.325000	0.034448
	24.330000	0.165997
	24.335000	0.031160
	24.340000	-0.097101
	24.345000	0.034448
	24.350000	0.159420
	24.355000	0.031160
	24.360000	-0.100389
	24.365000	0.034448
	24.370000	0.159420
	24.375000	0.027871
	24.380000	-0.106967
	24.385000	0.031160
	24.390000	0.162708
	24.395000	0.027871
	24.400000	-0.103678
	24.405000	0.034448
	24.410000	0.162708
	24.415000	0.024582
	24.420000	-0.103678
	24.425000	0.037737
	24.430000	0.156131
	24.435000	0.024582
	24.440000	-0.100389
	24.445000	0.037737
	24.450000	0.159420
	24.455000	0.021293
	24.460000	-0.106967
	24.465000	0.034448
	24.470000	0.149554
	24.475000	0.018005
	24.480000	-0.103678
	24.485000	0.031160
	24.490000	0.149554
	24.495000	0.004850
	24.500000	-0.110256
	24.505000	0.031160
	24.510000	0.149554
	24.515000	0.014716
	24.520000	-0.103678
	24.525000	0.031160
	24.530000	0.146265
	24.535000	0.001561
	24.540000	-0.110256
	24.545000	0.031160
	24.550000	0.142976
	24.555000	0.004850
	24.560000	-0.106967
	24.565000	0.027871
	24.570000	0.146265
	24.575000	0.004850
	24.580000	-0.106967
	24.585000	0.027871
	24.590000	0.149554
	24.595000	0.004850
	24.600000	-0.113544
	24.605000	0.027871
	24.610000	0.146265
	24.615000	0.004850
	24.620000	-0.110256
	24.625000	0.027871
	24.630000	0.142976
	24.635000	0.008138
	24.640000	-0.087234
	24.645000	0.054181
	24.650000	0.159420
	24.655000	0.024582
	24.660000	-0.077368
	24.665000	0.067335
	24.670000	0.169286
	24.675000	0.031160
	24.680000	-0.070791
	24.685000	0.090357
	24.690000	0.231772
	24.695000	0.093645
	24.700000	-0.047770
	24.705000	0.100223
	24.710000	0.231772
	24.715000	0.077202
	24.720000	-0.067502
	24.725000	0.087068
	24.730000	0.228483
	24.735000	0.070624
	24.740000	-0.074080
	24.745000	0.077202
	24.750000	0.221905
	24.755000	0.064047
	24.760000	-0.080657
	24.765000	0.080490
	24.770000	0.225194
	24.775000	0.067335
	24.780000	-0.080657
	24.785000	0.073913
	24.790000	0.215328
	24.795000	0.060758
	24.800000	-0.077368
	24.805000	0.077202
	24.810000	0.221905
	24.815000	0.057469
	24.820000	-0.080657
	24.825000	0.077202
	24.830000	0.221905
	24.835000	0.060758
	24.840000	-0.080657
	24.845000	0.080490
	24.850000	0.215328
	24.855000	0.060758
	24.860000	-0.077368
	24.865000	0.083779
	24.870000	0.218617
	24.875000	0.060758
	24.880000	-0.083946
	24.885000	0.080490
	24.890000	0.221905
	24.895000	0.054181
	24.900000	-0.080657
	24.905000	0.080490
	24.910000	0.221905
	24.915000	0.057469
	24.920000	-0.077368
	24.925000	0.087068
	24.930000	0.221905
	24.935000	0.060758
	24.940000	-0.070791
	24.945000	0.090357
	24.950000	0.221905
	24.955000	0.057469
	24.960000	-0.074080
	24.965000	0.090357
	24.970000	0.221905
	24.975000	0.054181
	24.980000	-0.077368
	24.985000	0.087068
	24.990000	0.221905
	24.995000	0.050892
	25.000000	-0.080657
	25.005000	0.073913
	25.010000	0.202173
	25.015000	0.041026
	25.020000	-0.080657
	25.025000	0.077202
	25.030000	0.198884
	25.035000	0.047603
	25.040000	-0.077368
	25.045000	0.083779
	25.050000	0.202173
	25.055000	0.047603
	25.060000	-0.067502
	25.065000	0.090357
	25.070000	0.202173
	25.075000	0.047603
	25.080000	-0.060925
	25.085000	0.090357
	25.090000	0.202173
	25.095000	0.044314
	25.100000	-0.060925
	25.105000	0.100223
	25.110000	0.202173
	25.115000	0.050892
	25.120000	-0.060925
	25.125000	0.093645
	25.130000	0.205462
	25.135000	0.050892
	25.140000	-0.070791
	25.145000	0.087068
	25.150000	0.198884
	25.155000	0.044314
	25.160000	-0.067502
	25.165000	0.090357
	25.170000	0.198884
	25.175000	0.044314
	25.180000	-0.064213
	25.185000	0.093645
	25.190000	0.202173
	25.195000	0.041026
	25.200000	-0.064213
	25.205000	0.090357
	25.210000	0.198884
	25.215000	0.041026
	25.220000	-0.070791
	25.225000	0.087068
	25.230000	0.195596
	25.235000	0.034448
	25.240000	-0.074080
	25.245000	0.087068
	25.250000	0.195596
	25.255000	0.034448
	25.260000	-0.070791
	25.265000	0.090357
	25.270000	0.192307
	25.275000	0.037737
	25.280000	-0.074080
	25.285000	0.093645
	25.290000	0.198884
	25.295000	0.037737
	25.300000	-0.067502
	25.305000	0.096934
	25.310000	0.198884
	25.315000	0.037737
	25.320000	-0.054347
	25.325000	0.100223
	25.330000	0.198884
	25.335000	0.041026
	25.340000	-0.051059
	25.345000	0.106800
	25.350000	0.189018
	25.355000	0.034448
	25.360000	-0.051059
	25.365000	0.106800
	25.370000	0.189018
	25.375000	0.027871
	25.380000	-0.051059
	25.385000	0.106800
	25.390000	0.185730
	25.395000	0.027871
	25.400000	-0.047770
	25.405000	0.103511
	25.410000	0.185730
	25.415000	0.031160
	25.420000	-0.051059
	25.425000	0.110089
	25.430000	0.185730
	25.435000	0.031160
	25.440000	-0.051059
	25.445000	0.106800
	25.450000	0.185730
	25.455000	0.027871
	25.460000	-0.054347
	25.465000	0.103511
	25.470000	0.189018
	25.475000	0.021293
	25.480000	-0.051059
	25.485000	0.103511
	25.490000	0.185730
	25.495000	0.027871
	25.500000	-0.057636
	25.505000	0.103511
	25.510000	0.185730
	25.515000	0.024582
	25.520000	-0.051059
	25.525000	0.106800
	25.530000	0.185730
	25.535000	0.027871
	25.540000	-0.051059
	25.545000	0.106800
	25.550000	0.185730
	25.555000	0.024582
	25.560000	-0.054347
	25.565000	0.106800
	25.570000	0.185730
	25.575000	0.024582
	25.580000	-0.054347
	25.585000	0.103511
	25.590000	0.179152
	25.595000	0.021293
	25.600000	-0.057636
	25.605000	0.103511
	25.610000	0.179152
	25.615000	0.018005
	25.620000	-0.057636
	25.625000	0.103511
	25.630000	0.179152
	25.635000	0.014716
	25.640000	-0.057636
	25.645000	0.106800
	25.650000	0.182441
	25.655000	0.018005
	25.660000	-0.051059
	25.665000	0.110089
	25.670000	0.179152
	25.675000	0.018005
	25.680000	-0.051059
	25.685000	0.110089
	25.690000	0.179152
	25.695000	0.018005
	25.700000	-0.047770
	25.705000	0.116666
	25.710000	0.182441
	25.715000	0.021293
	25.720000	-0.047770
	25.725000	0.116666
	25.730000	0.185730
	25.735000	0.027871
	25.740000	-0.047770
	25.745000	0.119955
	25.750000	0.185730
	25.755000	0.024582
	25.760000	-0.041192
	25.765000	0.119955
	25.770000	0.185730
	25.775000	0.021293
	25.780000	-0.044481
	25.785000	0.116666
	25.790000	0.185730
	25.795000	0.024582
	25.800000	-0.041192
	25.805000	0.123244
	25.810000	0.185730
	25.815000	0.024582
	25.820000	-0.037904
	25.825000	0.126533
	25.830000	0.192307
	25.835000	0.024582
	25.840000	-0.037904
	25.845000	0.126533
	25.850000	0.192307
	25.855000	0.021293
	25.860000	-0.037904
	25.865000	0.129821
	25.870000	0.192307
	25.875000	0.027871
	25.880000	-0.034615
	25.885000	0.129821
	25.890000	0.195596
	25.895000	0.021293
	25.900000	-0.051059
	25.905000	0.119955
	25.910000	0.185730
	25.915000	0.008138
	25.920000	-0.060925
	25.925000	0.103511
	25.930000	0.172575
	25.935000	-0.001728
	25.940000	-0.074080
	25.945000	0.096934
	25.950000	0.162708
	25.955000	-0.005016
	25.960000	-0.074080
	25.965000	0.096934
	25.970000	0.159420
	25.975000	-0.018171
	25.980000	-0.080657
	25.985000	0.083779
	25.990000	0.156131
	25.995000	-0.021460
	26.000000	-0.090523
	26.005000	0.080490
	26.010000	0.149554
	26.015000	-0.028037
	26.020000	-0.090523
	26.025000	0.083779
	26.030000	0.149554
	26.035000	-0.024749
	26.040000	-0.087234
	26.045000	0.080490
	26.050000	0.149554
	26.055000	-0.028037
	26.060000	-0.090523
	26.065000	0.087068
	26.070000	0.146265
	26.075000	-0.028037
	26.080000	-0.093812
	26.085000	0.080490
	26.090000	0.149554
	26.095000	-0.028037
	26.100000	-0.097101
	26.105000	0.080490
	26.110000	0.146265
	26.115000	-0.034615
	26.120000	-0.097101
	26.125000	0.080490
	26.130000	0.142976
	26.135000	-0.034615
	26.140000	-0.100389
	26.145000	0.077202
	26.150000	0.136399
	26.155000	-0.037904
	26.160000	-0.097101
	26.165000	0.080490
	26.170000	0.136399
	26.175000	-0.041192
	26.180000	-0.097101
	26.185000	0.080490
	26.190000	0.142976
	26.195000	-0.041192
	26.200000	-0.097101
	26.205000	0.073913
	26.210000	0.133110
	26.215000	-0.037904
	26.220000	-0.103678
	26.225000	0.073913
	26.230000	0.136399
	26.235000	-0.044481
	26.240000	-0.100389
	26.245000	0.077202
	26.250000	0.133110
	26.255000	-0.047770
	26.260000	-0.100389
	26.265000	0.077202
	26.270000	0.133110
	26.275000	-0.041192
	26.280000	-0.097101
	26.285000	0.077202
	26.290000	0.133110
	26.295000	-0.044481
	26.300000	-0.097101
	26.305000	0.077202
	26.310000	0.133110
	26.315000	-0.041192
	26.320000	-0.097101
	26.325000	0.080490
	26.330000	0.136399
	26.335000	-0.044481
	26.340000	-0.093812
	26.345000	0.083779
	26.350000	0.136399
	26.355000	-0.041192
	26.360000	-0.087234
	26.365000	0.087068
	26.370000	0.136399
	26.375000	-0.031326
	26.380000	-0.074080
	26.385000	0.100223
	26.390000	0.139687
	26.395000	-0.031326
	26.400000	-0.067502
	26.405000	0.106800
	26.410000	0.149554
	26.415000	-0.024749
	26.420000	-0.057636
	26.425000	0.119955
	26.430000	0.159420
	26.435000	-0.037904
	26.440000	-0.100389
	26.445000	0.096934
	26.450000	0.172575
	26.455000	-0.021460
	26.460000	-0.077368
	26.465000	0.119955
	26.470000	0.189018
	26.475000	-0.011594
	26.480000	-0.070791
	26.485000	0.126533
	26.490000	0.195596
	26.495000	-0.001728
	26.500000	-0.067502
	26.505000	0.133110
	26.510000	0.198884
	26.515000	-0.001728
	26.520000	-0.070791
	26.525000	0.133110
	26.530000	0.198884
	26.535000	-0.001728
	26.540000	-0.067502
	26.545000	0.136399
	26.550000	0.202173
	26.555000	-0.001728
	26.560000	-0.064213
	26.565000	0.139687
	26.570000	0.205462
	26.575000	-0.001728
	26.580000	-0.067502
	26.585000	0.136399
	26.590000	0.202173
	26.595000	-0.001728
	26.600000	-0.060925
	26.605000	0.139687
	26.610000	0.208751
	26.615000	0.001561
	26.620000	-0.060925
	26.625000	0.142976
	26.630000	0.208751
	26.635000	0.004850
	26.640000	-0.057636
	26.645000	0.146265
	26.650000	0.208751
	26.655000	0.004850
	26.660000	-0.054347
	26.665000	0.152842
	26.670000	0.212039
	26.675000	0.004850
	26.680000	-0.047770
	26.685000	0.152842
	26.690000	0.215328
	26.695000	0.008138
	26.700000	-0.054347
	26.705000	0.156131
	26.710000	0.208751
	26.715000	0.008138
	26.720000	-0.051059
	26.725000	0.149554
	26.730000	0.202173
	26.735000	0.004850
	26.740000	-0.051059
	26.745000	0.136399
	26.750000	0.182441
	26.755000	-0.008305
	26.760000	-0.037904
	26.765000	0.133110
	26.770000	0.152842
	26.775000	-0.014883
	26.780000	-0.037904
	26.785000	0.133110
	26.790000	0.162708
	26.795000	-0.014883
	26.800000	-0.037904
	26.805000	0.136399
	26.810000	0.162708
	26.815000	-0.008305
	26.820000	-0.031326
	26.825000	0.142976
	26.830000	0.169286
	26.835000	-0.008305
	26.840000	-0.028037
	26.845000	0.146265
	26.850000	0.175863
	26.855000	-0.008305
	26.860000	-0.024749
	26.865000	0.146265
	26.870000	0.169286
	26.875000	-0.001728
	26.880000	-0.021460
	26.885000	0.152842
	26.890000	0.172575
	26.895000	-0.005016
	26.900000	-0.024749
	26.905000	0.146265
	26.910000	0.169286
	26.915000	-0.008305
	26.920000	-0.028037
	26.925000	0.146265
	26.930000	0.162708
	26.935000	-0.014883
	26.940000	-0.031326
	26.945000	0.139687
	26.950000	0.162708
	26.955000	-0.014883
	26.960000	-0.034615
	26.965000	0.139687
	26.970000	0.159420
	26.975000	-0.018171
	26.980000	-0.034615
	26.985000	0.142976
	26.990000	0.156131
	26.995000	-0.021460
	27.000000	-0.031326
	27.005000	0.142976
	27.010000	0.159420
	27.015000	-0.014883
	27.020000	-0.034615
	27.025000	0.142976
	27.030000	0.165997
	27.035000	-0.014883
	27.040000	-0.028037
	27.045000	0.146265
	27.050000	0.159420
	27.055000	-0.014883
	27.060000	-0.024749
	27.065000	0.149554
	27.070000	0.162708
	27.075000	-0.014883
	27.080000	-0.024749
	27.085000	0.149554
	27.090000	0.159420
	27.095000	-0.021460
	27.100000	-0.031326
	27.105000	0.146265
	27.110000	0.156131
	27.115000	-0.018171
	27.120000	-0.034615
	27.125000	0.142976
	27.130000	0.156131
	27.135000	-0.021460
	27.140000	-0.031326
	27.145000	0.152842
	27.150000	0.156131
	27.155000	-0.021460
	27.160000	-0.028037
	27.165000	0.142976
	27.170000	0.152842
	27.175000	-0.018171
	27.180000	-0.028037
	27.185000	0.142976
	27.190000	0.156131
	27.195000	-0.021460
	27.200000	-0.028037
	27.205000	0.149554
	27.210000	0.159420
	27.215000	-0.021460
	27.220000	-0.028037
	27.225000	0.142976
	27.230000	0.159420
	27.235000	-0.024749
	27.240000	-0.031326
	27.245000	0.142976
	27.250000	0.156131
	27.255000	-0.028037
	27.260000	-0.034615
	27.265000	0.146265
	27.270000	0.156131
	27.275000	-0.024749
	27.280000	-0.034615
	27.285000	0.142976
	27.290000	0.156131
	27.295000	-0.028037
	27.300000	-0.037904
	27.305000	0.149554
	27.310000	0.152842
	27.315000	-0.024749
	27.320000	-0.034615
	27.325000	0.146265
	27.330000	0.149554
	27.335000	-0.028037
	27.340000	-0.031326
	27.345000	0.149554
	27.350000	0.149554
	27.355000	-0.028037
	27.360000	-0.031326
	27.365000	0.149554
	27.370000	0.149554
	27.375000	-0.034615
	27.380000	-0.034615
	27.385000	0.149554
	27.390000	0.146265
	27.395000	-0.028037
	27.400000	-0.028037
	27.405000	0.149554
	27.410000	0.152842
	27.415000	-0.028037
	27.420000	-0.028037
	27.425000	0.152842
	27.430000	0.156131
	27.435000	-0.024749
	27.440000	-0.024749
	27.445000	0.152842
	27.450000	0.156131
	27.455000	-0.018171
	27.460000	-0.024749
	27.465000	0.159420
	27.470000	0.156131
	27.475000	-0.021460
	27.480000	-0.021460
	27.485000	0.162708
	27.490000	0.159420
	27.495000	-0.021460
	27.500000	-0.018171
	27.505000	0.159420
	27.510000	0.159420
	27.515000	-0.024749
	27.520000	-0.021460
	27.525000	0.156131
	27.530000	0.156131
	27.535000	-0.031326
	27.540000	-0.028037
	27.545000	0.149554
	27.550000	0.149554
	27.555000	-0.037904
	27.560000	-0.041192
	27.565000	0.142976
	27.570000	0.139687
	27.575000	-0.047770
	27.580000	-0.051059
	27.585000	0.133110
	27.590000	0.133110
	27.595000	-0.051059
	27.600000	-0.051059
	27.605000	0.129821
	27.610000	0.129821
	27.615000	-0.057636
	27.620000	-0.051059
	27.625000	0.126533
	27.630000	0.123244
	27.635000	-0.057636
	27.640000	-0.054347
	27.645000	0.126533
	27.650000	0.119955
	27.655000	-0.057636
	27.660000	-0.054347
	27.665000	0.126533
	27.670000	0.126533
	27.675000	-0.064213
	27.680000	-0.057636
	27.685000	0.126533
	27.690000	0.119955
	27.695000	-0.064213
	27.700000	-0.060925
	27.705000	0.126533
	27.710000	0.116666
	27.715000	-0.070791
	27.720000	-0.060925
	27.725000	0.123244
	27.730000	0.119955
	27.735000	-0.074080
	27.740000	-0.060925
	27.745000	0.119955
	27.750000	0.113378
	27.755000	-0.074080
	27.760000	-0.064213
	27.765000	0.123244
	27.770000	0.110089
	27.775000	-0.074080
	27.780000	-0.064213
	27.785000	0.119955
	27.790000	0.110089
	27.795000	-0.074080
	27.800000	-0.067502
	27.805000	0.119955
	27.810000	0.113378
	27.815000	-0.077368
	27.820000	-0.067502
	27.825000	0.116666
	27.830000	0.106800
	27.835000	-0.080657
	27.840000	-0.067502
	27.845000	0.113378
	27.850000	0.106800
	27.855000	-0.080657
	27.860000	-0.074080
	27.865000	0.116666
	27.870000	0.100223
	27.875000	-0.083946
	27.880000	-0.074080
	27.885000	0.113378
	27.890000	0.103511
	27.895000	-0.083946
	27.900000	-0.074080
	27.905000	0.113378
	27.910000	0.100223
	27.915000	-0.080657
	27.920000	-0.067502
	27.925000	0.116666
	27.930000	0.103511
	27.935000	-0.087234
	27.940000	-0.067502
	27.945000	0.106800
	27.950000	0.093645
	27.955000	-0.080657
	27.960000	-0.047770
	27.965000	0.123244
	27.970000	0.106800
	27.975000	-0.064213
	27.980000	-0.037904
	27.985000	0.136399
	27.990000	0.113378
	27.995000	-0.057636
	28.000000	-0.031326
	28.005000	0.165997
	28.010000	0.152842
	28.015000	-0.051059
	28.020000	-0.041192
	28.025000	0.162708
	28.030000	0.159420
	28.035000	-0.051059
	28.040000	-0.034615
	28.045000	0.172575
	28.050000	0.172575
	28.055000	-0.041192
	28.060000	-0.031326
	28.065000	0.182441
	28.070000	0.172575
	28.075000	-0.041192
	28.080000	-0.028037
	28.085000	0.179152
	28.090000	0.169286
	28.095000	-0.041192
	28.100000	-0.031326
	28.105000	0.179152
	28.110000	0.172575
	28.115000	-0.044481
	28.120000	-0.034615
	28.125000	0.179152
	28.130000	0.169286
	28.135000	-0.047770
	28.140000	-0.037904
	28.145000	0.179152
	28.150000	0.169286
	28.155000	-0.047770
	28.160000	-0.034615
	28.165000	0.172575
	28.170000	0.169286
	28.175000	-0.047770
	28.180000	-0.034615
	28.185000	0.185730
	28.190000	0.175863
	28.195000	-0.041192
	28.200000	-0.024749
	28.205000	0.185730
	28.210000	0.172575
	28.215000	-0.041192
	28.220000	-0.028037
	28.225000	0.189018
	28.230000	0.172575
	28.235000	-0.044481
	28.240000	-0.018171
	28.245000	0.192307
	28.250000	0.172575
	28.255000	-0.041192
	28.260000	-0.014883
	28.265000	0.195596
	28.270000	0.182441
	28.275000	-0.031326
	28.280000	-0.014883
	28.285000	0.192307
	28.290000	0.175863
	28.295000	-0.037904
	28.300000	-0.014883
	28.305000	0.192307
	28.310000	0.169286
	28.315000	-0.041192
	28.320000	-0.024749
	28.325000	0.185730
	28.330000	0.165997
	28.335000	-0.047770
	28.340000	-0.021460
	28.345000	0.182441
	28.350000	0.162708
	28.355000	-0.047770
	28.360000	-0.028037
	28.365000	0.182441
	28.370000	0.162708
	28.375000	-0.051059
	28.380000	-0.021460
	28.385000	0.185730
	28.390000	0.165997
	28.395000	-0.047770
	28.400000	-0.018171
	28.405000	0.192307
	28.410000	0.172575
	28.415000	-0.037904
	28.420000	-0.011594
	28.425000	0.195596
	28.430000	0.175863
	28.435000	-0.041192
	28.440000	-0.005016
	28.445000	0.198884
	28.450000	0.169286
	28.455000	-0.034615
	28.460000	-0.008305
	28.465000	0.195596
	28.470000	0.169286
	28.475000	-0.041192
	28.480000	-0.008305
	28.485000	0.195596
	28.490000	0.169286
	28.495000	-0.041192
	28.500000	-0.008305
	28.505000	0.198884
	28.510000	0.172575
	28.515000	-0.041192
	28.520000	-0.011594
	28.525000	0.195596
	28.530000	0.169286
	28.535000	-0.044481
	28.540000	-0.008305
	28.545000	0.195596
	28.550000	0.165997
	28.555000	-0.047770
	28.560000	-0.011594
	28.565000	0.202173
	28.570000	0.162708
	28.575000	-0.047770
	28.580000	-0.008305
	28.585000	0.195596
	28.590000	0.159420
	28.595000	-0.047770
	28.600000	-0.008305
	28.605000	0.198884
	28.610000	0.165997
	28.615000	-0.044481
	28.620000	-0.005016
	28.625000	0.205462
	28.630000	0.165997
	28.635000	-0.044481
	28.640000	0.001561
	28.645000	0.208751
	28.650000	0.165997
	28.655000	-0.041192
	28.660000	0.004850
	28.665000	0.208751
	28.670000	0.169286
	28.675000	-0.037904
	28.680000	0.001561
	28.685000	0.208751
	28.690000	0.165997
	28.695000	-0.044481
	28.700000	-0.005016
	28.705000	0.205462
	28.710000	0.165997
	28.715000	-0.047770
	28.720000	-0.005016
	28.725000	0.205462
	28.730000	0.162708
	28.735000	-0.047770
	28.740000	-0.001728
	28.745000	0.198884
	28.750000	0.156131
	28.755000	-0.047770
	28.760000	-0.001728
	28.765000	0.198884
	28.770000	0.159420
	28.775000	-0.051059
	28.780000	-0.005016
	28.785000	0.205462
	28.790000	0.159420
	28.795000	-0.041192
	28.800000	-0.001728
	28.805000	0.205462
	28.810000	0.162708
	28.815000	-0.044481
	28.820000	0.001561
	28.825000	0.212039
	28.830000	0.165997
	28.835000	-0.044481
	28.840000	0.004850
	28.845000	0.208751
	28.850000	0.162708
	28.855000	-0.041192
	28.860000	0.001561
	28.865000	0.208751
	28.870000	0.162708
	28.875000	-0.041192
	28.880000	0.004850
	28.885000	0.205462
	28.890000	0.165997
	28.895000	-0.034615
	28.900000	0.018005
	28.905000	0.195596
	28.910000	0.142976
	28.915000	-0.041192
	28.920000	0.008138
	28.925000	0.182441
	28.930000	0.129821
	28.935000	-0.051059
	28.940000	0.014716
	28.945000	0.185730
	28.950000	0.126533
	28.955000	-0.047770
	28.960000	0.011427
	28.965000	0.189018
	28.970000	0.126533
	28.975000	-0.044481
	28.980000	0.011427
	28.985000	0.185730
	28.990000	0.129821
	28.995000	-0.041192
	29.000000	0.018005
	29.005000	0.189018
	29.010000	0.123244
	29.015000	-0.041192
	29.020000	0.018005
	29.025000	0.189018
	29.030000	0.123244
	29.035000	-0.047770
	29.040000	0.014716
	29.045000	0.189018
	29.050000	0.123244
	29.055000	-0.047770
	29.060000	0.014716
	29.065000	0.185730
	29.070000	0.116666
	29.075000	-0.047770
	29.080000	0.018005
	29.085000	0.189018
	29.090000	0.123244
	29.095000	-0.047770
	29.100000	0.018005
	29.105000	0.185730
	29.110000	0.123244
	29.115000	-0.044481
	29.120000	0.014716
	29.125000	0.189018
	29.130000	0.119955
	29.135000	-0.047770
	29.140000	0.024582
	29.145000	0.192307
	29.150000	0.123244
	29.155000	-0.041192
	29.160000	0.024582
	29.165000	0.189018
	29.170000	0.119955
	29.175000	-0.044481
	29.180000	0.024582
	29.185000	0.198884
	29.190000	0.123244
	29.195000	-0.041192
	29.200000	0.027871
	29.205000	0.195596
	29.210000	0.126533
	29.215000	-0.044481
	29.220000	0.027871
	29.225000	0.195596
	29.230000	0.123244
	29.235000	-0.041192
	29.240000	0.024582
	29.245000	0.195596
	29.250000	0.123244
	29.255000	-0.041192
	29.260000	0.027871
	29.265000	0.195596
	29.270000	0.123244
	29.275000	-0.047770
	29.280000	0.031160
	29.285000	0.198884
	29.290000	0.123244
	29.295000	-0.044481
	29.300000	0.027871
	29.305000	0.195596
	29.310000	0.119955
	29.315000	-0.041192
	29.320000	0.031160
	29.325000	0.195596
	29.330000	0.116666
	29.335000	-0.047770
	29.340000	0.024582
	29.345000	0.198884
	29.350000	0.116666
	29.355000	-0.047770
	29.360000	0.024582
	29.365000	0.192307
	29.370000	0.113378
	29.375000	-0.054347
	29.380000	0.027871
	29.385000	0.192307
	29.390000	0.116666
	29.395000	-0.057636
	29.400000	0.027871
	29.405000	0.192307
	29.410000	0.116666
	29.415000	-0.047770
	29.420000	0.027871
	29.425000	0.192307
	29.430000	0.113378
	29.435000	-0.051059
	29.440000	0.027871
	29.445000	0.192307
	29.450000	0.110089
	29.455000	-0.047770
	29.460000	0.027871
	29.465000	0.189018
	29.470000	0.110089
	29.475000	-0.051059
	29.480000	0.027871
	29.485000	0.192307
	29.490000	0.110089
	29.495000	-0.054347
	29.500000	0.027871
	29.505000	0.195596
	29.510000	0.110089
	29.515000	-0.054347
	29.520000	0.024582
	29.525000	0.192307
	29.530000	0.106800
	29.535000	-0.060925
	29.540000	0.034448
	29.545000	0.192307
	29.550000	0.103511
	29.555000	-0.060925
	29.560000	0.027871
	29.565000	0.189018
	29.570000	0.100223
	29.575000	-0.060925
	29.580000	0.031160
	29.585000	0.189018
	29.590000	0.103511
	29.595000	-0.057636
	29.600000	0.027871
	29.605000	0.179152
	29.610000	0.090357
	29.615000	-0.057636
	29.620000	0.027871
	29.625000	0.182441
	29.630000	0.090357
	29.635000	-0.080657
	29.640000	0.011427
	29.645000	0.195596
	29.650000	0.106800
	29.655000	-0.074080
	29.660000	0.014716
	29.665000	0.208751
	29.670000	0.123244
	29.675000	-0.067502
	29.680000	0.024582
	29.685000	0.218617
	29.690000	0.129821
	29.695000	-0.067502
	29.700000	0.027871
	29.705000	0.218617
	29.710000	0.129821
	29.715000	-0.060925
	29.720000	0.031160
	29.725000	0.218617
	29.730000	0.129821
	29.735000	-0.064213
	29.740000	0.027871
	29.745000	0.218617
	29.750000	0.133110
	29.755000	-0.064213
	29.760000	0.027871
	29.765000	0.221905
	29.770000	0.129821
	29.775000	-0.067502
	29.780000	0.027871
	29.785000	0.221905
	29.790000	0.126533
	29.795000	-0.070791
	29.800000	0.031160
	29.805000	0.221905
	29.810000	0.129821
	29.815000	-0.067502
	29.820000	0.027871
	29.825000	0.221905
	29.830000	0.129821
	29.835000	-0.067502
	29.840000	0.034448
	29.845000	0.221905
	29.850000	0.129821
	29.855000	-0.060925
	29.860000	0.037737
	29.865000	0.225194
	29.870000	0.126533
	29.875000	-0.060925
	29.880000	0.041026
	29.885000	0.225194
	29.890000	0.129821
	29.895000	-0.064213
	29.900000	0.037737
	29.905000	0.228483
	29.910000	0.133110
	29.915000	-0.064213
	29.920000	0.031160
	29.925000	0.228483
	29.930000	0.129821
	29.935000	-0.060925
	29.940000	0.041026
	29.945000	0.221905
	29.950000	0.126533
	29.955000	-0.060925
	29.960000	0.037737
	29.965000	0.228483
	29.970000	0.126533
	29.975000	-0.064213
	29.980000	0.037737
	29.985000	0.221905
	29.990000	0.123244
	29.995000	-0.060925
	30.000000	0.037737
	30.005000	0.225194
	30.010000	0.119955
	30.015000	-0.067502
	30.020000	0.031160
	30.025000	0.212039
	30.030000	0.113378
	30.035000	-0.031326
	30.040000	0.073913
	30.045000	0.221905
	30.050000	0.119955
	30.055000	-0.041192
	30.060000	0.064047
	30.065000	0.208751
	30.070000	0.103511
	30.075000	-0.054347
	30.080000	0.050892
	30.085000	0.198884
	30.090000	0.096934
	30.095000	-0.060925
	30.100000	0.044314
	30.105000	0.198884
	30.110000	0.093645
	30.115000	-0.060925
	30.120000	0.047603
	30.125000	0.195596
	30.130000	0.090357
	30.135000	-0.057636
	30.140000	0.047603
	30.145000	0.192307
	30.150000	0.096934
	30.155000	-0.057636
	30.160000	0.050892
	30.165000	0.195596
	30.170000	0.090357
	30.175000	-0.064213
	30.180000	0.041026
	30.185000	0.195596
	30.190000	0.083779
	30.195000	-0.060925
	30.200000	0.047603
	30.205000	0.195596
	30.210000	0.090357
	30.215000	-0.067502
	30.220000	0.044314
	30.225000	0.195596
	30.230000	0.087068
	30.235000	-0.064213
	30.240000	0.044314
	30.245000	0.189018
	30.250000	0.077202
	30.255000	-0.064213
	30.260000	0.041026
	30.265000	0.189018
	30.270000	0.077202
	30.275000	-0.070791
	30.280000	0.041026
	30.285000	0.189018
	30.290000	0.077202
	30.295000	-0.070791
	30.300000	0.037737
	30.305000	0.189018
	30.310000	0.073913
	30.315000	-0.067502
	30.320000	0.044314
	30.325000	0.192307
	30.330000	0.077202
	30.335000	-0.067502
	30.340000	0.047603
	30.345000	0.192307
	30.350000	0.080490
	30.355000	-0.064213
	30.360000	0.047603
	30.365000	0.189018
	30.370000	0.083779
	30.375000	-0.067502
	30.380000	0.047603
	30.385000	0.195596
	30.390000	0.077202
	30.395000	-0.064213
	30.400000	0.047603
	30.405000	0.198884
	30.410000	0.077202
	30.415000	-0.064213
	30.420000	0.050892
	30.425000	0.195596
	30.430000	0.073913
	30.435000	-0.067502
	30.440000	0.047603
	30.445000	0.189018
	30.450000	0.073913
	30.455000	-0.067502
	30.460000	0.047603
	30.465000	0.195596
	30.470000	0.073913
	30.475000	-0.070791
	30.480000	0.047603
	30.485000	0.192307
	30.490000	0.073913
	30.495000	-0.067502
	30.500000	0.047603
	30.505000	0.192307
	30.510000	0.067335
	30.515000	-0.074080
	30.520000	0.050892
	30.525000	0.189018
	30.530000	0.073913
	30.535000	-0.067502
	30.540000	0.054181
	30.545000	0.192307
	30.550000	0.073913
	30.555000	-0.067502
	30.560000	0.050892
	30.565000	0.195596
	30.570000	0.073913
	30.575000	-0.064213
	30.580000	0.054181
	30.585000	0.195596
	30.590000	0.070624
	30.595000	-0.074080
	30.600000	0.050892
	30.605000	0.192307
	30.610000	0.067335
	30.615000	-0.074080
	30.620000	0.047603
	30.625000	0.185730
	30.630000	0.067335
	30.635000	-0.074080
	30.640000	0.050892
	30.645000	0.189018
	30.650000	0.060758
	30.655000	-0.074080
	30.660000	0.050892
	30.665000	0.185730
	30.670000	0.060758
	30.675000	-0.077368
	30.680000	0.050892
	30.685000	0.192307
	30.690000	0.064047
	30.695000	-0.074080
	30.700000	0.054181
	30.705000	0.185730
	30.710000	0.064047
	30.715000	-0.067502
	30.720000	0.054181
	30.725000	0.185730
	30.730000	0.064047
	30.735000	-0.067502
	30.740000	0.060758
	30.745000	0.189018
	30.750000	0.067335
	30.755000	-0.064213
	30.760000	0.060758
	30.765000	0.195596
	30.770000	0.064047
	30.775000	-0.060925
	30.780000	0.064047
	30.785000	0.192307
	30.790000	0.067335
	30.795000	-0.064213
	30.800000	0.060758
	30.805000	0.195596
	30.810000	0.067335
	30.815000	-0.064213
	30.820000	0.064047
	30.825000	0.195596
	30.830000	0.067335
	30.835000	-0.067502
	30.840000	0.064047
	30.845000	0.189018
	30.850000	0.064047
	30.855000	-0.067502
	30.860000	0.064047
	30.865000	0.195596
	30.870000	0.064047
	30.875000	-0.064213
	30.880000	0.064047
	30.885000	0.192307
	30.890000	0.060758
	30.895000	-0.067502
	30.900000	0.064047
	30.905000	0.192307
	30.910000	0.060758
	30.915000	-0.067502
	30.920000	0.060758
	30.925000	0.195596
	30.930000	0.064047
	30.935000	-0.067502
	30.940000	0.064047
	30.945000	0.192307
	30.950000	0.054181
	30.955000	-0.064213
	30.960000	0.064047
	30.965000	0.189018
	30.970000	0.060758
	30.975000	-0.067502
	30.980000	0.067335
	30.985000	0.192307
	30.990000	0.057469
	30.995000	-0.067502
	31.000000	0.060758
	31.005000	0.195596
	31.010000	0.057469
	31.015000	-0.064213
	31.020000	0.067335
	31.025000	0.195596
	31.030000	0.054181
	31.035000	-0.074080
	31.040000	0.067335
	31.045000	0.189018
	31.050000	0.054181
	31.055000	-0.064213
	31.060000	0.064047
	31.065000	0.192307
	31.070000	0.054181
	31.075000	-0.070791
	31.080000	0.064047
	31.085000	0.195596
	31.090000	0.050892
	31.095000	-0.074080
	31.100000	0.064047
	31.105000	0.189018
	31.110000	0.050892
	31.115000	-0.074080
	31.120000	0.064047
	31.125000	0.185730
	31.130000	0.050892
	31.135000	-0.074080
	31.140000	0.064047
	31.145000	0.185730
	31.150000	0.050892
	31.155000	-0.074080
	31.160000	0.064047
	31.165000	0.192307
	31.170000	0.050892
	31.175000	-0.070791
	31.180000	0.067335
	31.185000	0.195596
	31.190000	0.050892
	31.195000	-0.067502
	31.200000	0.070624
	31.205000	0.195596
	31.210000	0.057469
	31.215000	-0.064213
	31.220000	0.070624
	31.225000	0.198884
	31.230000	0.054181
	31.235000	-0.067502
	31.240000	0.073913
	31.245000	0.198884
	31.250000	0.054181
	31.255000	-0.067502
	31.260000	0.070624
	31.265000	0.192307
	31.270000	0.050892
	31.275000	-0.064213
	31.280000	0.073913
	31.285000	0.198884
	31.290000	0.050892
	31.295000	-0.067502
	31.300000	0.073913
	31.305000	0.192307
	31.310000	0.044314
	31.315000	-0.067502
	31.320000	0.073913
	31.325000	0.189018
	31.330000	0.047603
	31.335000	-0.070791
	31.340000	0.073913
	31.345000	0.189018
	31.350000	0.041026
	31.355000	-0.067502
	31.360000	0.073913
	31.365000	0.189018
	31.370000	0.047603
	31.375000	-0.074080
	31.380000	0.077202
	31.385000	0.189018
	31.390000	0.041026
	31.395000	-0.067502
	31.400000	0.073913
	31.405000	0.189018
	31.410000	0.044314
	31.415000	-0.067502
	31.420000	0.073913
	31.425000	0.185730
	31.430000	0.044314
	31.435000	-0.067502
	31.440000	0.080490
	31.445000	0.189018
	31.450000	0.047603
	31.455000	-0.064213
	31.460000	0.077202
	31.465000	0.185730
	31.470000	0.037737
	31.475000	-0.067502
	31.480000	0.077202
	31.485000	0.182441
	31.490000	0.037737
	31.495000	-0.060925
	31.500000	0.083779
	31.505000	0.182441
	31.510000	0.037737
	31.515000	-0.060925
	31.520000	0.083779
	31.525000	0.185730
	31.530000	0.041026
	31.535000	-0.057636
	31.540000	0.087068
	31.545000	0.185730
	31.550000	0.037737
	31.555000	-0.057636
	31.560000	0.087068
	31.565000	0.189018
	31.570000	0.044314
	31.575000	-0.054347
	31.580000	0.093645
	31.585000	0.189018
	31.590000	0.047603
	31.595000	-0.054347
	31.600000	0.096934
	31.605000	0.195596
	31.610000	0.044314
	31.615000	-0.051059
	31.620000	0.096934
	31.625000	0.195596
	31.630000	0.044314
	31.635000	-0.047770
	31.640000	0.100223
	31.645000	0.195596
	31.650000	0.044314
	31.655000	-0.047770
	31.660000	0.100223
	31.665000	0.198884
	31.670000	0.041026
	31.675000	-0.064213
	31.680000	0.080490
	31.685000	0.182441
	31.690000	0.027871
	31.695000	-0.070791
	31.700000	0.077202
	31.705000	0.172575
	31.710000	0.018005
	31.715000	-0.080657
	31.720000	0.067335
	31.725000	0.159420
	31.730000	0.011427
	31.735000	-0.083946
	31.740000	0.057469
	31.745000	0.149554
	31.750000	-0.005016
	31.755000	-0.100389
	31.760000	0.047603
	31.765000	0.139687
	31.770000	-0.014883
	31.775000	-0.110256
	31.780000	0.041026
	31.785000	0.133110
	31.790000	-0.014883
	31.795000	-0.113544
	31.800000	0.037737
	31.805000	0.136399
	31.810000	-0.018171
	31.815000	-0.110256
	31.820000	0.041026
	31.825000	0.136399
	31.830000	-0.014883
	31.835000	-0.110256
	31.840000	0.041026
	31.845000	0.136399
	31.850000	-0.021460
	31.855000	-0.106967
	31.860000	0.037737
	31.865000	0.123244
	31.870000	-0.028037
	31.875000	-0.113544
	31.880000	0.037737
	31.885000	0.123244
	31.890000	-0.028037
	31.895000	-0.110256
	31.900000	0.044314
	31.905000	0.123244
	31.910000	-0.018171
	31.915000	-0.097101
	31.920000	0.057469
	31.925000	0.142976
	31.930000	-0.008305
	31.935000	-0.087234
	31.940000	0.077202
	31.945000	0.152842
	31.950000	0.004850
	31.955000	-0.067502
	31.960000	0.087068
	31.965000	0.189018
	31.970000	0.021293
	31.975000	-0.097101
	31.980000	0.083779
	31.985000	0.198884
	31.990000	0.024582
	31.995000	-0.087234
	32.000000	0.090357
	32.005000	0.208751
	32.010000	0.034448
	32.015000	-0.083946
	32.020000	0.090357
	32.025000	0.208751
	32.030000	0.031160
	32.035000	-0.087234
	32.040000	0.090357
	32.045000	0.208751
	32.050000	0.031160
	32.055000	-0.093812
	32.060000	0.090357
	32.065000	0.202173
	32.070000	0.027871
	32.075000	-0.087234
	32.080000	0.087068
	32.085000	0.208751
	32.090000	0.027871
	32.095000	-0.087234
	32.100000	0.090357
	32.105000	0.208751
	32.110000	0.031160
	32.115000	-0.083946
	32.120000	0.096934
	32.125000	0.208751
	32.130000	0.034448
	32.135000	-0.080657
	32.140000	0.100223
	32.145000	0.212039
	32.150000	0.034448
	32.155000	-0.077368
	32.160000	0.100223
	32.165000	0.208751
	32.170000	0.037737
	32.175000	-0.074080
	32.180000	0.103511
	32.185000	0.215328
	32.190000	0.041026
	32.195000	-0.070791
	32.200000	0.110089
	32.205000	0.225194
	32.210000	0.041026
	32.215000	-0.070791
	32.220000	0.110089
	32.225000	0.225194
	32.230000	0.047603
	32.235000	-0.060925
	32.240000	0.116666
	32.245000	0.218617
	32.250000	0.034448
	32.255000	-0.077368
	32.260000	0.103511
	32.265000	0.202173
	32.270000	0.024582
	32.275000	-0.083946
	32.280000	0.090357
	32.285000	0.185730
	32.290000	0.011427
	32.295000	-0.083946
	32.300000	0.083779
	32.305000	0.162708
	32.310000	-0.001728
	32.315000	-0.077368
	32.320000	0.087068
	32.325000	0.172575
	32.330000	0.001561
	32.335000	-0.074080
	32.340000	0.090357
	32.345000	0.169286
	32.350000	0.008138
	32.355000	-0.070791
	32.360000	0.093645
	32.365000	0.172575
	32.370000	0.014716
	32.375000	-0.060925
	32.380000	0.096934
	32.385000	0.179152
	32.390000	0.014716
	32.395000	-0.057636
	32.400000	0.106800
	32.405000	0.182441
	32.410000	0.014716
	32.415000	-0.064213
	32.420000	0.103511
	32.425000	0.185730
	32.430000	0.014716
	32.435000	-0.060925
	32.440000	0.106800
	32.445000	0.179152
	32.450000	0.011427
	32.455000	-0.060925
	32.460000	0.103511
	32.465000	0.182441
	32.470000	0.008138
	32.475000	-0.067502
	32.480000	0.100223
	32.485000	0.175863
	32.490000	0.004850
	32.495000	-0.064213
	32.500000	0.096934
	32.505000	0.172575
	32.510000	-0.001728
	32.515000	-0.064213
	32.520000	0.100223
	32.525000	0.172575
	32.530000	0.001561
	32.535000	-0.070791
	32.540000	0.100223
	32.545000	0.175863
	32.550000	0.001561
	32.555000	-0.064213
	32.560000	0.106800
	32.565000	0.179152
	32.570000	0.011427
	32.575000	-0.060925
	32.580000	0.106800
	32.585000	0.182441
	32.590000	0.008138
	32.595000	-0.054347
	32.600000	0.110089
	32.605000	0.185730
	32.610000	0.011427
	32.615000	-0.060925
	32.620000	0.113378
	32.625000	0.182441
	32.630000	0.011427
	32.635000	-0.054347
	32.640000	0.113378
	32.645000	0.182441
	32.650000	0.008138
	32.655000	-0.057636
	32.660000	0.113378
	32.665000	0.182441
	32.670000	0.004850
	32.675000	-0.057636
	32.680000	0.110089
	32.685000	0.172575
	32.690000	0.001561
	32.695000	-0.060925
	32.700000	0.110089
	32.705000	0.175863
	32.710000	0.004850
	32.715000	-0.060925
	32.720000	0.110089
	32.725000	0.175863
	32.730000	0.004850
	32.735000	-0.057636
	32.740000	0.113378
	32.745000	0.175863
	32.750000	0.004850
	32.755000	-0.057636
	32.760000	0.116666
	32.765000	0.175863
	32.770000	0.001561
	32.775000	-0.060925
	32.780000	0.113378
	32.785000	0.175863
	32.790000	-0.001728
	32.795000	-0.060925
	32.800000	0.110089
	32.805000	0.172575
	32.810000	-0.001728
	32.815000	-0.057636
	32.820000	0.110089
	32.825000	0.172575
	32.830000	-0.005016
	32.835000	-0.060925
	32.840000	0.110089
	32.845000	0.172575
	32.850000	-0.005016
	32.855000	-0.064213
	32.860000	0.103511
	32.865000	0.165997
	32.870000	-0.011594
	32.875000	-0.070791
	32.880000	0.103511
	32.885000	0.162708
	32.890000	-0.011594
	32.895000	-0.067502
	32.900000	0.103511
	32.905000	0.165997
	32.910000	-0.011594
	32.915000	-0.064213
	32.920000	0.110089
	32.925000	0.165997
	32.930000	-0.011594
	32.935000	-0.064213
	32.940000	0.110089
	32.945000	0.169286
	32.950000	-0.008305
	32.955000	-0.060925
	32.960000	0.116666
	32.965000	0.172575
	32.970000	-0.005016
	32.975000	-0.057636
	32.980000	0.116666
	32.985000	0.175863
	32.990000	-0.001728
	32.995000	-0.054347
	33.000000	0.116666
	33.005000	0.175863
	33.010000	-0.001728
	33.015000	-0.057636
	33.020000	0.119955
	33.025000	0.175863
	33.030000	-0.008305
	33.035000	-0.054347
	33.040000	0.119955
	33.045000	0.175863
	33.050000	-0.005016
	33.055000	-0.057636
	33.060000	0.119955
	33.065000	0.175863
	33.070000	-0.001728
	33.075000	-0.051059
	33.080000	0.126533
	33.085000	0.172575
	33.090000	-0.005016
	33.095000	-0.054347
	33.100000	0.123244
	33.105000	0.169286
	33.110000	-0.011594
	33.115000	-0.060925
	33.120000	0.116666
	33.125000	0.169286
	33.130000	-0.011594
	33.135000	-0.067502
	33.140000	0.113378
	33.145000	0.162708
	33.150000	-0.018171
	33.155000	-0.070791
	33.160000	0.103511
	33.165000	0.152842
	33.170000	-0.031326
	33.175000	-0.083946
	33.180000	0.096934
	33.185000	0.142976
	33.190000	-0.037904
	33.195000	-0.087234
	33.200000	0.096934
	33.205000	0.139687
	33.210000	-0.037904
	33.215000	-0.087234
	33.220000	0.090357
	33.225000	0.139687
	33.230000	-0.044481
	33.235000	-0.090523
	33.240000	0.090357
	33.245000	0.139687
	33.250000	-0.041192
	33.255000	-0.100389
	33.260000	0.090357
	33.265000	0.142976
	33.270000	-0.044481
	33.275000	-0.097101
	33.280000	0.093645
	33.285000	0.139687
	33.290000	-0.047770
	33.295000	-0.093812
	33.300000	0.090357
	33.305000	0.142976
	33.310000	-0.047770
	33.315000	-0.097101
	33.320000	0.087068
	33.325000	0.139687
	33.330000	-0.051059
	33.335000	-0.093812
	33.340000	0.087068
	33.345000	0.136399
	33.350000	-0.051059
	33.355000	-0.100389
	33.360000	0.083779
	33.365000	0.133110
	33.370000	-0.054347
	33.375000	-0.100389
	33.380000	0.090357
	33.385000	0.136399
	33.390000	-0.057636
	33.395000	-0.103678
	33.400000	0.083779
	33.405000	0.126533
	33.410000	-0.057636
	33.415000	-0.097101
	33.420000	0.083779
	33.425000	0.123244
	33.430000	-0.054347
	33.435000	-0.087234
	33.440000	0.093645
	33.445000	0.129821
	33.450000	-0.041192
	33.455000	-0.067502
	33.460000	0.106800
	33.465000	0.136399
	33.470000	-0.034615
	33.475000	-0.051059
	33.480000	0.123244
	33.485000	0.149554
	33.490000	-0.054347
	33.495000	-0.097101
	33.500000	0.093645
	33.505000	0.149554
	33.510000	-0.041192
	33.515000	-0.093812
	33.520000	0.113378
	33.525000	0.169286
	33.530000	-0.028037
	33.535000	-0.077368
	33.540000	0.133110
	33.545000	0.185730
	33.550000	-0.024749
	33.555000	-0.070791
	33.560000	0.139687
	33.565000	0.189018
	33.570000	-0.018171
	33.575000	-0.064213
	33.580000	0.136399
	33.585000	0.192307
	33.590000	-0.021460
	33.595000	-0.067502
	33.600000	0.139687
	33.605000	0.189018
	33.610000	-0.021460
	33.615000	-0.064213
	33.620000	0.133110
	33.625000	0.189018
	33.630000	-0.018171
	33.635000	-0.067502
	33.640000	0.136399
	33.645000	0.185730
	33.650000	-0.021460
	33.655000	-0.067502
	33.660000	0.139687
	33.665000	0.192307
	33.670000	-0.018171
	33.675000	-0.060925
	33.680000	0.142976
	33.685000	0.195596
	33.690000	-0.011594
	33.695000	-0.054347
	33.700000	0.146265
	33.705000	0.195596
	33.710000	-0.011594
	33.715000	-0.060925
	33.720000	0.152842
	33.725000	0.198884
	33.730000	-0.011594
	33.735000	-0.051059
	33.740000	0.156131
	33.745000	0.195596
	33.750000	-0.011594
	33.755000	-0.047770
	33.760000	0.159420
	33.765000	0.198884
	33.770000	-0.011594
	33.775000	-0.047770
	33.780000	0.152842
	33.785000	0.195596
	33.790000	-0.014883
	33.795000	-0.054347
	33.800000	0.146265
	33.805000	0.185730
	33.810000	-0.024749
	33.815000	-0.064213
	33.820000	0.133110
	33.825000	0.179152
	33.830000	-0.024749
	33.835000	-0.064213
	33.840000	0.133110
	33.845000	0.162708
	33.850000	-0.028037
	33.855000	-0.057636
	33.860000	0.142976
	33.865000	0.162708
	33.870000	-0.018171
	33.875000	-0.047770
	33.880000	0.139687
	33.885000	0.159420
	33.890000	-0.024749
	33.895000	-0.037904
	33.900000	0.146265
	33.905000	0.165997
	33.910000	-0.014883
	33.915000	-0.028037
	33.920000	0.149554
	33.925000	0.165997
	33.930000	-0.011594
	33.935000	-0.028037
	33.940000	0.152842
	33.945000	0.165997
	33.950000	-0.014883
	33.955000	-0.028037
	33.960000	0.156131
	33.965000	0.172575
	33.970000	-0.021460
	33.975000	-0.031326
	33.980000	0.149554
	33.985000	0.162708
	33.990000	-0.024749
	33.995000	-0.034615
	34.000000	0.146265
	34.005000	0.159420
	34.010000	-0.024749
	34.015000	-0.037904
	34.020000	0.142976
	34.025000	0.156131
	34.030000	-0.034615
	34.035000	-0.041192
	34.040000	0.146265
	34.045000	0.156131
	34.050000	-0.028037
	34.055000	-0.041192
	34.060000	0.142976
	34.065000	0.149554
	34.070000	-0.031326
	34.075000	-0.041192
	34.080000	0.146265
	34.085000	0.159420
	34.090000	-0.028037
	34.095000	-0.028037
	34.100000	0.152842
	34.105000	0.162708
	34.110000	-0.028037
	34.115000	-0.034615
	34.120000	0.156131
	34.125000	0.162708
	34.130000	-0.024749
	34.135000	-0.034615
	34.140000	0.149554
	34.145000	0.159420
	34.150000	-0.024749
	34.155000	-0.034615
	34.160000	0.149554
	34.165000	0.156131
	34.170000	-0.028037
	34.175000	-0.037904
	34.180000	0.152842
	34.185000	0.159420
	34.190000	-0.031326
	34.195000	-0.028037
	34.200000	0.149554
	34.205000	0.156131
	34.210000	-0.037904
	34.215000	-0.037904
	34.220000	0.149554
	34.225000	0.152842
	34.230000	-0.034615
	34.235000	-0.037904
	34.240000	0.142976
	34.245000	0.149554
	34.250000	-0.037904
	34.255000	-0.034615
	34.260000	0.149554
	34.265000	0.149554
	34.270000	-0.034615
	34.275000	-0.034615
	34.280000	0.149554
	34.285000	0.152842
	34.290000	-0.037904
	34.295000	-0.034615
	34.300000	0.149554
	34.305000	0.149554
	34.310000	-0.037904
	34.315000	-0.028037
	34.320000	0.146265
	34.325000	0.156131
	34.330000	-0.034615
	34.335000	-0.034615
	34.340000	0.156131
	34.345000	0.149554
	34.350000	-0.034615
	34.355000	-0.034615
	34.360000	0.149554
	34.365000	0.149554
	34.370000	-0.041192
	34.375000	-0.034615
	34.380000	0.149554
	34.385000	0.152842
	34.390000	-0.041192
	34.395000	-0.034615
	34.400000	0.149554
	34.405000	0.146265
	34.410000	-0.041192
	34.415000	-0.028037
	34.420000	0.152842
	34.425000	0.149554
	34.430000	-0.037904
	34.435000	-0.031326
	34.440000	0.152842
	34.445000	0.146265
	34.450000	-0.041192
	34.455000	-0.024749
	34.460000	0.159420
	34.465000	0.149554
	34.470000	-0.041192
	34.475000	-0.028037
	34.480000	0.156131
	34.485000	0.146265
	34.490000	-0.037904
	34.495000	-0.028037
	34.500000	0.159420
	34.505000	0.146265
	34.510000	-0.037904
	34.515000	-0.028037
	34.520000	0.156131
	34.525000	0.146265
	34.530000	-0.041192
	34.535000	-0.024749
	34.540000	0.159420
	34.545000	0.149554
	34.550000	-0.037904
	34.555000	-0.028037
	34.560000	0.156131
	34.565000	0.146265
	34.570000	-0.037904
	34.575000	-0.028037
	34.580000	0.162708
	34.585000	0.142976
	34.590000	-0.041192
	34.595000	-0.024749
	34.600000	0.152842
	34.605000	0.146265
	34.610000	-0.041192
	34.615000	-0.024749
	34.620000	0.152842
	34.625000	0.142976
	34.630000	-0.044481
	34.635000	-0.028037
	34.640000	0.156131
	34.645000	0.136399
	34.650000	-0.047770
	34.655000	-0.028037
	34.660000	0.152842
	34.665000	0.139687
	34.670000	-0.047770
	34.675000	-0.028037
	34.680000	0.156131
	34.685000	0.133110
	34.690000	-0.044481
	34.695000	-0.028037
	34.700000	0.156131
	34.705000	0.136399
	34.710000	-0.047770
	34.715000	-0.028037
	34.720000	0.156131
	34.725000	0.136399
	34.730000	-0.047770
	34.735000	-0.031326
	34.740000	0.152842
	34.745000	0.136399
	34.750000	-0.047770
	34.755000	-0.031326
	34.760000	0.152842
	34.765000	0.136399
	34.770000	-0.051059
	34.775000	-0.024749
	34.780000	0.159420
	34.785000	0.133110
	34.790000	-0.051059
	34.795000	-0.031326
	34.800000	0.156131
	34.805000	0.136399
	34.810000	-0.051059
	34.815000	-0.021460
	34.820000	0.156131
	34.825000	0.133110
	34.830000	-0.047770
	34.835000	-0.024749
	34.840000	0.156131
	34.845000	0.136399
	34.850000	-0.047770
	34.855000	-0.024749
	34.860000	0.156131
	34.865000	0.136399
	34.870000	-0.054347
	34.875000	-0.028037
	34.880000	0.156131
	34.885000	0.129821
	34.890000	-0.054347
	34.895000	-0.028037
	34.900000	0.152842
	34.905000	0.126533
	34.910000	-0.064213
	34.915000	-0.031326
	34.920000	0.149554
	34.925000	0.126533
	34.930000	-0.060925
	34.935000	-0.041192
	34.940000	0.146265
	34.945000	0.116666
	34.950000	-0.070791
	34.955000	-0.041192
	34.960000	0.136399
	34.965000	0.106800
	34.970000	-0.077368
	34.975000	-0.054347
	34.980000	0.129821
	34.985000	0.100223
	34.990000	-0.083946
	34.995000	-0.060925
	35.000000	0.129821
	35.005000	0.096934
	35.010000	-0.093812
	35.015000	-0.060925
	35.020000	0.116666
	35.025000	0.090357
	35.030000	-0.100389
	35.035000	-0.067502
	35.040000	0.119955
	35.045000	0.083779
	35.050000	-0.106967
	35.055000	-0.070791
	35.060000	0.113378
	35.065000	0.080490
	35.070000	-0.106967
	35.075000	-0.067502
	35.080000	0.113378
	35.085000	0.080490
	35.090000	-0.103678
	35.095000	-0.067502
	35.100000	0.116666
	35.105000	0.077202
	35.110000	-0.103678
	35.115000	-0.064213
	35.120000	0.106800
	35.125000	0.073913
	35.130000	-0.093812
	35.135000	-0.051059
	35.140000	0.129821
	35.145000	0.093645
	35.150000	-0.074080
	35.155000	-0.028037
	35.160000	0.146265
	35.165000	0.106800
	35.170000	-0.064213
	35.175000	-0.014883
	35.180000	0.162708
	35.185000	0.129821
	35.190000	-0.074080
	35.195000	-0.041192
	35.200000	0.159420
	35.205000	0.126533
	35.210000	-0.077368
	35.215000	-0.041192
	35.220000	0.165997
	35.225000	0.139687
	35.230000	-0.064213
	35.235000	-0.034615
	35.240000	0.175863
	35.245000	0.146265
	35.250000	-0.060925
	35.255000	-0.031326
	35.260000	0.175863
	35.265000	0.149554
	35.270000	-0.070791
	35.275000	-0.028037
	35.280000	0.182441
	35.285000	0.146265
	35.290000	-0.060925
	35.295000	-0.028037
	35.300000	0.182441
	35.305000	0.149554
	35.310000	-0.060925
	35.315000	-0.028037
	35.320000	0.182441
	35.325000	0.146265
	35.330000	-0.064213
	35.335000	-0.028037
	35.340000	0.182441
	35.345000	0.146265
	35.350000	-0.060925
	35.355000	-0.021460
	35.360000	0.182441
	35.365000	0.152842
	35.370000	-0.067502
	35.375000	-0.024749
	35.380000	0.185730
	35.385000	0.149554
	35.390000	-0.060925
	35.395000	-0.024749
	35.400000	0.185730
	35.405000	0.149554
	35.410000	-0.057636
	35.415000	-0.021460
	35.420000	0.185730
	35.425000	0.152842
	35.430000	-0.054347
	35.435000	-0.014883
	35.440000	0.192307
	35.445000	0.152842
	35.450000	-0.054347
	35.455000	-0.011594
	35.460000	0.189018
	35.465000	0.146265
	35.470000	-0.064213
	35.475000	-0.018171
	35.480000	0.182441
	35.485000	0.142976
	35.490000	-0.064213
	35.495000	-0.021460
	35.500000	0.172575
	35.505000	0.126533
	35.510000	-0.064213
	35.515000	-0.021460
	35.520000	0.159420
	35.525000	0.100223
	35.530000	-0.070791
	35.535000	-0.018171
	35.540000	0.159420
	35.545000	0.106800
	35.550000	-0.067502
	35.555000	-0.014883
	35.560000	0.165997
	35.565000	0.103511
	35.570000	-0.070791
	35.575000	-0.018171
	35.580000	0.162708
	35.585000	0.103511
	35.590000	-0.074080
	35.595000	-0.011594
	35.600000	0.159420
	35.605000	0.106800
	35.610000	-0.070791
	35.615000	-0.011594
	35.620000	0.169286
	35.625000	0.110089
	35.630000	-0.064213
	35.635000	-0.011594
	35.640000	0.162708
	35.645000	0.100223
	35.650000	-0.070791
	35.655000	-0.014883
	35.660000	0.159420
	35.665000	0.100223
	35.670000	-0.074080
	35.675000	-0.018171
	35.680000	0.156131
	35.685000	0.093645
	35.690000	-0.080657
	35.695000	-0.021460
	35.700000	0.149554
	35.705000	0.090357
	35.710000	-0.083946
	35.715000	-0.024749
	35.720000	0.149554
	35.725000	0.083779
	35.730000	-0.087234
	35.735000	-0.024749
	35.740000	0.149554
	35.745000	0.090357
	35.750000	-0.087234
	35.755000	-0.018171
	35.760000	0.156131
	35.765000	0.093645
	35.770000	-0.087234
	35.775000	-0.028037
	35.780000	0.152842
	35.785000	0.093645
	35.790000	-0.083946
	35.795000	-0.014883
	35.800000	0.159420
	35.805000	0.093645
	35.810000	-0.080657
	35.815000	-0.018171
	35.820000	0.159420
	35.825000	0.093645
	35.830000	-0.080657
	35.835000	-0.011594
	35.840000	0.162708
	35.845000	0.090357
	35.850000	-0.080657
	35.855000	-0.018171
	35.860000	0.156131
	35.865000	0.087068
	35.870000	-0.087234
	35.875000	-0.018171
	35.880000	0.149554
	35.885000	0.090357
	35.890000	-0.090523
	35.895000	-0.021460
	35.900000	0.152842
	35.905000	0.087068
	35.910000	-0.093812
	35.915000	-0.018171
	35.920000	0.152842
	35.925000	0.087068
	35.930000	-0.090523
	35.935000	-0.018171
	35.940000	0.156131
	35.945000	0.080490
	35.950000	-0.093812
	35.955000	-0.021460
	35.960000	0.149554
	35.965000	0.077202
	35.970000	-0.093812
	35.975000	-0.024749
	35.980000	0.149554
	35.985000	0.077202
	35.990000	-0.097101
	35.995000	-0.018171
	36.000000	0.149554
	36.005000	0.077202
	36.010000	-0.090523
	36.015000	-0.011594
	36.020000	0.152842
	36.025000	0.083779
	36.030000	-0.083946
	36.035000	-0.011594
	36.040000	0.156131
	36.045000	0.083779
	36.050000	-0.087234
	36.055000	-0.011594
	36.060000	0.159420
	36.065000	0.083779
	36.070000	-0.083946
	36.075000	-0.011594
	36.080000	0.152842
	36.085000	0.080490
	36.090000	-0.083946
	36.095000	-0.011594
	36.100000	0.159420
	36.105000	0.080490
	36.110000	-0.087234
	36.115000	-0.008305
	36.120000	0.156131
	36.125000	0.077202
	36.130000	-0.090523
	36.135000	-0.011594
	36.140000	0.156131
	36.145000	0.077202
	36.150000	-0.090523
	36.155000	-0.011594
	36.160000	0.152842
	36.165000	0.077202
	36.170000	-0.093812
	36.175000	-0.008305
	36.180000	0.152842
	36.185000	0.077202
	36.190000	-0.093812
	36.195000	-0.014883
	36.200000	0.152842
	36.205000	0.073913
	36.210000	-0.097101
	36.215000	-0.014883
	36.220000	0.146265
	36.225000	0.070624
	36.230000	-0.100389
	36.235000	-0.021460
	36.240000	0.146265
	36.245000	0.067335
	36.250000	-0.103678
	36.255000	-0.024749
	36.260000	0.142976
	36.265000	0.064047
	36.270000	-0.113544
	36.275000	-0.024749
	36.280000	0.142976
	36.285000	0.057469
	36.290000	-0.113544
	36.295000	-0.028037
	36.300000	0.136399
	36.305000	0.054181
	36.310000	-0.113544
	36.315000	-0.034615
	36.320000	0.133110
	36.325000	0.050892
	36.330000	-0.120122
	36.335000	-0.028037
	36.340000	0.133110
	36.345000	0.050892
	36.350000	-0.123410
	36.355000	-0.034615
	36.360000	0.133110
	36.365000	0.050892
	36.370000	-0.116833
	36.375000	-0.028037
	36.380000	0.139687
	36.385000	0.050892
	36.390000	-0.120122
	36.395000	-0.028037
	36.400000	0.133110
	36.405000	0.047603
	36.410000	-0.123410
	36.415000	-0.028037
	36.420000	0.136399
	36.425000	0.047603
	36.430000	-0.116833
	36.435000	-0.028037
	36.440000	0.136399
	36.445000	0.044314
	36.450000	-0.123410
	36.455000	-0.028037
	36.460000	0.133110
	36.465000	0.047603
	36.470000	-0.120122
	36.475000	-0.031326
	36.480000	0.133110
	36.485000	0.041026
	36.490000	-0.120122
	36.495000	-0.024749
	36.500000	0.139687
	36.505000	0.047603
	36.510000	-0.123410
	36.515000	-0.031326
	36.520000	0.133110
	36.525000	0.044314
	36.530000	-0.126699
	36.535000	-0.028037
	36.540000	0.133110
	36.545000	0.037737
	36.550000	-0.123410
	36.555000	-0.031326
	36.560000	0.136399
	36.565000	0.041026
	36.570000	-0.126699
	36.575000	-0.031326
	36.580000	0.133110
	36.585000	0.037737
	36.590000	-0.120122
	36.595000	-0.028037
	36.600000	0.136399
	36.605000	0.041026
	36.610000	-0.126699
	36.615000	-0.034615
	36.620000	0.133110
	36.625000	0.034448
	36.630000	-0.129988
	36.635000	-0.034615
	36.640000	0.129821
	36.645000	0.031160
	36.650000	-0.129988
	36.655000	-0.037904
	36.660000	0.129821
	36.665000	0.031160
	36.670000	-0.126699
	36.675000	-0.034615
	36.680000	0.129821
	36.685000	0.031160
	36.690000	-0.133277
	36.695000	-0.031326
	36.700000	0.123244
	36.705000	0.027871
	36.710000	-0.133277
	36.715000	-0.031326
	36.720000	0.126533
	36.725000	0.014716
	36.730000	-0.133277
	36.735000	-0.037904
	36.740000	0.123244
	36.745000	0.018005
	36.750000	-0.139854
	36.755000	-0.037904
	36.760000	0.116666
	36.765000	0.018005
	36.770000	-0.143143
	36.775000	-0.034615
	36.780000	0.119955
	36.785000	0.014716
	36.790000	-0.143143
	36.795000	-0.037904
	36.800000	0.113378
	36.805000	0.011427
	36.810000	-0.139854
	36.815000	-0.041192
	36.820000	0.110089
	36.825000	0.008138
	36.830000	-0.123410
	36.835000	-0.021460
	36.840000	0.123244
	36.845000	0.024582
	36.850000	-0.106967
	36.855000	0.004850
	36.860000	0.142976
	36.865000	0.037737
	36.870000	-0.100389
	36.875000	0.008138
	36.880000	0.142976
	36.885000	0.031160
	36.890000	-0.123410
	36.895000	-0.014883
	36.900000	0.152842
	36.905000	0.054181
	36.910000	-0.120122
	36.915000	-0.011594
	36.920000	0.172575
	36.925000	0.064047
	36.930000	-0.113544
	36.935000	-0.005016
	36.940000	0.179152
	36.945000	0.070624
	36.950000	-0.110256
	36.955000	0.001561
	36.960000	0.182441
	36.965000	0.067335
	36.970000	-0.110256
	36.975000	0.004850
	36.980000	0.179152
	36.985000	0.067335
	36.990000	-0.110256
	36.995000	0.001561
	37.000000	0.182441
	37.005000	0.067335
	37.010000	-0.110256
	37.015000	0.004850
	37.020000	0.182441
	37.025000	0.070624
	37.030000	-0.110256
	37.035000	0.004850
	37.040000	0.182441
	37.045000	0.067335
	37.050000	-0.110256
	37.055000	0.004850
	37.060000	0.182441
	37.065000	0.073913
	37.070000	-0.106967
	37.075000	0.008138
	37.080000	0.185730
	37.085000	0.070624
	37.090000	-0.106967
	37.095000	0.011427
	37.100000	0.189018
	37.105000	0.073913
	37.110000	-0.103678
	37.115000	0.011427
	37.120000	0.192307
	37.125000	0.077202
	37.130000	-0.103678
	37.135000	0.021293
	37.140000	0.195596
	37.145000	0.070624
	37.150000	-0.103678
	37.155000	0.021293
	37.160000	0.198884
	37.165000	0.080490
	37.170000	-0.097101
	37.175000	0.018005
	37.180000	0.189018
	37.185000	0.067335
	37.190000	-0.100389
	37.195000	0.018005
	37.200000	0.185730
	37.205000	0.064047
	37.210000	-0.113544
	37.215000	0.004850
	37.220000	0.169286
	37.225000	0.054181
	37.230000	-0.103678
	37.235000	0.011427
	37.240000	0.156131
	37.245000	0.034448
	37.250000	-0.110256
	37.255000	0.011427
	37.260000	0.146265
	37.265000	0.034448
	37.270000	-0.103678
	37.275000	0.014716
	37.280000	0.149554
	37.285000	0.031160
	37.290000	-0.103678
	37.295000	0.018005
	37.300000	0.159420
	37.305000	0.037737
	37.310000	-0.100389
	37.315000	0.018005
	37.320000	0.156131
	37.325000	0.041026
	37.330000	-0.093812
	37.335000	0.024582
	37.340000	0.159420
	37.345000	0.041026
	37.350000	-0.097101
	37.355000	0.024582
	37.360000	0.159420
	37.365000	0.041026
	37.370000	-0.097101
	37.375000	0.024582
	37.380000	0.162708
	37.385000	0.041026
	37.390000	-0.097101
	37.395000	0.027871
	37.400000	0.159420
	37.405000	0.037737
	37.410000	-0.093812
	37.415000	0.027871
	37.420000	0.159420
	37.425000	0.034448
	37.430000	-0.097101
	37.435000	0.021293
	37.440000	0.159420
	37.445000	0.037737
	37.450000	-0.103678
	37.455000	0.024582
	37.460000	0.156131
	37.465000	0.031160
	37.470000	-0.100389
	37.475000	0.024582
	37.480000	0.159420
	37.485000	0.034448
	37.490000	-0.100389
	37.495000	0.024582
	37.500000	0.162708
	37.505000	0.034448
	37.510000	-0.100389
	37.515000	0.027871
	37.520000	0.162708
	37.525000	0.034448
	37.530000	-0.097101
	37.535000	0.034448
	37.540000	0.165997
	37.545000	0.037737
	37.550000	-0.093812
	37.555000	0.031160
	37.560000	0.162708
	37.565000	0.034448
	37.570000	-0.097101
	37.575000	0.027871
	37.580000	0.165997
	37.585000	0.034448
	37.590000	-0.097101
	37.595000	0.027871
	37.600000	0.159420
	37.605000	0.031160
	37.610000	-0.103678
	37.615000	0.031160
	37.620000	0.156131
	37.625000	0.031160
	37.630000	-0.097101
	37.635000	0.031160
	37.640000	0.156131
	37.645000	0.031160
	37.650000	-0.103678
	37.655000	0.024582
	37.660000	0.162708
	37.665000	0.027871
	37.670000	-0.100389
	37.675000	0.031160
	37.680000	0.159420
	37.685000	0.031160
	37.690000	-0.100389
	37.695000	0.031160
	37.700000	0.156131
	37.705000	0.024582
	37.710000	-0.100389
	37.715000	0.034448
	37.720000	0.159420
	37.725000	0.031160
	37.730000	-0.100389
	37.735000	0.034448
	37.740000	0.159420
	37.745000	0.027871
	37.750000	-0.097101
	37.755000	0.037737
	37.760000	0.156131
	37.765000	0.027871
	37.770000	-0.100389
	37.775000	0.034448
	37.780000	0.162708
	37.785000	0.024582
	37.790000	-0.100389
	37.795000	0.034448
	37.800000	0.156131
	37.805000	0.018005
	37.810000	-0.103678
	37.815000	0.031160
	37.820000	0.152842
	37.825000	0.024582
	37.830000	-0.103678
	37.835000	0.027871
	37.840000	0.156131
	37.845000	0.014716
	37.850000	-0.110256
	37.855000	0.024582
	37.860000	0.152842
	37.865000	0.018005
	37.870000	-0.110256
	37.875000	0.027871
	37.880000	0.152842
	37.885000	0.018005
	37.890000	-0.100389
	37.895000	0.031160
	37.900000	0.152842
	37.905000	0.018005
	37.910000	-0.103678
	37.915000	0.034448
	37.920000	0.156131
	37.925000	0.014716
	37.930000	-0.103678
	37.935000	0.031160
	37.940000	0.159420
	37.945000	0.021293
	37.950000	-0.100389
	37.955000	0.034448
	37.960000	0.156131
	37.965000	0.014716
	37.970000	-0.100389
	37.975000	0.041026
	37.980000	0.156131
	37.985000	0.018005
	37.990000	-0.100389
	37.995000	0.041026
	38.000000	0.159420
	38.005000	0.014716
	38.010000	-0.100389
	38.015000	0.041026
	38.020000	0.159420
	38.025000	0.014716
	38.030000	-0.100389
	38.035000	0.037737
	38.040000	0.156131
	38.045000	0.011427
	38.050000	-0.106967
	38.055000	0.034448
	38.060000	0.152842
	38.065000	0.011427
	38.070000	-0.106967
	38.075000	0.037737
	38.080000	0.152842
	38.085000	0.011427
	38.090000	-0.106967
	38.095000	0.034448
	38.100000	0.149554
	38.105000	0.001561
	38.110000	-0.113544
	38.115000	0.024582
	38.120000	0.139687
	38.125000	-0.008305
	38.130000	-0.120122
	38.135000	0.024582
	38.140000	0.139687
	38.145000	-0.001728
	38.150000	-0.113544
	38.155000	0.027871
	38.160000	0.142976
	38.165000	-0.005016
	38.170000	-0.113544
	38.175000	0.031160
	38.180000	0.142976
	38.185000	0.001561
	38.190000	-0.116833
	38.195000	0.027871
	38.200000	0.142976
	38.205000	-0.005016
	38.210000	-0.120122
	38.215000	0.027871
	38.220000	0.139687
	38.225000	-0.005016
	38.230000	-0.123410
	38.235000	0.024582
	38.240000	0.139687
	38.245000	-0.008305
	38.250000	-0.126699
	38.255000	0.024582
	38.260000	0.139687
	38.265000	-0.011594
	38.270000	-0.126699
	38.275000	0.021293
	38.280000	0.129821
	38.285000	-0.018171
	38.290000	-0.133277
	38.295000	0.018005
	38.300000	0.129821
	38.305000	-0.014883
	38.310000	-0.133277
	38.315000	0.018005
	38.320000	0.129821
	38.325000	-0.014883
	38.330000	-0.129988
	38.335000	0.021293
	38.340000	0.129821
	38.345000	-0.021460
	38.350000	-0.133277
	38.355000	0.018005
	38.360000	0.126533
	38.365000	-0.021460
	38.370000	-0.136565
	38.375000	0.014716
	38.380000	0.123244
	38.385000	-0.024749
	38.390000	-0.136565
	38.395000	0.014716
	38.400000	0.129821
	38.405000	-0.024749
	38.410000	-0.136565
	38.415000	0.014716
	38.420000	0.126533
	38.425000	-0.028037
	38.430000	-0.136565
	38.435000	0.014716
	38.440000	0.129821
	38.445000	-0.028037
	38.450000	-0.136565
	38.455000	0.014716
	38.460000	0.129821
	38.465000	-0.024749
	38.470000	-0.139854
	38.475000	0.011427
	38.480000	0.126533
	38.485000	-0.028037
	38.490000	-0.146431
	38.495000	0.004850
	38.500000	0.116666
	38.505000	-0.037904
	38.510000	-0.153009
	38.515000	0.008138
	38.520000	0.116666
	38.525000	-0.037904
	38.530000	-0.149720
	38.535000	0.004850
	38.540000	0.116666
	38.545000	-0.034615
	38.550000	-0.146431
	38.555000	0.008138
	38.560000	0.119955
	38.565000	-0.037904
	38.570000	-0.149720
	38.575000	0.014716
	38.580000	0.116666
	38.585000	-0.037904
	38.590000	-0.143143
	38.595000	0.014716
	38.600000	0.119955
	38.605000	-0.031326
	38.610000	-0.146431
	38.615000	0.014716
	38.620000	0.119955
	38.625000	-0.037904
	38.630000	-0.143143
	38.635000	0.011427
	38.640000	0.116666
	38.645000	-0.037904
	38.650000	-0.143143
	38.655000	0.011427
	38.660000	0.119955
	38.665000	-0.037904
	38.670000	-0.146431
	38.675000	0.011427
	38.680000	0.119955
	38.685000	-0.044481
	38.690000	-0.146431
	38.695000	0.014716
	38.700000	0.116666
	38.705000	-0.037904
	38.710000	-0.146431
	38.715000	0.011427
	38.720000	0.119955
	38.725000	-0.041192
	38.730000	-0.146431
	38.735000	0.014716
	38.740000	0.116666
	38.745000	-0.044481
	38.750000	-0.146431
	38.755000	0.014716
	38.760000	0.116666
	38.765000	-0.044481
	38.770000	-0.149720
	38.775000	0.018005
	38.780000	0.116666
	38.785000	-0.051059
	38.790000	-0.153009
	38.795000	0.014716
	38.800000	0.119955
	38.805000	-0.047770
	38.810000	-0.143143
	38.815000	0.014716
	38.820000	0.119955
	38.825000	-0.047770
	38.830000	-0.146431
	38.835000	0.018005
	38.840000	0.116666
	38.845000	-0.051059
	38.850000	-0.139854
	38.855000	0.014716
	38.860000	0.116666
	38.865000	-0.054347
	38.870000	-0.146431
	38.875000	0.018005
	38.880000	0.113378
	38.885000	-0.051059
	38.890000	-0.146431
	38.895000	0.014716
	38.900000	0.110089
	38.905000	-0.051059
	38.910000	-0.146431
	38.915000	0.014716
	38.920000	0.106800
	38.925000	-0.051059
	38.930000	-0.133277
	38.935000	0.021293
	38.940000	0.096934
	38.945000	-0.057636
	38.950000	-0.129988
	38.955000	0.034448
	38.960000	0.116666
	38.965000	-0.041192
	38.970000	-0.116833
	38.975000	0.044314
	38.980000	0.123244
	38.985000	-0.037904
	38.990000	-0.100389
	38.995000	0.064047
	39.000000	0.159420
	39.005000	-0.014883
	39.010000	-0.126699
	39.015000	0.054181
	39.020000	0.162708
	39.025000	-0.011594
	39.030000	-0.116833
	39.035000	0.057469
	39.040000	0.175863
	39.045000	-0.005016
	39.050000	-0.116833
	39.055000	0.064047
	39.060000	0.175863
	39.065000	-0.001728
	39.070000	-0.113544
	39.075000	0.064047
	39.080000	0.175863
	39.085000	-0.005016
	39.090000	-0.116833
	39.095000	0.064047
	39.100000	0.179152
	39.105000	-0.005016
	39.110000	-0.113544
	39.115000	0.064047
	39.120000	0.179152
	39.125000	-0.008305
	39.130000	-0.116833
	39.135000	0.070624
	39.140000	0.179152
	39.145000	-0.008305
	39.150000	-0.113544
	39.155000	0.067335
	39.160000	0.172575
	39.165000	-0.011594
	39.170000	-0.116833
	39.175000	0.067335
	39.180000	0.175863
	39.185000	-0.008305
	39.190000	-0.110256
	39.195000	0.067335
	39.200000	0.175863
	39.205000	-0.008305
	39.210000	-0.110256
	39.215000	0.077202
	39.220000	0.182441
	39.225000	-0.001728
	39.230000	-0.106967
	39.235000	0.077202
	39.240000	0.182441
	39.245000	0.001561
	39.250000	-0.100389
	39.255000	0.083779
	39.260000	0.189018
	39.265000	0.008138
	39.270000	-0.090523
	39.275000	0.090357
	39.280000	0.185730
	39.285000	0.001561
	39.290000	-0.103678
	39.295000	0.070624
	39.300000	0.169286
	39.305000	-0.001728
	39.310000	-0.077368
	39.315000	0.077202
	39.320000	0.156131
	39.325000	-0.018171
	39.330000	-0.087234
	39.335000	0.073913
	39.340000	0.146265
	39.345000	-0.024749
	39.350000	-0.097101
	39.355000	0.067335
	39.360000	0.142976
	39.365000	-0.018171
	39.370000	-0.093812
	39.375000	0.070624
	39.380000	0.142976
	39.385000	-0.028037
	39.390000	-0.097101
	39.395000	0.073913
	39.400000	0.149554
	39.405000	-0.028037
	39.410000	-0.090523
	39.415000	0.073913
	39.420000	0.149554
	39.425000	-0.024749
	39.430000	-0.090523
	39.435000	0.073913
	39.440000	0.146265
	39.445000	-0.024749
	39.450000	-0.093812
	39.455000	0.077202
	39.460000	0.142976
	39.465000	-0.031326
	39.470000	-0.097101
	39.475000	0.070624
	39.480000	0.136399
	39.485000	-0.031326
	39.490000	-0.100389
	39.495000	0.067335
	39.500000	0.133110
	39.505000	-0.037904
	39.510000	-0.106967
	39.515000	0.060758
	39.520000	0.126533
	39.525000	-0.041192
	39.530000	-0.110256
	39.535000	0.060758
	39.540000	0.129821
	39.545000	-0.041192
	39.550000	-0.106967
	39.555000	0.064047
	39.560000	0.126533
	39.565000	-0.044481
	39.570000	-0.106967
	39.575000	0.067335
	39.580000	0.133110
	39.585000	-0.037904
	39.590000	-0.100389
	39.595000	0.073913
	39.600000	0.139687
	39.605000	-0.037904
	39.610000	-0.100389
	39.615000	0.073913
	39.620000	0.133110
	39.625000	-0.031326
	39.630000	-0.093812
	39.635000	0.077202
	39.640000	0.142976
	39.645000	-0.034615
	39.650000	-0.093812
	39.655000	0.073913
	39.660000	0.133110
	39.665000	-0.037904
	39.670000	-0.100389
	39.675000	0.077202
	39.680000	0.133110
	39.685000	-0.041192
	39.690000	-0.103678
	39.695000	0.077202
	39.700000	0.136399
	39.705000	-0.041192
	39.710000	-0.097101
	39.715000	0.077202
	39.720000	0.129821
	39.725000	-0.041192
	39.730000	-0.100389
	39.735000	0.077202
	39.740000	0.133110
	39.745000	-0.044481
	39.750000	-0.100389
	39.755000	0.073913
	39.760000	0.136399
	39.765000	-0.041192
	39.770000	-0.097101
	39.775000	0.077202
	39.780000	0.136399
	39.785000	-0.034615
	39.790000	-0.093812
	39.795000	0.080490
	39.800000	0.139687
	39.805000	-0.031326
	39.810000	-0.090523
	39.815000	0.083779
	39.820000	0.139687
	39.825000	-0.037904
	39.830000	-0.090523
	39.835000	0.083779
	39.840000	0.136399
	39.845000	-0.037904
	39.850000	-0.090523
	39.855000	0.083779
	39.860000	0.142976
	39.865000	-0.041192
	39.870000	-0.093812
	39.875000	0.083779
	39.880000	0.136399
	39.885000	-0.037904
	39.890000	-0.100389
	39.895000	0.077202
	39.900000	0.136399
	39.905000	-0.047770
	39.910000	-0.103678
	39.915000	0.073913
	39.920000	0.133110
	39.925000	-0.051059
	39.930000	-0.103678
	39.935000	0.073913
	39.940000	0.126533
	39.945000	-0.054347
	39.950000	-0.110256
	39.955000	0.070624
	39.960000	0.129821
	39.965000	-0.054347
	39.970000	-0.110256
	39.975000	0.067335
	39.980000	0.123244
	39.985000	-0.057636
	39.990000	-0.113544
	39.995000	0.067335
	40.000000	0.119955
	40.005000	-0.064213
	40.010000	-0.120122
	40.015000	0.060758
	40.020000	0.116666
	40.025000	-0.070791
	40.030000	-0.123410
	40.035000	0.060758
	40.040000	0.119955
	40.045000	-0.070791
	40.050000	-0.126699
	40.055000	0.057469
	40.060000	0.110089
	40.065000	-0.074080
	40.070000	-0.126699
	40.075000	0.054181
	40.080000	0.110089
	40.085000	-0.077368
	40.090000	-0.123410
	40.095000	0.057469
	40.100000	0.106800
	40.105000	-0.074080
	40.110000	-0.129988
	40.115000	0.054181
	40.120000	0.106800
	40.125000	-0.077368
	40.130000	-0.129988
	40.135000	0.057469
	40.140000	0.106800
	40.145000	-0.083946
	40.150000	-0.129988
	40.155000	0.054181
	40.160000	0.110089
	40.165000	-0.080657
	40.170000	-0.126699
	40.175000	0.057469
	40.180000	0.106800
	40.185000	-0.077368
	40.190000	-0.126699
	40.195000	0.060758
	40.200000	0.103511
	40.205000	-0.080657
	40.210000	-0.126699
	40.215000	0.057469
	40.220000	0.103511
	40.225000	-0.083946
	40.230000	-0.126699
	40.235000	0.054181
	40.240000	0.096934
	40.245000	-0.083946
	40.250000	-0.129988
	40.255000	0.057469
	40.260000	0.100223
	40.265000	-0.087234
	40.270000	-0.126699
	40.275000	0.057469
	40.280000	0.106800
	40.285000	-0.083946
	40.290000	-0.126699
	40.295000	0.054181
	40.300000	0.100223
	40.305000	-0.087234
	40.310000	-0.129988
	40.315000	0.054181
	40.320000	0.096934
	40.325000	-0.093812
	40.330000	-0.133277
	40.335000	0.050892
	40.340000	0.093645
	40.345000	-0.093812
	40.350000	-0.129988
	40.355000	0.047603
	40.360000	0.090357
	40.365000	-0.097101
	40.370000	-0.139854
	40.375000	0.050892
	40.380000	0.090357
	40.385000	-0.100389
	40.390000	-0.133277
	40.395000	0.047603
	40.400000	0.090357
	40.405000	-0.103678
	40.410000	-0.136565
	40.415000	0.047603
	40.420000	0.087068
	40.425000	-0.100389
	40.430000	-0.143143
	40.435000	0.044314
	40.440000	0.087068
	40.445000	-0.100389
	40.450000	-0.139854
	40.455000	0.047603
	40.460000	0.090357
	40.465000	-0.100389
	40.470000	-0.139854
	40.475000	0.050892
	40.480000	0.087068
	40.485000	-0.103678
	40.490000	-0.139854
	40.495000	0.050892
	40.500000	0.083779
	40.505000	-0.103678
	40.510000	-0.136565
	40.515000	0.047603
	40.520000	0.090357
	40.525000	-0.097101
	40.530000	-0.133277
	40.535000	0.054181
	40.540000	0.093645
	40.545000	-0.100389
	40.550000	-0.133277
	40.555000	0.054181
	40.560000	0.090357
	40.565000	-0.100389
	40.570000	-0.136565
	40.575000	0.050892
	40.580000	0.083779
	40.585000	-0.103678
	40.590000	-0.129988
	40.595000	0.050892
	40.600000	0.080490
	40.605000	-0.103678
	40.610000	-0.123410
	40.615000	0.050892
	40.620000	0.060758
	40.625000	-0.110256
	40.630000	-0.120122
	40.635000	0.057469
	40.640000	0.070624
	40.645000	-0.100389
	40.650000	-0.106967
	40.655000	0.064047
	40.660000	0.077202
	40.665000	-0.090523
	40.670000	-0.097101
	40.675000	0.077202
	40.680000	0.083779
	40.685000	-0.087234
	40.690000	-0.090523
	40.695000	0.119955
	40.700000	0.162708
	40.705000	-0.044481
	40.710000	-0.083946
	40.715000	0.116666
	40.720000	0.156131
	40.725000	-0.047770
	40.730000	-0.090523
	40.735000	0.110089
	40.740000	0.152842
	40.745000	-0.054347
	40.750000	-0.093812
	40.755000	0.113378
	40.760000	0.149554
	40.765000	-0.060925
	40.770000	-0.097101
	40.775000	0.113378
	40.780000	0.152842
	40.785000	-0.060925
	40.790000	-0.093812
	40.795000	0.110089
	40.800000	0.149554
	40.805000	-0.057636
	40.810000	-0.100389
	40.815000	0.110089
	40.820000	0.146265
	40.825000	-0.060925
	40.830000	-0.097101
	40.835000	0.113378
	40.840000	0.149554
	40.845000	-0.057636
	40.850000	-0.093812
	40.855000	0.116666
	40.860000	0.152842
	40.865000	-0.057636
	40.870000	-0.090523
	40.875000	0.119955
	40.880000	0.152842
	40.885000	-0.057636
	40.890000	-0.093812
	40.895000	0.123244
	40.900000	0.156131
	40.905000	-0.054347
	40.910000	-0.087234
	40.915000	0.126533
	40.920000	0.159420
	40.925000	-0.051059
	40.930000	-0.077368
	40.935000	0.123244
	40.940000	0.152842
	40.945000	-0.057636
	40.950000	-0.080657
	40.955000	0.123244
	40.960000	0.149554
	40.965000	-0.054347
	40.970000	-0.077368
	40.975000	0.116666
	40.980000	0.142976
	40.985000	-0.057636
	40.990000	-0.083946
	40.995000	0.119955
	41.000000	0.142976
	41.005000	-0.064213
	41.010000	-0.093812
	41.015000	0.110089
	41.020000	0.133110
	41.025000	-0.064213
	41.030000	-0.087234
	41.035000	0.106800
	41.040000	0.133110
	41.045000	-0.070791
	41.050000	-0.087234
	41.055000	0.100223
	41.060000	0.116666
	41.065000	-0.080657
	41.070000	-0.090523
	41.075000	0.103511
	41.080000	0.123244
	41.085000	-0.064213
	41.090000	-0.077368
	41.095000	0.113378
	41.100000	0.126533
	41.105000	-0.060925
	41.110000	-0.070791
	41.115000	0.106800
	41.120000	0.116666
	41.125000	-0.070791
	41.130000	-0.070791
	41.135000	0.110089
	41.140000	0.110089
	41.145000	-0.067502
	41.150000	-0.067502
	41.155000	0.113378
	41.160000	0.116666
	41.165000	-0.067502
	41.170000	-0.067502
	41.175000	0.116666
	41.180000	0.113378
	41.185000	-0.074080
	41.190000	-0.074080
	41.195000	0.110089
	41.200000	0.110089
	41.205000	-0.074080
	41.210000	-0.070791
	41.215000	0.110089
	41.220000	0.106800
	41.225000	-0.074080
	41.230000	-0.074080
	41.235000	0.106800
	41.240000	0.110089
	41.245000	-0.077368
	41.250000	-0.070791
	41.255000	0.113378
	41.260000	0.110089
	41.265000	-0.074080
	41.270000	-0.067502
	41.275000	0.113378
	41.280000	0.110089
	41.285000	-0.067502
	41.290000	-0.064213
	41.295000	0.110089
	41.300000	0.110089
	41.305000	-0.074080
	41.310000	-0.070791
	41.315000	0.119955
	41.320000	0.110089
	41.325000	-0.070791
	41.330000	-0.067502
	41.335000	0.113378
	41.340000	0.110089
	41.345000	-0.074080
	41.350000	-0.067502
	41.355000	0.113378
	41.360000	0.110089
	41.365000	-0.070791
	41.370000	-0.070791
	41.375000	0.116666
	41.380000	0.106800
	41.385000	-0.080657
	41.390000	-0.064213
	41.395000	0.113378
	41.400000	0.106800
	41.405000	-0.074080
	41.410000	-0.064213
	41.415000	0.113378
	41.420000	0.110089
	41.425000	-0.077368
	41.430000	-0.067502
	41.435000	0.116666
	41.440000	0.110089
	41.445000	-0.077368
	41.450000	-0.064213
	41.455000	0.116666
	41.460000	0.113378
	41.465000	-0.074080
	41.470000	-0.064213
	41.475000	0.123244
	41.480000	0.113378
	41.485000	-0.070791
	41.490000	-0.057636
	41.495000	0.126533
	41.500000	0.113378
	41.505000	-0.067502
	41.510000	-0.054347
	41.515000	0.126533
	41.520000	0.113378
	41.525000	-0.067502
	41.530000	-0.051059
	41.535000	0.123244
	41.540000	0.113378
	41.545000	-0.067502
	41.550000	-0.054347
	41.555000	0.123244
	41.560000	0.113378
	41.565000	-0.067502
	41.570000	-0.057636
	41.575000	0.123244
	41.580000	0.113378
	41.585000	-0.070791
	41.590000	-0.057636
	41.595000	0.129821
	41.600000	0.113378
	41.605000	-0.064213
	41.610000	-0.054347
	41.615000	0.126533
	41.620000	0.113378
	41.625000	-0.067502
	41.630000	-0.051059
	41.635000	0.126533
	41.640000	0.113378
	41.645000	-0.070791
	41.650000	-0.054347
	41.655000	0.133110
	41.660000	0.113378
	41.665000	-0.070791
	41.670000	-0.047770
	41.675000	0.126533
	41.680000	0.116666
	41.685000	-0.067502
	41.690000	-0.054347
	41.695000	0.133110
	41.700000	0.113378
	41.705000	-0.070791
	41.710000	-0.047770
	41.715000	0.129821
	41.720000	0.113378
	41.725000	-0.070791
	41.730000	-0.044481
	41.735000	0.139687
	41.740000	0.116666
	41.745000	-0.070791
	41.750000	-0.047770
	41.755000	0.129821
	41.760000	0.113378
	41.765000	-0.064213
	41.770000	-0.051059
	41.775000	0.129821
	41.780000	0.106800
	41.785000	-0.077368
	41.790000	-0.054347
	41.795000	0.126533
	41.800000	0.106800
	41.805000	-0.077368
	41.810000	-0.054347
	41.815000	0.129821
	41.820000	0.106800
	41.825000	-0.080657
	41.830000	-0.054347
	41.835000	0.126533
	41.840000	0.103511
	41.845000	-0.077368
	41.850000	-0.054347
	41.855000	0.129821
	41.860000	0.100223
	41.865000	-0.080657
	41.870000	-0.054347
	41.875000	0.126533
	41.880000	0.106800
	41.885000	-0.083946
	41.890000	-0.054347
	41.895000	0.123244
	41.900000	0.100223
	41.905000	-0.083946
	41.910000	-0.054347
	41.915000	0.123244
	41.920000	0.093645
	41.925000	-0.080657
	41.930000	-0.060925
	41.935000	0.119955
	41.940000	0.093645
	41.945000	-0.083946
	41.950000	-0.057636
	41.955000	0.123244
	41.960000	0.093645
	41.965000	-0.087234
	41.970000	-0.060925
	41.975000	0.119955
	41.980000	0.090357
	41.985000	-0.087234
	41.990000	-0.057636
	41.995000	0.123244
	42.000000	0.090357
	42.005000	-0.100389
	42.010000	-0.070791
	42.015000	0.110089
	42.020000	0.083779
	42.025000	-0.103678
	42.030000	-0.077368
	42.035000	0.103511
	42.040000	0.080490
	42.045000	-0.106967
	42.050000	-0.077368
	42.055000	0.100223
	42.060000	0.077202
	42.065000	-0.113544
	42.070000	-0.083946
	42.075000	0.103511
	42.080000	0.077202
	42.085000	-0.110256
	42.090000	-0.080657
	42.095000	0.100223
	42.100000	0.073913
	42.105000	-0.113544
	42.110000	-0.077368
	42.115000	0.103511
	42.120000	0.067335
	42.125000	-0.110256
	42.130000	-0.074080
	42.135000	0.106800
	42.140000	0.070624
	42.145000	-0.100389
	42.150000	-0.060925
	42.155000	0.113378
	42.160000	0.073913
	42.165000	-0.090523
	42.170000	-0.044481
	42.175000	0.156131
	42.180000	0.129821
	42.185000	-0.077368
	42.190000	-0.047770
	42.195000	0.152842
	42.200000	0.133110
	42.205000	-0.077368
	42.210000	-0.051059
	42.215000	0.159420
	42.220000	0.133110
	42.225000	-0.077368
	42.230000	-0.051059
	42.235000	0.159420
	42.240000	0.129821
	42.245000	-0.077368
	42.250000	-0.054347
	42.255000	0.156131
	42.260000	0.133110
	42.265000	-0.083946
	42.270000	-0.047770
	42.275000	0.156131
	42.280000	0.133110
	42.285000	-0.083946
	42.290000	-0.051059
	42.295000	0.156131
	42.300000	0.126533
	42.305000	-0.083946
	42.310000	-0.054347
	42.315000	0.156131
	42.320000	0.126533
	42.325000	-0.083946
	42.330000	-0.047770
	42.335000	0.156131
	42.340000	0.126533
	42.345000	-0.080657
	42.350000	-0.051059
	42.355000	0.162708
	42.360000	0.129821
	42.365000	-0.080657
	42.370000	-0.057636
	42.375000	0.159420
	42.380000	0.129821
	42.385000	-0.083946
	42.390000	-0.047770
	42.395000	0.162708
	42.400000	0.129821
	42.405000	-0.080657
	42.410000	-0.047770
	42.415000	0.162708
	42.420000	0.129821
	42.425000	-0.080657
	42.430000	-0.044481
	42.435000	0.165997
	42.440000	0.129821
	42.445000	-0.080657
	42.450000	-0.041192
	42.455000	0.169286
	42.460000	0.133110
	42.465000	-0.077368
	42.470000	-0.041192
	42.475000	0.165997
	42.480000	0.129821
	42.485000	-0.080657
	42.490000	-0.041192
	42.495000	0.162708
	42.500000	0.126533
	42.505000	-0.083946
	42.510000	-0.041192
	42.515000	0.162708
	42.520000	0.123244
	42.525000	-0.093812
	42.530000	-0.054347
	42.535000	0.156131
	42.540000	0.116666
	42.545000	-0.100389
	42.550000	-0.051059
	42.555000	0.156131
	42.560000	0.113378
	42.565000	-0.093812
	42.570000	-0.051059
	42.575000	0.152842
	42.580000	0.116666
	42.585000	-0.097101
	42.590000	-0.047770
	42.595000	0.159420
	42.600000	0.123244
	42.605000	-0.093812
	42.610000	-0.041192
	42.615000	0.162708
	42.620000	0.123244
	42.625000	-0.090523
	42.630000	-0.041192
	42.635000	0.162708
	42.640000	0.123244
	42.645000	-0.090523
	42.650000	-0.041192
	42.655000	0.169286
	42.660000	0.119955
	42.665000	-0.090523
	42.670000	-0.037904
	42.675000	0.169286
	42.680000	0.119955
	42.685000	-0.087234
	42.690000	-0.041192
	42.695000	0.162708
	42.700000	0.113378
	42.705000	-0.093812
	42.710000	-0.041192
	42.715000	0.159420
	42.720000	0.113378
	42.725000	-0.097101
	42.730000	-0.044481
	42.735000	0.156131
	42.740000	0.103511
	42.745000	-0.097101
	42.750000	-0.051059
	42.755000	0.149554
	42.760000	0.096934
	42.765000	-0.103678
	42.770000	-0.051059
	42.775000	0.146265
	42.780000	0.090357
	42.785000	-0.106967
	42.790000	-0.051059
	42.795000	0.149554
	42.800000	0.096934
	42.805000	-0.103678
	42.810000	-0.041192
	42.815000	0.152842
	42.820000	0.103511
	42.825000	-0.097101
	42.830000	-0.034615
	42.835000	0.165997
	42.840000	0.106800
	42.845000	-0.093812
	42.850000	-0.031326
	42.855000	0.165997
	42.860000	0.110089
	42.865000	-0.090523
	42.870000	-0.031326
	42.875000	0.165997
	42.880000	0.110089
	42.885000	-0.093812
	42.890000	-0.034615
	42.895000	0.159420
	42.900000	0.103511
	42.905000	-0.103678
	42.910000	-0.037904
	42.915000	0.156131
	42.920000	0.096934
	42.925000	-0.103678
	42.930000	-0.041192
	42.935000	0.152842
	42.940000	0.096934
	42.945000	-0.106967
	42.950000	-0.047770
	42.955000	0.152842
	42.960000	0.090357
	42.965000	-0.100389
	42.970000	-0.041192
	42.975000	0.152842
	42.980000	0.096934
	42.985000	-0.103678
	42.990000	-0.041192
	42.995000	0.159420
	43.000000	0.093645
	43.005000	-0.103678
	43.010000	-0.037904
	43.015000	0.162708
	43.020000	0.103511
	43.025000	-0.100389
	43.030000	-0.034615
	43.035000	0.172575
	43.040000	0.110089
	43.045000	-0.100389
	43.050000	-0.031326
	43.055000	0.172575
	43.060000	0.106800
	43.065000	-0.103678
	43.070000	-0.034615
	43.075000	0.165997
	43.080000	0.100223
	43.085000	-0.103678
	43.090000	-0.037904
	43.095000	0.162708
	43.100000	0.096934
	43.105000	-0.106967
	43.110000	-0.037904
	43.115000	0.162708
	43.120000	0.096934
	43.125000	-0.113544
	43.130000	-0.041192
	43.135000	0.159420
	43.140000	0.093645
	43.145000	-0.110256
	43.150000	-0.037904
	43.155000	0.165997
	43.160000	0.096934
	43.165000	-0.110256
	43.170000	-0.034615
	43.175000	0.169286
	43.180000	0.096934
	43.185000	-0.110256
	43.190000	-0.041192
	43.195000	0.172575
	43.200000	0.096934
	43.205000	-0.113544
	43.210000	-0.031326
	43.215000	0.169286
	43.220000	0.096934
	43.225000	-0.110256
	43.230000	-0.037904
	43.235000	0.169286
	43.240000	0.096934
	43.245000	-0.106967
	43.250000	-0.034615
	43.255000	0.172575
	43.260000	0.093645
	43.265000	-0.106967
	43.270000	-0.024749
	43.275000	0.172575
	43.280000	0.100223
	43.285000	-0.106967
	43.290000	-0.024749
	43.295000	0.172575
	43.300000	0.096934
	43.305000	-0.110256
	43.310000	-0.028037
	43.315000	0.172575
	43.320000	0.093645
	43.325000	-0.106967
	43.330000	-0.028037
	43.335000	0.175863
	43.340000	0.096934
	43.345000	-0.110256
	43.350000	-0.031326
	43.355000	0.172575
	43.360000	0.096934
	43.365000	-0.113544
	43.370000	-0.031326
	43.375000	0.169286
	43.380000	0.090357
	43.385000	-0.113544
	43.390000	-0.031326
	43.395000	0.172575
	43.400000	0.090357
	43.405000	-0.110256
	43.410000	-0.028037
	43.415000	0.169286
	43.420000	0.093645
	43.425000	-0.116833
	43.430000	-0.028037
	43.435000	0.175863
	43.440000	0.087068
	43.445000	-0.116833
	43.450000	-0.028037
	43.455000	0.169286
	43.460000	0.087068
	43.465000	-0.110256
	43.470000	-0.024749
	43.475000	0.172575
	43.480000	0.090357
	43.485000	-0.116833
	43.490000	-0.031326
	43.495000	0.175863
	43.500000	0.087068
	43.505000	-0.116833
	43.510000	-0.028037
	43.515000	0.169286
	43.520000	0.083779
	43.525000	-0.113544
	43.530000	-0.024749
	43.535000	0.172575
	43.540000	0.087068
	43.545000	-0.116833
	43.550000	-0.028037
	43.555000	0.169286
	43.560000	0.083779
	43.565000	-0.116833
	43.570000	-0.028037
	43.575000	0.165997
	43.580000	0.083779
	43.585000	-0.116833
	43.590000	-0.028037
	43.595000	0.169286
	43.600000	0.087068
	43.605000	-0.120122
	43.610000	-0.024749
	43.615000	0.172575
	43.620000	0.083779
	43.625000	-0.123410
	43.630000	-0.028037
	43.635000	0.169286
	43.640000	0.073913
	43.645000	-0.120122
	43.650000	-0.031326
	43.655000	0.165997
	43.660000	0.073913
	43.665000	-0.133277
	43.670000	-0.031326
	43.675000	0.162708
	43.680000	0.070624
	43.685000	-0.129988
	43.690000	-0.031326
	43.695000	0.165997
	43.700000	0.070624
	43.705000	-0.129988
	43.710000	-0.034615
	43.715000	0.165997
	43.720000	0.067335
	43.725000	-0.133277
	43.730000	-0.037904
	43.735000	0.159420
	43.740000	0.064047
	43.745000	-0.129988
	43.750000	-0.034615
	43.755000	0.159420
	43.760000	0.067335
	43.765000	-0.133277
	43.770000	-0.028037
	43.775000	0.165997
	43.780000	0.067335
	43.785000	-0.123410
	43.790000	-0.021460
	43.795000	0.169286
	43.800000	0.070624
	43.805000	-0.120122
	43.810000	-0.021460
	43.815000	0.172575
	43.820000	0.073913
	43.825000	-0.123410
	43.830000	-0.014883
	43.835000	0.175863
	43.840000	0.073913
	43.845000	-0.120122
	43.850000	-0.011594
	43.855000	0.172575
	43.860000	0.077202
	43.865000	-0.116833
	43.870000	-0.011594
	43.875000	0.172575
	43.880000	0.073913
	43.885000	-0.116833
	43.890000	-0.014883
	43.895000	0.175863
	43.900000	0.067335
	43.905000	-0.116833
	43.910000	-0.014883
	43.915000	0.175863
	43.920000	0.067335
	43.925000	-0.116833
	43.930000	-0.014883
	43.935000	0.175863
	43.940000	0.070624
	43.945000	-0.120122
	43.950000	-0.014883
	43.955000	0.172575
	43.960000	0.064047
	43.965000	-0.123410
	43.970000	-0.011594
	43.975000	0.175863
	43.980000	0.070624
	43.985000	-0.113544
	43.990000	-0.008305
	43.995000	0.182441
	44.000000	0.067335
	44.005000	-0.116833
	44.010000	-0.008305
	44.015000	0.179152
	44.020000	0.070624
	44.025000	-0.120122
	44.030000	-0.008305
	44.035000	0.179152
	44.040000	0.070624
	44.045000	-0.116833
	44.050000	-0.001728
	44.055000	0.185730
	44.060000	0.073913
	44.065000	-0.116833
	44.070000	-0.001728
	44.075000	0.182441
	44.080000	0.070624
	44.085000	-0.113544
	44.090000	-0.008305
	44.095000	0.179152
	44.100000	0.073913
	44.105000	-0.106967
	44.110000	0.008138
	44.115000	0.182441
	44.120000	0.077202
	44.125000	-0.106967
	44.130000	0.004850
	44.135000	0.185730
	44.140000	0.073913
	44.145000	-0.106967
	44.150000	0.008138
	44.155000	0.185730
	44.160000	0.073913
	44.165000	-0.100389
	44.170000	0.004850
	44.175000	0.192307
	44.180000	0.077202
	44.185000	-0.103678
	44.190000	0.011427
	44.195000	0.189018
	44.200000	0.073913
	44.205000	-0.100389
	44.210000	0.014716
	44.215000	0.189018
	44.220000	0.077202
	44.225000	-0.103678
	44.230000	0.011427
	44.235000	0.189018
	44.240000	0.080490
	44.245000	-0.103678
	44.250000	0.011427
	44.255000	0.189018
	44.260000	0.073913
	44.265000	-0.110256
	44.270000	0.011427
	44.275000	0.185730
	44.280000	0.073913
	44.285000	-0.106967
	44.290000	0.011427
	44.295000	0.189018
	44.300000	0.070624
	44.305000	-0.103678
	44.310000	0.011427
	44.315000	0.192307
	44.320000	0.067335
	44.325000	-0.106967
	44.330000	0.018005
	44.335000	0.195596
	44.340000	0.073913
	44.345000	-0.100389
	44.350000	0.014716
	44.355000	0.192307
	44.360000	0.073913
	44.365000	-0.100389
	44.370000	0.014716
	44.375000	0.192307
	44.380000	0.073913
	44.385000	-0.100389
	44.390000	0.024582
	44.395000	0.195596
	44.400000	0.073913
	44.405000	-0.103678
	44.410000	0.024582
	44.415000	0.198884
	44.420000	0.077202
	44.425000	-0.100389
	44.430000	0.021293
	44.435000	0.198884
	44.440000	0.077202
	44.445000	-0.100389
	44.450000	0.024582
	44.455000	0.198884
	44.460000	0.070624
	44.465000	-0.103678
	44.470000	0.021293
	44.475000	0.195596
	44.480000	0.067335
	44.485000	-0.110256
	44.490000	0.014716
	44.495000	0.192307
	44.500000	0.067335
	44.505000	-0.110256
	44.510000	0.018005
	44.515000	0.189018
	44.520000	0.067335
	44.525000	-0.113544
	44.530000	0.018005
	44.535000	0.189018
	44.540000	0.064047
	44.545000	-0.110256
	44.550000	0.018005
	44.555000	0.195596
	44.560000	0.067335
	44.565000	-0.110256
	44.570000	0.021293
	44.575000	0.195596
	44.580000	0.067335
	44.585000	-0.103678
	44.590000	0.027871
	44.595000	0.195596
	44.600000	0.070624
	44.605000	-0.100389
	44.610000	0.027871
	44.615000	0.195596
	44.620000	0.070624
	44.625000	-0.100389
	44.630000	0.034448
	44.635000	0.202173
	44.640000	0.067335
	44.645000	-0.100389
	44.650000	0.037737
	44.655000	0.202173
	44.660000	0.070624
	44.665000	-0.097101
	44.670000	0.034448
	44.675000	0.202173
	44.680000	0.064047
	44.685000	-0.097101
	44.690000	0.031160
	44.695000	0.195596
	44.700000	0.064047
	44.705000	-0.103678
	44.710000	0.027871
	44.715000	0.189018
	44.720000	0.060758
	44.725000	-0.106967
	44.730000	0.027871
	44.735000	0.189018
	44.740000	0.057469
	44.745000	-0.106967
	44.750000	0.031160
	44.755000	0.195596
	44.760000	0.064047
	44.765000	-0.103678
	44.770000	0.034448
	44.775000	0.198884
	44.780000	0.067335
	44.785000	-0.093812
	44.790000	0.037737
	44.795000	0.202173
	44.800000	0.067335
	44.805000	-0.100389
	44.810000	0.041026
	44.815000	0.202173
	44.820000	0.064047
	44.825000	-0.097101
	44.830000	0.044314
	44.835000	0.195596
	44.840000	0.057469
	44.845000	-0.103678
	44.850000	0.037737
	44.855000	0.195596
	44.860000	0.057469
	44.865000	-0.103678
	44.870000	0.027871
	44.875000	0.195596
	44.880000	0.057469
	44.885000	-0.106967
	44.890000	0.031160
	44.895000	0.192307
	44.900000	0.057469
	44.905000	-0.106967
	44.910000	0.037737
	44.915000	0.195596
	44.920000	0.057469
	44.925000	-0.103678
	44.930000	0.037737
	44.935000	0.195596
	44.940000	0.057469
	44.945000	-0.103678
	44.950000	0.034448
	44.955000	0.195596
	44.960000	0.054181
	44.965000	-0.103678
	44.970000	0.037737
	44.975000	0.195596
	44.980000	0.054181
	44.985000	-0.100389
	44.990000	0.041026
	44.995000	0.198884
	45.000000	0.050892
	45.005000	-0.106967
	45.010000	0.034448
	45.015000	0.195596
	45.020000	0.047603
	45.025000	-0.106967
	45.030000	0.034448
	45.035000	0.189018
	45.040000	0.047603
	45.045000	-0.116833
	45.050000	0.034448
	45.055000	0.192307
	45.060000	0.041026
	45.065000	-0.113544
	45.070000	0.034448
	45.075000	0.185730
	45.080000	0.044314
	45.085000	-0.116833
	45.090000	0.034448
	45.095000	0.189018
	45.100000	0.037737
	45.105000	-0.120122
	45.110000	0.034448
	45.115000	0.192307
	45.120000	0.037737
	45.125000	-0.113544
	45.130000	0.037737
	45.135000	0.192307
	45.140000	0.041026
	45.145000	-0.113544
	45.150000	0.037737
	45.155000	0.192307
	45.160000	0.034448
	45.165000	-0.116833
	45.170000	0.037737
	45.175000	0.189018
	45.180000	0.037737
	45.185000	-0.113544
	45.190000	0.034448
	45.195000	0.189018
	45.200000	0.034448
	45.205000	-0.110256
	45.210000	0.037737
	45.215000	0.189018
	45.220000	0.037737
	45.225000	-0.116833
	45.230000	0.041026
	45.235000	0.189018
	45.240000	0.037737
	45.245000	-0.110256
	45.250000	0.044314
	45.255000	0.189018
	45.260000	0.031160
	45.265000	-0.110256
	45.270000	0.044314
	45.275000	0.189018
	45.280000	0.037737
	45.285000	-0.113544
	45.290000	0.037737
	45.295000	0.189018
	45.300000	0.034448
	45.305000	-0.116833
	45.310000	0.037737
	45.315000	0.185730
	45.320000	0.031160
	45.325000	-0.113544
	45.330000	0.041026
	45.335000	0.185730
	45.340000	0.031160
	45.345000	-0.116833
	45.350000	0.041026
	45.355000	0.182441
	45.360000	0.027871
	45.365000	-0.110256
	45.370000	0.037737
	45.375000	0.182441
	45.380000	0.027871
	45.385000	-0.113544
	45.390000	0.041026
	45.395000	0.179152
	45.400000	0.024582
	45.405000	-0.116833
	45.410000	0.037737
	45.415000	0.182441
	45.420000	0.024582
	45.425000	-0.116833
	45.430000	0.041026
	45.435000	0.175863
	45.440000	0.024582
	45.445000	-0.120122
	45.450000	0.034448
	45.455000	0.169286
	45.460000	0.014716
	45.465000	-0.116833
	45.470000	0.034448
	45.475000	0.162708
	45.480000	0.014716
	45.485000	-0.113544
	45.490000	0.034448
	45.495000	0.156131
	45.500000	0.001561
	45.505000	-0.113544
	45.510000	0.034448
	45.515000	0.156131
	45.520000	0.004850
	45.525000	-0.110256
	45.530000	0.044314
	45.535000	0.152842
	45.540000	0.011427
	45.545000	-0.100389
	45.550000	0.044314
	45.555000	0.159420
	45.560000	0.004850
	45.565000	-0.103678
	45.570000	0.050892
	45.575000	0.159420
	45.580000	0.008138
	45.585000	-0.100389
	45.590000	0.054181
	45.595000	0.162708
	45.600000	0.008138
	45.605000	-0.100389
	45.610000	0.047603
	45.615000	0.156131
	45.620000	0.004850
	45.625000	-0.103678
	45.630000	0.050892
	45.635000	0.156131
	45.640000	0.004850
	45.645000	-0.106967
	45.650000	0.050892
	45.655000	0.152842
	45.660000	-0.001728
	45.665000	-0.106967
	45.670000	0.047603
	45.675000	0.156131
	45.680000	0.004850
	45.685000	-0.106967
	45.690000	0.047603
	45.695000	0.156131
	45.700000	-0.001728
	45.705000	-0.103678
	45.710000	0.047603
	45.715000	0.152842
	45.720000	0.001561
	45.725000	-0.106967
	45.730000	0.047603
	45.735000	0.156131
	45.740000	-0.001728
	45.745000	-0.106967
	45.750000	0.050892
	45.755000	0.156131
	45.760000	-0.005016
	45.765000	-0.106967
	45.770000	0.047603
	45.775000	0.156131
	45.780000	-0.001728
	45.785000	-0.106967
	45.790000	0.050892
	45.795000	0.152842
	45.800000	-0.001728
	45.805000	-0.106967
	45.810000	0.050892
	45.815000	0.152842
	45.820000	-0.008305
	45.825000	-0.113544
	45.830000	0.044314
	45.835000	0.149554
	45.840000	-0.011594
	45.845000	-0.110256
	45.850000	0.047603
	45.855000	0.152842
	45.860000	-0.008305
	45.865000	-0.106967
	45.870000	0.050892
	45.875000	0.152842
	45.880000	-0.008305
	45.885000	-0.106967
	45.890000	0.050892
	45.895000	0.156131
	45.900000	-0.008305
	45.905000	-0.110256
	45.910000	0.050892
	45.915000	0.152842
	45.920000	-0.005016
	45.925000	-0.110256
	45.930000	0.057469
	45.935000	0.152842
	45.940000	-0.005016
	45.945000	-0.103678
	45.950000	0.057469
	45.955000	0.152842
	45.960000	-0.008305
	45.965000	-0.103678
	45.970000	0.054181
	45.975000	0.156131
	45.980000	-0.008305
	45.985000	-0.100389
	45.990000	0.057469
	45.995000	0.152842
	46.000000	-0.008305
	46.005000	-0.103678
	46.010000	0.054181
	46.015000	0.156131
	46.020000	-0.008305
	46.025000	-0.103678
	46.030000	0.060758
	46.035000	0.156131
	46.040000	-0.008305
	46.045000	-0.106967
	46.050000	0.054181
	46.055000	0.159420
	46.060000	-0.008305
	46.065000	-0.100389
	46.070000	0.064047
	46.075000	0.152842
	46.080000	-0.005016
	46.085000	-0.100389
	46.090000	0.060758
	46.095000	0.156131
	46.100000	-0.011594
	46.105000	-0.100389
	46.110000	0.067335
	46.115000	0.159420
	46.120000	-0.008305
	46.125000	-0.100389
	46.130000	0.064047
	46.135000	0.152842
	46.140000	-0.005016
	46.145000	-0.097101
	46.150000	0.067335
	46.155000	0.159420
	46.160000	-0.011594
	46.165000	-0.100389
	46.170000	0.067335
	46.175000	0.159420
	46.180000	-0.008305
	46.185000	-0.100389
	46.190000	0.067335
	46.195000	0.152842
	46.200000	-0.011594
	46.205000	-0.100389
	46.210000	0.064047
	46.215000	0.156131
	46.220000	-0.008305
	46.225000	-0.100389
	46.230000	0.070624
	46.235000	0.159420
	46.240000	-0.011594
	46.245000	-0.093812
	46.250000	0.070624
	46.255000	0.159420
	46.260000	-0.011594
	46.265000	-0.093812
	46.270000	0.073913
	46.275000	0.156131
	46.280000	-0.011594
	46.285000	-0.100389
	46.290000	0.077202
	46.295000	0.159420
	46.300000	-0.014883
	46.305000	-0.100389
	46.310000	0.067335
	46.315000	0.152842
	46.320000	-0.011594
	46.325000	-0.103678
	46.330000	0.070624
	46.335000	0.152842
	46.340000	-0.018171
	46.345000	-0.097101
	46.350000	0.073913
	46.355000	0.149554
	46.360000	-0.014883
	46.365000	-0.100389
	46.370000	0.070624
	46.375000	0.152842
	46.380000	-0.018171
	46.385000	-0.100389
	46.390000	0.067335
	46.395000	0.149554
	46.400000	-0.018171
	46.405000	-0.100389
	46.410000	0.070624
	46.415000	0.156131
	46.420000	-0.021460
	46.425000	-0.103678
	46.430000	0.073913
	46.435000	0.149554
	46.440000	-0.021460
	46.445000	-0.100389
	46.450000	0.077202
	46.455000	0.152842
	46.460000	-0.021460
	46.465000	-0.100389
	46.470000	0.077202
	46.475000	0.159420
	46.480000	-0.018171
	46.485000	-0.093812
	46.490000	0.073913
	46.495000	0.149554
	46.500000	-0.021460
	46.505000	-0.097101
	46.510000	0.073913
	46.515000	0.152842
	46.520000	-0.024749
	46.525000	-0.097101
