2024/7/26 	 11:28:56 
 This file comes from Vt only measurement 	 1.000000E-1 
 Voltage Sensitivity 	 0.000000E+0 
 Sampling rate 	 200 
 Number of samples per channel 	 -1 
 No filter from Labview 	 	 	 
 	 
 ***End_of_Header*** 
 	 Time 	  Voltage 	 Filtered Voltage 	 
	0.000000	-0.544367
	0.005000	-0.406241
	0.010000	-0.485170
	0.015000	-0.616719
	0.020000	-0.544367
	0.025000	-0.406241
	0.030000	-0.485170
	0.035000	-0.616719
	0.040000	-0.544367
	0.045000	-0.406241
	0.050000	-0.488459
	0.055000	-0.620008
	0.060000	-0.541078
	0.065000	-0.412818
	0.070000	-0.485170
	0.075000	-0.623296
	0.080000	-0.550944
	0.085000	-0.412818
	0.090000	-0.491747
	0.095000	-0.633162
	0.100000	-0.550944
	0.105000	-0.416107
	0.110000	-0.495036
	0.115000	-0.626585
	0.120000	-0.554233
	0.125000	-0.422684
	0.130000	-0.498325
	0.135000	-0.636451
	0.140000	-0.557522
	0.145000	-0.429262
	0.150000	-0.508191
	0.155000	-0.646317
	0.160000	-0.567388
	0.165000	-0.432550
	0.170000	-0.514768
	0.175000	-0.649606
	0.180000	-0.580543
	0.185000	-0.445705
	0.190000	-0.521346
	0.195000	-0.659472
	0.200000	-0.577254
	0.205000	-0.442417
	0.210000	-0.524635
	0.215000	-0.659472
	0.220000	-0.583832
	0.225000	-0.448994
	0.230000	-0.531212
	0.235000	-0.666050
	0.240000	-0.583832
	0.245000	-0.455571
	0.250000	-0.534501
	0.255000	-0.672627
	0.260000	-0.590409
	0.265000	-0.458860
	0.270000	-0.537790
	0.275000	-0.672627
	0.280000	-0.590409
	0.285000	-0.458860
	0.290000	-0.547656
	0.295000	-0.679205
	0.300000	-0.593698
	0.305000	-0.462149
	0.310000	-0.550944
	0.315000	-0.679205
	0.320000	-0.600275
	0.325000	-0.465438
	0.330000	-0.554233
	0.335000	-0.692359
	0.340000	-0.600275
	0.345000	-0.472015
	0.350000	-0.557522
	0.355000	-0.685782
	0.360000	-0.600275
	0.365000	-0.472015
	0.370000	-0.564099
	0.375000	-0.692359
	0.380000	-0.606853
	0.385000	-0.478592
	0.390000	-0.564099
	0.395000	-0.695648
	0.400000	-0.613430
	0.405000	-0.481881
	0.410000	-0.564099
	0.415000	-0.695648
	0.420000	-0.613430
	0.425000	-0.478592
	0.430000	-0.570677
	0.435000	-0.702226
	0.440000	-0.613430
	0.445000	-0.481881
	0.450000	-0.577254
	0.455000	-0.702226
	0.460000	-0.613430
	0.465000	-0.488459
	0.470000	-0.573965
	0.475000	-0.712092
	0.480000	-0.623296
	0.485000	-0.495036
	0.490000	-0.580543
	0.495000	-0.715381
	0.500000	-0.626585
	0.505000	-0.501614
	0.510000	-0.593698
	0.515000	-0.715381
	0.520000	-0.633162
	0.525000	-0.501614
	0.530000	-0.603564
	0.535000	-0.728535
	0.540000	-0.639740
	0.545000	-0.508191
	0.550000	-0.603564
	0.555000	-0.731824
	0.560000	-0.643029
	0.565000	-0.511480
	0.570000	-0.606853
	0.575000	-0.735113
	0.580000	-0.643029
	0.585000	-0.518057
	0.590000	-0.610141
	0.595000	-0.738402
	0.600000	-0.646317
	0.605000	-0.524635
	0.610000	-0.613430
	0.615000	-0.741690
	0.620000	-0.646317
	0.625000	-0.524635
	0.630000	-0.616719
	0.635000	-0.738402
	0.640000	-0.646317
	0.645000	-0.524635
	0.650000	-0.620008
	0.655000	-0.741690
	0.660000	-0.646317
	0.665000	-0.518057
	0.670000	-0.616719
	0.675000	-0.741690
	0.680000	-0.643029
	0.685000	-0.524635
	0.690000	-0.620008
	0.695000	-0.741690
	0.700000	-0.649606
	0.705000	-0.527923
	0.710000	-0.620008
	0.715000	-0.741690
	0.720000	-0.646317
	0.725000	-0.527923
	0.730000	-0.616719
	0.735000	-0.748268
	0.740000	-0.649606
	0.745000	-0.531212
	0.750000	-0.626585
	0.755000	-0.744979
	0.760000	-0.649606
	0.765000	-0.527923
	0.770000	-0.623296
	0.775000	-0.748268
	0.780000	-0.652895
	0.785000	-0.531212
	0.790000	-0.629874
	0.795000	-0.744979
	0.800000	-0.659472
	0.805000	-0.531212
	0.810000	-0.629874
	0.815000	-0.751556
	0.820000	-0.656184
	0.825000	-0.537790
	0.830000	-0.633162
	0.835000	-0.751556
	0.840000	-0.662761
	0.845000	-0.541078
	0.850000	-0.636451
	0.855000	-0.748268
	0.860000	-0.659472
	0.865000	-0.544367
	0.870000	-0.633162
	0.875000	-0.744979
	0.880000	-0.659472
	0.885000	-0.547656
	0.890000	-0.639740
	0.895000	-0.744979
	0.900000	-0.652895
	0.905000	-0.534501
	0.910000	-0.626585
	0.915000	-0.735113
	0.920000	-0.639740
	0.925000	-0.518057
	0.930000	-0.596987
	0.935000	-0.698937
	0.940000	-0.593698
	0.945000	-0.481881
	0.950000	-0.560811
	0.955000	-0.666050
	0.960000	-0.570677
	0.965000	-0.455571
	0.970000	-0.547656
	0.975000	-0.659472
	0.980000	-0.564099
	0.985000	-0.458860
	0.990000	-0.550944
	0.995000	-0.666050
	1.000000	-0.577254
	1.005000	-0.475304
	1.010000	-0.570677
	1.015000	-0.675916
	1.020000	-0.593698
	1.025000	-0.488459
	1.030000	-0.593698
	1.035000	-0.705514
	1.040000	-0.616719
	1.045000	-0.518057
	1.050000	-0.610141
	1.055000	-0.725247
	1.060000	-0.643029
	1.065000	-0.544367
	1.070000	-0.639740
	1.075000	-0.758134
	1.080000	-0.672627
	1.085000	-0.573965
	1.090000	-0.669338
	1.095000	-0.774578
	1.100000	-0.692359
	1.105000	-0.600275
	1.110000	-0.689071
	1.115000	-0.797599
	1.120000	-0.718669
	1.125000	-0.616719
	1.130000	-0.715381
	1.135000	-0.814042
	1.140000	-0.728535
	1.145000	-0.629874
	1.150000	-0.718669
	1.155000	-0.820620
	1.160000	-0.731824
	1.165000	-0.633162
	1.170000	-0.725247
	1.175000	-0.814042
	1.180000	-0.725247
	1.185000	-0.626585
	1.190000	-0.702226
	1.195000	-0.797599
	1.200000	-0.705514
	1.205000	-0.606853
	1.210000	-0.675916
	1.215000	-0.764711
	1.220000	-0.672627
	1.225000	-0.570677
	1.230000	-0.652895
	1.235000	-0.738402
	1.240000	-0.652895
	1.245000	-0.550944
	1.250000	-0.629874
	1.255000	-0.718669
	1.260000	-0.629874
	1.265000	-0.534501
	1.270000	-0.613430
	1.275000	-0.698937
	1.280000	-0.610141
	1.285000	-0.511480
	1.290000	-0.590409
	1.295000	-0.672627
	1.300000	-0.577254
	1.305000	-0.481881
	1.310000	-0.557522
	1.315000	-0.646317
	1.320000	-0.560811
	1.325000	-0.462149
	1.330000	-0.544367
	1.335000	-0.629874
	1.340000	-0.537790
	1.345000	-0.442417
	1.350000	-0.521346
	1.355000	-0.613430
	1.360000	-0.524635
	1.365000	-0.432550
	1.370000	-0.514768
	1.375000	-0.606853
	1.380000	-0.524635
	1.385000	-0.432550
	1.390000	-0.524635
	1.395000	-0.613430
	1.400000	-0.514768
	1.405000	-0.419395
	1.410000	-0.508191
	1.415000	-0.596987
	1.420000	-0.521346
	1.425000	-0.419395
	1.430000	-0.504902
	1.435000	-0.593698
	1.440000	-0.521346
	1.445000	-0.448994
	1.450000	-0.567388
	1.455000	-0.672627
	1.460000	-0.596987
	1.465000	-0.521346
	1.470000	-0.633162
	1.475000	-0.731824
	1.480000	-0.636451
	1.485000	-0.547656
	1.490000	-0.643029
	1.495000	-0.744979
	1.500000	-0.636451
	1.505000	-0.534501
	1.510000	-0.633162
	1.515000	-0.725247
	1.520000	-0.620008
	1.525000	-0.531212
	1.530000	-0.626585
	1.535000	-0.718669
	1.540000	-0.616719
	1.545000	-0.527923
	1.550000	-0.626585
	1.555000	-0.721958
	1.560000	-0.620008
	1.565000	-0.527923
	1.570000	-0.626585
	1.575000	-0.721958
	1.580000	-0.616719
	1.585000	-0.518057
	1.590000	-0.623296
	1.595000	-0.712092
	1.600000	-0.603564
	1.605000	-0.504902
	1.610000	-0.610141
	1.615000	-0.698937
	1.620000	-0.593698
	1.625000	-0.488459
	1.630000	-0.596987
	1.635000	-0.692359
	1.640000	-0.570677
	1.645000	-0.481881
	1.650000	-0.587120
	1.655000	-0.685782
	1.660000	-0.570677
	1.665000	-0.481881
	1.670000	-0.590409
	1.675000	-0.689071
	1.680000	-0.583832
	1.685000	-0.485170
	1.690000	-0.600275
	1.695000	-0.695648
	1.700000	-0.583832
	1.705000	-0.488459
	1.710000	-0.600275
	1.715000	-0.695648
	1.720000	-0.587120
	1.725000	-0.498325
	1.730000	-0.610141
	1.735000	-0.705514
	1.740000	-0.587120
	1.745000	-0.501614
	1.750000	-0.620008
	1.755000	-0.715381
	1.760000	-0.603564
	1.765000	-0.504902
	1.770000	-0.623296
	1.775000	-0.718669
	1.780000	-0.606853
	1.785000	-0.514768
	1.790000	-0.633162
	1.795000	-0.731824
	1.800000	-0.613430
	1.805000	-0.521346
	1.810000	-0.639740
	1.815000	-0.741690
	1.820000	-0.620008
	1.825000	-0.527923
	1.830000	-0.656184
	1.835000	-0.744979
	1.840000	-0.633162
	1.845000	-0.534501
	1.850000	-0.656184
	1.855000	-0.751556
	1.860000	-0.636451
	1.865000	-0.544367
	1.870000	-0.672627
	1.875000	-0.768000
	1.880000	-0.649606
	1.885000	-0.547656
	1.890000	-0.679205
	1.895000	-0.774578
	1.900000	-0.662761
	1.905000	-0.564099
	1.910000	-0.689071
	1.915000	-0.787732
	1.920000	-0.669338
	1.925000	-0.573965
	1.930000	-0.705514
	1.935000	-0.794310
	1.940000	-0.675916
	1.945000	-0.580543
	1.950000	-0.705514
	1.955000	-0.807465
	1.960000	-0.679205
	1.965000	-0.590409
	1.970000	-0.718669
	1.975000	-0.807465
	1.980000	-0.685782
	1.985000	-0.593698
	1.990000	-0.721958
	1.995000	-0.817331
	2.000000	-0.692359
	2.005000	-0.596987
	2.010000	-0.728535
	2.015000	-0.820620
	2.020000	-0.692359
	2.025000	-0.600275
	2.030000	-0.731824
	2.035000	-0.823908
	2.040000	-0.695648
	2.045000	-0.600275
	2.050000	-0.738402
	2.055000	-0.827197
	2.060000	-0.698937
	2.065000	-0.606853
	2.070000	-0.738402
	2.075000	-0.830486
	2.080000	-0.698937
	2.085000	-0.610141
	2.090000	-0.738402
	2.095000	-0.827197
	2.100000	-0.705514
	2.105000	-0.606853
	2.110000	-0.738402
	2.115000	-0.833775
	2.120000	-0.708803
	2.125000	-0.613430
	2.130000	-0.741690
	2.135000	-0.827197
	2.140000	-0.702226
	2.145000	-0.613430
	2.150000	-0.744979
	2.155000	-0.830486
	2.160000	-0.705514
	2.165000	-0.616719
	2.170000	-0.741690
	2.175000	-0.837063
	2.180000	-0.702226
	2.185000	-0.610141
	2.190000	-0.744979
	2.195000	-0.837063
	2.200000	-0.702226
	2.205000	-0.613430
	2.210000	-0.744979
	2.215000	-0.833775
	2.220000	-0.698937
	2.225000	-0.613430
	2.230000	-0.741690
	2.235000	-0.830486
	2.240000	-0.695648
	2.245000	-0.610141
	2.250000	-0.741690
	2.255000	-0.830486
	2.260000	-0.702226
	2.265000	-0.613430
	2.270000	-0.744979
	2.275000	-0.830486
	2.280000	-0.698937
	2.285000	-0.616719
	2.290000	-0.748268
	2.295000	-0.830486
	2.300000	-0.698937
	2.305000	-0.616719
	2.310000	-0.748268
	2.315000	-0.830486
	2.320000	-0.695648
	2.325000	-0.613430
	2.330000	-0.748268
	2.335000	-0.837063
	2.340000	-0.698937
	2.345000	-0.616719
	2.350000	-0.751556
	2.355000	-0.830486
	2.360000	-0.698937
	2.365000	-0.613430
	2.370000	-0.748268
	2.375000	-0.830486
	2.380000	-0.698937
	2.385000	-0.613430
	2.390000	-0.741690
	2.395000	-0.830486
	2.400000	-0.702226
	2.405000	-0.616719
	2.410000	-0.751556
	2.415000	-0.830486
	2.420000	-0.698937
	2.425000	-0.613430
	2.430000	-0.744979
	2.435000	-0.830486
	2.440000	-0.702226
	2.445000	-0.613430
	2.450000	-0.748268
	2.455000	-0.830486
	2.460000	-0.702226
	2.465000	-0.613430
	2.470000	-0.754845
	2.475000	-0.833775
	2.480000	-0.695648
	2.485000	-0.620008
	2.490000	-0.748268
	2.495000	-0.827197
	2.500000	-0.692359
	2.505000	-0.620008
	2.510000	-0.754845
	2.515000	-0.837063
	2.520000	-0.692359
	2.525000	-0.613430
	2.530000	-0.751556
	2.535000	-0.833775
	2.540000	-0.692359
	2.545000	-0.616719
	2.550000	-0.751556
	2.555000	-0.827197
	2.560000	-0.685782
	2.565000	-0.616719
	2.570000	-0.751556
	2.575000	-0.820620
	2.580000	-0.682493
	2.585000	-0.606853
	2.590000	-0.738402
	2.595000	-0.820620
	2.600000	-0.672627
	2.605000	-0.596987
	2.610000	-0.731824
	2.615000	-0.810754
	2.620000	-0.672627
	2.625000	-0.590409
	2.630000	-0.728535
	2.635000	-0.807465
	2.640000	-0.666050
	2.645000	-0.593698
	2.650000	-0.728535
	2.655000	-0.810754
	2.660000	-0.662761
	2.665000	-0.593698
	2.670000	-0.731824
	2.675000	-0.804176
	2.680000	-0.669338
	2.685000	-0.593698
	2.690000	-0.731824
	2.695000	-0.810754
	2.700000	-0.666050
	2.705000	-0.596987
	2.710000	-0.735113
	2.715000	-0.814042
	2.720000	-0.669338
	2.725000	-0.600275
	2.730000	-0.731824
	2.735000	-0.807465
	2.740000	-0.672627
	2.745000	-0.600275
	2.750000	-0.741690
	2.755000	-0.814042
	2.760000	-0.672627
	2.765000	-0.603564
	2.770000	-0.741690
	2.775000	-0.814042
	2.780000	-0.675916
	2.785000	-0.606853
	2.790000	-0.741690
	2.795000	-0.814042
	2.800000	-0.672627
	2.805000	-0.600275
	2.810000	-0.744979
	2.815000	-0.814042
	2.820000	-0.672627
	2.825000	-0.600275
	2.830000	-0.741690
	2.835000	-0.807465
	2.840000	-0.672627
	2.845000	-0.600275
	2.850000	-0.744979
	2.855000	-0.814042
	2.860000	-0.672627
	2.865000	-0.603564
	2.870000	-0.741690
	2.875000	-0.814042
	2.880000	-0.672627
	2.885000	-0.603564
	2.890000	-0.741690
	2.895000	-0.817331
	2.900000	-0.669338
	2.905000	-0.603564
	2.910000	-0.748268
	2.915000	-0.814042
	2.920000	-0.669338
	2.925000	-0.606853
	2.930000	-0.751556
	2.935000	-0.814042
	2.940000	-0.672627
	2.945000	-0.606853
	2.950000	-0.748268
	2.955000	-0.814042
	2.960000	-0.672627
	2.965000	-0.613430
	2.970000	-0.748268
	2.975000	-0.817331
	2.980000	-0.675916
	2.985000	-0.603564
	2.990000	-0.748268
	2.995000	-0.814042
	3.000000	-0.679205
	3.005000	-0.606853
	3.010000	-0.754845
	3.015000	-0.823908
	3.020000	-0.672627
	3.025000	-0.616719
	3.030000	-0.754845
	3.035000	-0.823908
	3.040000	-0.675916
	3.045000	-0.620008
	3.050000	-0.761423
	3.055000	-0.827197
	3.060000	-0.682493
	3.065000	-0.620008
	3.070000	-0.764711
	3.075000	-0.830486
	3.080000	-0.685782
	3.085000	-0.626585
	3.090000	-0.764711
	3.095000	-0.827197
	3.100000	-0.689071
	3.105000	-0.623296
	3.110000	-0.761423
	3.115000	-0.830486
	3.120000	-0.692359
	3.125000	-0.629874
	3.130000	-0.771289
	3.135000	-0.833775
	3.140000	-0.692359
	3.145000	-0.636451
	3.150000	-0.768000
	3.155000	-0.833775
	3.160000	-0.698937
	3.165000	-0.639740
	3.170000	-0.781155
	3.175000	-0.850218
	3.180000	-0.731824
	3.185000	-0.672627
	3.190000	-0.820620
	3.195000	-0.889683
	3.200000	-0.758134
	3.205000	-0.695648
	3.210000	-0.823908
	3.215000	-0.883105
	3.220000	-0.744979
	3.225000	-0.682493
	3.230000	-0.810754
	3.235000	-0.873239
	3.240000	-0.735113
	3.245000	-0.682493
	3.250000	-0.810754
	3.255000	-0.866662
	3.260000	-0.738402
	3.265000	-0.682493
	3.270000	-0.810754
	3.275000	-0.869951
	3.280000	-0.741690
	3.285000	-0.685782
	3.290000	-0.817331
	3.295000	-0.873239
	3.300000	-0.751556
	3.305000	-0.695648
	3.310000	-0.823908
	3.315000	-0.889683
	3.320000	-0.771289
	3.325000	-0.731824
	3.330000	-0.863373
	3.335000	-0.925859
	3.340000	-0.814042
	3.345000	-0.771289
	3.350000	-0.915993
	3.355000	-0.985056
	3.360000	-0.876528
	3.365000	-0.846929
	3.370000	-0.988345
	3.375000	-1.060696
	3.380000	-0.958746
	3.385000	-0.925859
	3.390000	-1.060696
	3.395000	-1.133048
	3.400000	-1.027809
	3.405000	-0.985056
	3.410000	-1.113316
	3.415000	-1.169224
	3.420000	-1.050830
	3.425000	-1.001499
	3.430000	-1.116605
	3.435000	-1.169224
	3.440000	-1.057408
	3.445000	-1.008077
	3.450000	-1.119893
	3.455000	-1.175802
	3.460000	-1.050830
	3.465000	-0.988345
	3.470000	-1.090295
	3.475000	-1.126471
	3.480000	-0.994922
	3.485000	-0.929148
	3.490000	-1.024520
	3.495000	-1.060696
	3.500000	-0.939014
	3.505000	-0.873239
	3.510000	-0.971901
	3.515000	-1.004788
	3.520000	-0.879817
	3.525000	-0.820620
	3.530000	-0.909415
	3.535000	-0.939014
	3.540000	-0.814042
	3.545000	-0.751556
	3.550000	-0.840352
	3.555000	-0.873239
	3.560000	-0.748268
	3.565000	-0.685782
	3.570000	-0.787732
	3.575000	-0.820620
	3.580000	-0.692359
	3.585000	-0.629874
	3.590000	-0.738402
	3.595000	-0.771289
	3.600000	-0.646317
	3.605000	-0.590409
	3.610000	-0.695648
	3.615000	-0.731824
	3.620000	-0.613430
	3.625000	-0.564099
	3.630000	-0.669338
	3.635000	-0.718669
	3.640000	-0.603564
	3.645000	-0.560811
	3.650000	-0.672627
	3.655000	-0.718669
	3.660000	-0.603564
	3.665000	-0.554233
	3.670000	-0.656184
	3.675000	-0.685782
	3.680000	-0.544367
	3.685000	-0.472015
	3.690000	-0.577254
	3.695000	-0.610141
	3.700000	-0.481881
	3.705000	-0.429262
	3.710000	-0.521346
	3.715000	-0.550944
	3.720000	-0.432550
	3.725000	-0.399663
	3.730000	-0.544367
	3.735000	-0.620008
	3.740000	-0.521346
	3.745000	-0.508191
	3.750000	-0.652895
	3.755000	-0.718669
	3.760000	-0.600275
	3.765000	-0.567388
	3.770000	-0.695648
	3.775000	-0.735113
	3.780000	-0.606853
	3.785000	-0.567388
	3.790000	-0.695648
	3.795000	-0.735113
	3.800000	-0.603564
	3.805000	-0.560811
	3.810000	-0.692359
	3.815000	-0.725247
	3.820000	-0.590409
	3.825000	-0.550944
	3.830000	-0.679205
	3.835000	-0.715381
	3.840000	-0.580543
	3.845000	-0.544367
	3.850000	-0.682493
	3.855000	-0.718669
	3.860000	-0.590409
	3.865000	-0.547656
	3.870000	-0.682493
	3.875000	-0.721958
	3.880000	-0.587120
	3.885000	-0.547656
	3.890000	-0.672627
	3.895000	-0.718669
	3.900000	-0.583832
	3.905000	-0.547656
	3.910000	-0.679205
	3.915000	-0.718669
	3.920000	-0.570677
	3.925000	-0.534501
	3.930000	-0.669338
	3.935000	-0.708803
	3.940000	-0.570677
	3.945000	-0.531212
	3.950000	-0.669338
	3.955000	-0.705514
	3.960000	-0.567388
	3.965000	-0.527923
	3.970000	-0.662761
	3.975000	-0.708803
	3.980000	-0.567388
	3.985000	-0.534501
	3.990000	-0.672627
	3.995000	-0.708803
	4.000000	-0.564099
	4.005000	-0.534501
	4.010000	-0.672627
	4.015000	-0.712092
	4.020000	-0.564099
	4.025000	-0.537790
	4.030000	-0.682493
	4.035000	-0.715381
	4.040000	-0.577254
	4.045000	-0.547656
	4.050000	-0.682493
	4.055000	-0.725247
	4.060000	-0.583832
	4.065000	-0.547656
	4.070000	-0.695648
	4.075000	-0.735113
	4.080000	-0.590409
	4.085000	-0.554233
	4.090000	-0.705514
	4.095000	-0.741690
	4.100000	-0.596987
	4.105000	-0.567388
	4.110000	-0.712092
	4.115000	-0.741690
	4.120000	-0.596987
	4.125000	-0.570677
	4.130000	-0.718669
	4.135000	-0.751556
	4.140000	-0.600275
	4.145000	-0.573965
	4.150000	-0.721958
	4.155000	-0.761423
	4.160000	-0.613430
	4.165000	-0.580543
	4.170000	-0.731824
	4.175000	-0.771289
	4.180000	-0.620008
	4.185000	-0.587120
	4.190000	-0.738402
	4.195000	-0.774578
	4.200000	-0.626585
	4.205000	-0.593698
	4.210000	-0.748268
	4.215000	-0.777866
	4.220000	-0.633162
	4.225000	-0.600275
	4.230000	-0.754845
	4.235000	-0.781155
	4.240000	-0.633162
	4.245000	-0.606853
	4.250000	-0.761423
	4.255000	-0.784444
	4.260000	-0.639740
	4.265000	-0.613430
	4.270000	-0.768000
	4.275000	-0.797599
	4.280000	-0.639740
	4.285000	-0.613430
	4.290000	-0.771289
	4.295000	-0.804176
	4.300000	-0.643029
	4.305000	-0.629874
	4.310000	-0.777866
	4.315000	-0.804176
	4.320000	-0.649606
	4.325000	-0.623296
	4.330000	-0.777866
	4.335000	-0.807465
	4.340000	-0.656184
	4.345000	-0.629874
	4.350000	-0.777866
	4.355000	-0.814042
	4.360000	-0.656184
	4.365000	-0.633162
	4.370000	-0.787732
	4.375000	-0.814042
	4.380000	-0.656184
	4.385000	-0.639740
	4.390000	-0.784444
	4.395000	-0.817331
	4.400000	-0.659472
	4.405000	-0.633162
	4.410000	-0.791021
	4.415000	-0.820620
	4.420000	-0.659472
	4.425000	-0.639740
	4.430000	-0.794310
	4.435000	-0.817331
	4.440000	-0.662761
	4.445000	-0.639740
	4.450000	-0.794310
	4.455000	-0.820620
	4.460000	-0.666050
	4.465000	-0.643029
	4.470000	-0.800887
	4.475000	-0.823908
	4.480000	-0.666050
	4.485000	-0.646317
	4.490000	-0.804176
	4.495000	-0.823908
	4.500000	-0.669338
	4.505000	-0.646317
	4.510000	-0.804176
	4.515000	-0.823908
	4.520000	-0.672627
	4.525000	-0.646317
	4.530000	-0.804176
	4.535000	-0.827197
	4.540000	-0.666050
	4.545000	-0.649606
	4.550000	-0.800887
	4.555000	-0.820620
	4.560000	-0.666050
	4.565000	-0.646317
	4.570000	-0.804176
	4.575000	-0.823908
	4.580000	-0.672627
	4.585000	-0.646317
	4.590000	-0.807465
	4.595000	-0.823908
	4.600000	-0.666050
	4.605000	-0.646317
	4.610000	-0.804176
	4.615000	-0.820620
	4.620000	-0.666050
	4.625000	-0.646317
	4.630000	-0.804176
	4.635000	-0.820620
	4.640000	-0.662761
	4.645000	-0.652895
	4.650000	-0.807465
	4.655000	-0.820620
	4.660000	-0.662761
	4.665000	-0.646317
	4.670000	-0.804176
	4.675000	-0.817331
	4.680000	-0.662761
	4.685000	-0.646317
	4.690000	-0.804176
	4.695000	-0.814042
	4.700000	-0.659472
	4.705000	-0.646317
	4.710000	-0.807465
	4.715000	-0.814042
	4.720000	-0.659472
	4.725000	-0.646317
	4.730000	-0.804176
	4.735000	-0.817331
	4.740000	-0.662761
	4.745000	-0.649606
	4.750000	-0.804176
	4.755000	-0.817331
	4.760000	-0.662761
	4.765000	-0.652895
	4.770000	-0.810754
	4.775000	-0.817331
	4.780000	-0.662761
	4.785000	-0.649606
	4.790000	-0.810754
	4.795000	-0.817331
	4.800000	-0.662761
	4.805000	-0.652895
	4.810000	-0.807465
	4.815000	-0.817331
	4.820000	-0.662761
	4.825000	-0.656184
	4.830000	-0.807465
	4.835000	-0.820620
	4.840000	-0.659472
	4.845000	-0.652895
	4.850000	-0.807465
	4.855000	-0.817331
	4.860000	-0.659472
	4.865000	-0.656184
	4.870000	-0.804176
	4.875000	-0.820620
	4.880000	-0.666050
	4.885000	-0.652895
	4.890000	-0.804176
	4.895000	-0.817331
	4.900000	-0.659472
	4.905000	-0.652895
	4.910000	-0.810754
	4.915000	-0.810754
	4.920000	-0.659472
	4.925000	-0.649606
	4.930000	-0.810754
	4.935000	-0.810754
	4.940000	-0.656184
	4.945000	-0.652895
	4.950000	-0.804176
	4.955000	-0.810754
	4.960000	-0.659472
	4.965000	-0.652895
	4.970000	-0.800887
	4.975000	-0.807465
	4.980000	-0.652895
	4.985000	-0.649606
	4.990000	-0.797599
	4.995000	-0.807465
	5.000000	-0.656184
	5.005000	-0.646317
	5.010000	-0.804176
	5.015000	-0.807465
	5.020000	-0.649606
	5.025000	-0.643029
	5.030000	-0.800887
	5.035000	-0.807465
	5.040000	-0.646317
	5.045000	-0.643029
	5.050000	-0.800887
	5.055000	-0.804176
	5.060000	-0.646317
	5.065000	-0.643029
	5.070000	-0.800887
	5.075000	-0.807465
	5.080000	-0.649606
	5.085000	-0.646317
	5.090000	-0.800887
	5.095000	-0.804176
	5.100000	-0.646317
	5.105000	-0.646317
	5.110000	-0.800887
	5.115000	-0.800887
	5.120000	-0.643029
	5.125000	-0.652895
	5.130000	-0.797599
	5.135000	-0.800887
	5.140000	-0.646317
	5.145000	-0.646317
	5.150000	-0.800887
	5.155000	-0.800887
	5.160000	-0.646317
	5.165000	-0.643029
	5.170000	-0.804176
	5.175000	-0.804176
	5.180000	-0.643029
	5.185000	-0.646317
	5.190000	-0.800887
	5.195000	-0.804176
	5.200000	-0.639740
	5.205000	-0.646317
	5.210000	-0.794310
	5.215000	-0.797599
	5.220000	-0.636451
	5.225000	-0.649606
	5.230000	-0.797599
	5.235000	-0.794310
	5.240000	-0.636451
	5.245000	-0.639740
	5.250000	-0.800887
	5.255000	-0.794310
	5.260000	-0.643029
	5.265000	-0.643029
	5.270000	-0.794310
	5.275000	-0.794310
	5.280000	-0.643029
	5.285000	-0.646317
	5.290000	-0.797599
	5.295000	-0.794310
	5.300000	-0.639740
	5.305000	-0.643029
	5.310000	-0.797599
	5.315000	-0.797599
	5.320000	-0.636451
	5.325000	-0.646317
	5.330000	-0.800887
	5.335000	-0.791021
	5.340000	-0.639740
	5.345000	-0.643029
	5.350000	-0.800887
	5.355000	-0.787732
	5.360000	-0.633162
	5.365000	-0.646317
	5.370000	-0.797599
	5.375000	-0.791021
	5.380000	-0.636451
	5.385000	-0.646317
	5.390000	-0.794310
	5.395000	-0.791021
	5.400000	-0.629874
	5.405000	-0.643029
	5.410000	-0.794310
	5.415000	-0.784444
	5.420000	-0.636451
	5.425000	-0.643029
	5.430000	-0.794310
	5.435000	-0.784444
	5.440000	-0.633162
	5.445000	-0.646317
	5.450000	-0.794310
	5.455000	-0.784444
	5.460000	-0.629874
	5.465000	-0.636451
	5.470000	-0.791021
	5.475000	-0.781155
	5.480000	-0.626585
	5.485000	-0.636451
	5.490000	-0.791021
	5.495000	-0.777866
	5.500000	-0.620008
	5.505000	-0.629874
	5.510000	-0.784444
	5.515000	-0.768000
	5.520000	-0.620008
	5.525000	-0.629874
	5.530000	-0.784444
	5.535000	-0.768000
	5.540000	-0.606853
	5.545000	-0.626585
	5.550000	-0.774578
	5.555000	-0.764711
	5.560000	-0.613430
	5.565000	-0.620008
	5.570000	-0.774578
	5.575000	-0.761423
	5.580000	-0.600275
	5.585000	-0.613430
	5.590000	-0.774578
	5.595000	-0.751556
	5.600000	-0.603564
	5.605000	-0.620008
	5.610000	-0.768000
	5.615000	-0.754845
	5.620000	-0.596987
	5.625000	-0.613430
	5.630000	-0.768000
	5.635000	-0.748268
	5.640000	-0.593698
	5.645000	-0.613430
	5.650000	-0.771289
	5.655000	-0.748268
	5.660000	-0.593698
	5.665000	-0.616719
	5.670000	-0.774578
	5.675000	-0.761423
	5.680000	-0.606853
	5.685000	-0.623296
	5.690000	-0.777866
	5.695000	-0.764711
	5.700000	-0.613430
	5.705000	-0.629874
	5.710000	-0.784444
	5.715000	-0.764711
	5.720000	-0.610141
	5.725000	-0.629874
	5.730000	-0.784444
	5.735000	-0.764711
	5.740000	-0.616719
	5.745000	-0.639740
	5.750000	-0.784444
	5.755000	-0.768000
	5.760000	-0.613430
	5.765000	-0.629874
	5.770000	-0.784444
	5.775000	-0.764711
	5.780000	-0.613430
	5.785000	-0.633162
	5.790000	-0.791021
	5.795000	-0.768000
	5.800000	-0.613430
	5.805000	-0.639740
	5.810000	-0.791021
	5.815000	-0.777866
	5.820000	-0.629874
	5.825000	-0.652895
	5.830000	-0.804176
	5.835000	-0.787732
	5.840000	-0.652895
	5.845000	-0.685782
	5.850000	-0.837063
	5.855000	-0.830486
	5.860000	-0.682493
	5.865000	-0.708803
	5.870000	-0.860084
	5.875000	-0.850218
	5.880000	-0.705514
	5.885000	-0.738402
	5.890000	-0.883105
	5.895000	-0.876528
	5.900000	-0.744979
	5.905000	-0.768000
	5.910000	-0.912704
	5.915000	-0.906126
	5.920000	-0.781155
	5.925000	-0.817331
	5.930000	-0.978478
	5.935000	-0.988345
	5.940000	-0.879817
	5.945000	-0.919281
	5.950000	-1.073851
	5.955000	-1.067274
	5.960000	-0.958746
	5.965000	-0.981767
	5.970000	-1.119893
	5.975000	-1.116605
	5.980000	-1.004788
	5.985000	-1.031098
	5.990000	-1.182379
	5.995000	-1.185668
	6.000000	-1.087006
	6.005000	-1.119893
	6.010000	-1.258020
	6.015000	-1.248154
	6.020000	-1.126471
	6.025000	-1.146203
	6.030000	-1.284330
	6.035000	-1.271175
	6.040000	-1.156069
	6.045000	-1.172513
	6.050000	-1.297484
	6.055000	-1.294196
	6.060000	-1.182379
	6.065000	-1.202112
	6.070000	-1.333660
	6.075000	-1.327083
	6.080000	-1.221844
	6.085000	-1.241576
	6.090000	-1.359970
	6.095000	-1.350104
	6.100000	-1.238287
	6.105000	-1.258020
	6.110000	-1.369836
	6.115000	-1.346815
	6.120000	-1.228421
	6.125000	-1.238287
	6.130000	-1.340238
	6.135000	-1.327083
	6.140000	-1.211978
	6.145000	-1.211978
	6.150000	-1.313928
	6.155000	-1.290907
	6.160000	-1.175802
	6.165000	-1.172513
	6.170000	-1.267886
	6.175000	-1.241576
	6.180000	-1.126471
	6.185000	-1.123182
	6.190000	-1.218555
	6.195000	-1.195534
	6.200000	-1.073851
	6.205000	-1.077140
	6.210000	-1.169224
	6.215000	-1.139626
	6.220000	-1.021232
	6.225000	-1.017943
	6.230000	-1.103450
	6.235000	-1.073851
	6.240000	-0.952169
	6.245000	-0.945591
	6.250000	-1.040964
	6.255000	-1.011366
	6.260000	-0.886394
	6.265000	-0.883105
	6.270000	-0.975190
	6.275000	-0.948880
	6.280000	-0.830486
	6.285000	-0.833775
	6.290000	-0.929148
	6.295000	-0.902838
	6.300000	-0.787732
	6.305000	-0.791021
	6.310000	-0.892972
	6.315000	-0.866662
	6.320000	-0.748268
	6.325000	-0.751556
	6.330000	-0.850218
	6.335000	-0.830486
	6.340000	-0.705514
	6.345000	-0.708803
	6.350000	-0.810754
	6.355000	-0.774578
	6.360000	-0.659472
	6.365000	-0.656184
	6.370000	-0.751556
	6.375000	-0.712092
	6.380000	-0.603564
	6.385000	-0.603564
	6.390000	-0.702226
	6.395000	-0.682493
	6.400000	-0.560811
	6.405000	-0.570677
	6.410000	-0.666050
	6.415000	-0.620008
	6.420000	-0.481881
	6.425000	-0.462149
	6.430000	-0.521346
	6.435000	-0.448994
	6.440000	-0.304290
	6.445000	-0.314156
	6.450000	-0.409529
	6.455000	-0.379931
	6.460000	-0.264826
	6.465000	-0.287847
	6.470000	-0.409529
	6.475000	-0.409529
	6.480000	-0.327311
	6.485000	-0.393086
	6.490000	-0.544367
	6.495000	-0.544367
	6.500000	-0.445705
	6.505000	-0.481881
	6.510000	-0.610141
	6.515000	-0.590409
	6.520000	-0.488459
	6.525000	-0.514768
	6.530000	-0.629874
	6.535000	-0.603564
	6.540000	-0.488459
	6.545000	-0.511480
	6.550000	-0.629874
	6.555000	-0.596987
	6.560000	-0.485170
	6.565000	-0.504902
	6.570000	-0.603564
	6.575000	-0.567388
	6.580000	-0.452283
	6.585000	-0.468726
	6.590000	-0.583832
	6.595000	-0.554233
	6.600000	-0.435839
	6.605000	-0.462149
	6.610000	-0.583832
	6.615000	-0.550944
	6.620000	-0.432550
	6.625000	-0.465438
	6.630000	-0.577254
	6.635000	-0.534501
	6.640000	-0.416107
	6.645000	-0.448994
	6.650000	-0.573965
	6.655000	-0.541078
	6.660000	-0.425973
	6.665000	-0.465438
	6.670000	-0.593698
	6.675000	-0.557522
	6.680000	-0.432550
	6.685000	-0.472015
	6.690000	-0.593698
	6.695000	-0.567388
	6.700000	-0.448994
	6.705000	-0.491747
	6.710000	-0.620008
	6.715000	-0.590409
	6.720000	-0.472015
	6.725000	-0.518057
	6.730000	-0.652895
	6.735000	-0.620008
	6.740000	-0.498325
	6.745000	-0.550944
	6.750000	-0.679205
	6.755000	-0.649606
	6.760000	-0.527923
	6.765000	-0.577254
	6.770000	-0.705514
	6.775000	-0.666050
	6.780000	-0.541078
	6.785000	-0.587120
	6.790000	-0.721958
	6.795000	-0.675916
	6.800000	-0.550944
	6.805000	-0.600275
	6.810000	-0.735113
	6.815000	-0.695648
	6.820000	-0.560811
	6.825000	-0.610141
	6.830000	-0.741690
	6.835000	-0.692359
	6.840000	-0.567388
	6.845000	-0.613430
	6.850000	-0.744979
	6.855000	-0.702226
	6.860000	-0.567388
	6.865000	-0.620008
	6.870000	-0.751556
	6.875000	-0.705514
	6.880000	-0.573965
	6.885000	-0.623296
	6.890000	-0.751556
	6.895000	-0.708803
	6.900000	-0.573965
	6.905000	-0.623296
	6.910000	-0.761423
	6.915000	-0.705514
	6.920000	-0.573965
	6.925000	-0.623296
	6.930000	-0.758134
	6.935000	-0.702226
	6.940000	-0.570677
	6.945000	-0.623296
	6.950000	-0.758134
	6.955000	-0.705514
	6.960000	-0.564099
	6.965000	-0.626585
	6.970000	-0.754845
	6.975000	-0.708803
	6.980000	-0.573965
	6.985000	-0.623296
	6.990000	-0.761423
	6.995000	-0.705514
	7.000000	-0.564099
	7.005000	-0.623296
	7.010000	-0.758134
	7.015000	-0.698937
	7.020000	-0.564099
	7.025000	-0.623296
	7.030000	-0.761423
	7.035000	-0.702226
	7.040000	-0.570677
	7.045000	-0.626585
	7.050000	-0.764711
	7.055000	-0.705514
	7.060000	-0.567388
	7.065000	-0.626585
	7.070000	-0.764711
	7.075000	-0.708803
	7.080000	-0.573965
	7.085000	-0.629874
	7.090000	-0.771289
	7.095000	-0.708803
	7.100000	-0.573965
	7.105000	-0.629874
	7.110000	-0.771289
	7.115000	-0.705514
	7.120000	-0.573965
	7.125000	-0.629874
	7.130000	-0.771289
	7.135000	-0.712092
	7.140000	-0.577254
	7.145000	-0.636451
	7.150000	-0.777866
	7.155000	-0.715381
	7.160000	-0.577254
	7.165000	-0.636451
	7.170000	-0.781155
	7.175000	-0.712092
	7.180000	-0.583832
	7.185000	-0.649606
	7.190000	-0.781155
	7.195000	-0.721958
	7.200000	-0.580543
	7.205000	-0.646317
	7.210000	-0.781155
	7.215000	-0.715381
	7.220000	-0.577254
	7.225000	-0.636451
	7.230000	-0.781155
	7.235000	-0.718669
	7.240000	-0.580543
	7.245000	-0.646317
	7.250000	-0.784444
	7.255000	-0.725247
	7.260000	-0.593698
	7.265000	-0.659472
	7.270000	-0.791021
	7.275000	-0.725247
	7.280000	-0.600275
	7.285000	-0.659472
	7.290000	-0.797599
	7.295000	-0.731824
	7.300000	-0.596987
	7.305000	-0.662761
	7.310000	-0.800887
	7.315000	-0.735113
	7.320000	-0.600275
	7.325000	-0.669338
	7.330000	-0.804176
	7.335000	-0.738402
	7.340000	-0.603564
	7.345000	-0.672627
	7.350000	-0.807465
	7.355000	-0.735113
	7.360000	-0.610141
	7.365000	-0.679205
	7.370000	-0.810754
	7.375000	-0.748268
	7.380000	-0.613430
	7.385000	-0.682493
	7.390000	-0.817331
	7.395000	-0.751556
	7.400000	-0.620008
	7.405000	-0.692359
	7.410000	-0.827197
	7.415000	-0.754845
	7.420000	-0.629874
	7.425000	-0.695648
	7.430000	-0.830486
	7.435000	-0.761423
	7.440000	-0.626585
	7.445000	-0.698937
	7.450000	-0.830486
	7.455000	-0.764711
	7.460000	-0.626585
	7.465000	-0.695648
	7.470000	-0.830486
	7.475000	-0.764711
	7.480000	-0.629874
	7.485000	-0.698937
	7.490000	-0.830486
	7.495000	-0.758134
	7.500000	-0.626585
	7.505000	-0.698937
	7.510000	-0.830486
	7.515000	-0.754845
	7.520000	-0.626585
	7.525000	-0.702226
	7.530000	-0.823908
	7.535000	-0.758134
	7.540000	-0.623296
	7.545000	-0.698937
	7.550000	-0.823908
	7.555000	-0.751556
	7.560000	-0.626585
	7.565000	-0.692359
	7.570000	-0.827197
	7.575000	-0.751556
	7.580000	-0.623296
	7.585000	-0.698937
	7.590000	-0.830486
	7.595000	-0.748268
	7.600000	-0.623296
	7.605000	-0.695648
	7.610000	-0.827197
	7.615000	-0.751556
	7.620000	-0.620008
	7.625000	-0.695648
	7.630000	-0.830486
	7.635000	-0.751556
	7.640000	-0.623296
	7.645000	-0.698937
	7.650000	-0.827197
	7.655000	-0.751556
	7.660000	-0.623296
	7.665000	-0.698937
	7.670000	-0.823908
	7.675000	-0.751556
	7.680000	-0.623296
	7.685000	-0.702226
	7.690000	-0.820620
	7.695000	-0.751556
	7.700000	-0.623296
	7.705000	-0.702226
	7.710000	-0.823908
	7.715000	-0.748268
	7.720000	-0.616719
	7.725000	-0.698937
	7.730000	-0.827197
	7.735000	-0.741690
	7.740000	-0.616719
	7.745000	-0.698937
	7.750000	-0.817331
	7.755000	-0.744979
	7.760000	-0.616719
	7.765000	-0.689071
	7.770000	-0.817331
	7.775000	-0.741690
	7.780000	-0.613430
	7.785000	-0.695648
	7.790000	-0.817331
	7.795000	-0.738402
	7.800000	-0.606853
	7.805000	-0.689071
	7.810000	-0.814042
	7.815000	-0.738402
	7.820000	-0.606853
	7.825000	-0.692359
	7.830000	-0.810754
	7.835000	-0.738402
	7.840000	-0.610141
	7.845000	-0.685782
	7.850000	-0.817331
	7.855000	-0.731824
	7.860000	-0.610141
	7.865000	-0.689071
	7.870000	-0.810754
	7.875000	-0.731824
	7.880000	-0.603564
	7.885000	-0.685782
	7.890000	-0.807465
	7.895000	-0.725247
	7.900000	-0.596987
	7.905000	-0.679205
	7.910000	-0.800887
	7.915000	-0.721958
	7.920000	-0.593698
	7.925000	-0.682493
	7.930000	-0.797599
	7.935000	-0.715381
	7.940000	-0.587120
	7.945000	-0.672627
	7.950000	-0.787732
	7.955000	-0.712092
	7.960000	-0.577254
	7.965000	-0.659472
	7.970000	-0.777866
	7.975000	-0.689071
	7.980000	-0.557522
	7.985000	-0.639740
	7.990000	-0.754845
	7.995000	-0.662761
	8.000000	-0.534501
	8.005000	-0.613430
	8.010000	-0.731824
	8.015000	-0.639740
	8.020000	-0.508191
	8.025000	-0.583832
	8.030000	-0.702226
	8.035000	-0.606853
	8.040000	-0.481881
	8.045000	-0.564099
	8.050000	-0.679205
	8.055000	-0.593698
	8.060000	-0.472015
	8.065000	-0.557522
	8.070000	-0.672627
	8.075000	-0.596987
	8.080000	-0.475304
	8.085000	-0.564099
	8.090000	-0.689071
	8.095000	-0.603564
	8.100000	-0.488459
	8.105000	-0.577254
	8.110000	-0.702226
	8.115000	-0.610141
	8.120000	-0.495036
	8.125000	-0.580543
	8.130000	-0.705514
	8.135000	-0.623296
	8.140000	-0.501614
	8.145000	-0.593698
	8.150000	-0.715381
	8.155000	-0.626585
	8.160000	-0.508191
	8.165000	-0.600275
	8.170000	-0.721958
	8.175000	-0.639740
	8.180000	-0.518057
	8.185000	-0.610141
	8.190000	-0.735113
	8.195000	-0.646317
	8.200000	-0.524635
	8.205000	-0.620008
	8.210000	-0.744979
	8.215000	-0.656184
	8.220000	-0.534501
	8.225000	-0.633162
	8.230000	-0.748268
	8.235000	-0.659472
	8.240000	-0.541078
	8.245000	-0.636451
	8.250000	-0.758134
	8.255000	-0.666050
	8.260000	-0.547656
	8.265000	-0.643029
	8.270000	-0.758134
	8.275000	-0.666050
	8.280000	-0.547656
	8.285000	-0.646317
	8.290000	-0.761423
	8.295000	-0.669338
	8.300000	-0.550944
	8.305000	-0.643029
	8.310000	-0.764711
	8.315000	-0.669338
	8.320000	-0.550944
	8.325000	-0.652895
	8.330000	-0.771289
	8.335000	-0.675916
	8.340000	-0.557522
	8.345000	-0.646317
	8.350000	-0.768000
	8.355000	-0.669338
	8.360000	-0.550944
	8.365000	-0.652895
	8.370000	-0.768000
	8.375000	-0.672627
	8.380000	-0.554233
	8.385000	-0.649606
	8.390000	-0.764711
	8.395000	-0.675916
	8.400000	-0.557522
	8.405000	-0.659472
	8.410000	-0.777866
	8.415000	-0.689071
	8.420000	-0.577254
	8.425000	-0.679205
	8.430000	-0.800887
	8.435000	-0.712092
	8.440000	-0.606853
	8.445000	-0.698937
	8.450000	-0.823908
	8.455000	-0.735113
	8.460000	-0.629874
	8.465000	-0.728535
	8.470000	-0.846929
	8.475000	-0.761423
	8.480000	-0.652895
	8.485000	-0.748268
	8.490000	-0.860084
	8.495000	-0.774578
	8.500000	-0.666050
	8.505000	-0.764711
	8.510000	-0.883105
	8.515000	-0.804176
	8.520000	-0.712092
	8.525000	-0.814042
	8.530000	-0.945591
	8.535000	-0.873239
	8.540000	-0.791021
	8.545000	-0.899549
	8.550000	-1.027809
	8.555000	-0.971901
	8.560000	-0.896260
	8.565000	-1.011366
	8.570000	-1.142915
	8.575000	-1.090295
	8.580000	-1.008077
	8.585000	-1.110027
	8.590000	-1.231710
	8.595000	-1.162647
	8.600000	-1.073851
	8.605000	-1.172513
	8.610000	-1.287618
	8.615000	-1.221844
	8.620000	-1.129760
	8.625000	-1.218555
	8.630000	-1.323794
	8.635000	-1.234999
	8.640000	-1.133048
	8.645000	-1.202112
	8.650000	-1.287618
	8.655000	-1.188957
	8.660000	-1.067274
	8.665000	-1.129760
	8.670000	-1.221844
	8.675000	-1.123182
	8.680000	-1.027809
	8.685000	-1.110027
	8.690000	-1.208689
	8.695000	-1.136337
	8.700000	-1.034387
	8.705000	-1.110027
	8.710000	-1.202112
	8.715000	-1.129760
	8.720000	-1.037675
	8.725000	-1.116605
	8.730000	-1.225133
	8.735000	-1.152781
	8.740000	-1.060696
	8.745000	-1.146203
	8.750000	-1.241576
	8.755000	-1.165936
	8.760000	-1.073851
	8.765000	-1.156069
	8.770000	-1.251442
	8.775000	-1.182379
	8.780000	-1.087006
	8.785000	-1.159358
	8.790000	-1.244865
	8.795000	-1.162647
	8.800000	-1.063985
	8.805000	-1.136337
	8.810000	-1.215266
	8.815000	-1.126471
	8.820000	-1.021232
	8.825000	-1.087006
	8.830000	-1.159358
	8.835000	-1.070563
	8.840000	-0.965323
	8.845000	-1.024520
	8.850000	-1.090295
	8.855000	-1.001499
	8.860000	-0.883105
	8.865000	-0.942302
	8.870000	-1.004788
	8.875000	-0.906126
	8.880000	-0.787732
	8.885000	-0.840352
	8.890000	-0.899549
	8.895000	-0.794310
	8.900000	-0.682493
	8.905000	-0.731824
	8.910000	-0.791021
	8.915000	-0.685782
	8.920000	-0.560811
	8.925000	-0.603564
	8.930000	-0.652895
	8.935000	-0.544367
	8.940000	-0.429262
	8.945000	-0.472015
	8.950000	-0.527923
	8.955000	-0.419395
	8.960000	-0.310868
	8.965000	-0.373353
	8.970000	-0.439128
	8.975000	-0.340466
	8.980000	-0.228650
	8.985000	-0.277980
	8.990000	-0.337177
	8.995000	-0.245093
	9.000000	-0.162875
	9.005000	-0.251671
	9.010000	-0.337177
	9.015000	-0.251671
	9.020000	-0.169453
	9.025000	-0.258248
	9.030000	-0.343755
	9.035000	-0.258248
	9.040000	-0.205628
	9.045000	-0.337177
	9.050000	-0.458860
	9.055000	-0.402952
	9.060000	-0.337177
	9.065000	-0.452283
	9.070000	-0.557522
	9.075000	-0.488459
	9.080000	-0.409529
	9.085000	-0.504902
	9.090000	-0.596987
	9.095000	-0.508191
	9.100000	-0.416107
	9.105000	-0.511480
	9.110000	-0.603564
	9.115000	-0.508191
	9.120000	-0.416107
	9.125000	-0.508191
	9.130000	-0.603564
	9.135000	-0.511480
	9.140000	-0.419395
	9.145000	-0.524635
	9.150000	-0.620008
	9.155000	-0.524635
	9.160000	-0.432550
	9.165000	-0.531212
	9.170000	-0.613430
	9.175000	-0.527923
	9.180000	-0.442417
	9.185000	-0.537790
	9.190000	-0.629874
	9.195000	-0.527923
	9.200000	-0.439128
	9.205000	-0.527923
	9.210000	-0.613430
	9.215000	-0.501614
	9.220000	-0.409529
	9.225000	-0.504902
	9.230000	-0.590409
	9.235000	-0.488459
	9.240000	-0.396374
	9.245000	-0.508191
	9.250000	-0.600275
	9.255000	-0.498325
	9.260000	-0.402952
	9.265000	-0.504902
	9.270000	-0.590409
	9.275000	-0.491747
	9.280000	-0.399663
	9.285000	-0.501614
	9.290000	-0.590409
	9.295000	-0.488459
	9.300000	-0.399663
	9.305000	-0.511480
	9.310000	-0.600275
	9.315000	-0.498325
	9.320000	-0.412818
	9.325000	-0.521346
	9.330000	-0.610141
	9.335000	-0.504902
	9.340000	-0.419395
	9.345000	-0.524635
	9.350000	-0.613430
	9.355000	-0.511480
	9.360000	-0.422684
	9.365000	-0.524635
	9.370000	-0.616719
	9.375000	-0.511480
	9.380000	-0.412818
	9.385000	-0.521346
	9.390000	-0.616719
	9.395000	-0.501614
	9.400000	-0.409529
	9.405000	-0.527923
	9.410000	-0.613430
	9.415000	-0.501614
	9.420000	-0.402952
	9.425000	-0.521346
	9.430000	-0.616719
	9.435000	-0.498325
	9.440000	-0.409529
	9.445000	-0.531212
	9.450000	-0.616719
	9.455000	-0.508191
	9.460000	-0.419395
	9.465000	-0.541078
	9.470000	-0.633162
	9.475000	-0.518057
	9.480000	-0.435839
	9.485000	-0.550944
	9.490000	-0.639740
	9.495000	-0.521346
	9.500000	-0.432550
	9.505000	-0.554233
	9.510000	-0.639740
	9.515000	-0.524635
	9.520000	-0.442417
	9.525000	-0.567388
	9.530000	-0.659472
	9.535000	-0.541078
	9.540000	-0.455571
	9.545000	-0.580543
	9.550000	-0.669338
	9.555000	-0.544367
	9.560000	-0.462149
	9.565000	-0.590409
	9.570000	-0.679205
	9.575000	-0.554233
	9.580000	-0.468726
	9.585000	-0.590409
	9.590000	-0.679205
	9.595000	-0.554233
	9.600000	-0.465438
	9.605000	-0.593698
	9.610000	-0.679205
	9.615000	-0.547656
	9.620000	-0.462149
	9.625000	-0.583832
	9.630000	-0.669338
	9.635000	-0.541078
	9.640000	-0.455571
	9.645000	-0.577254
	9.650000	-0.662761
	9.655000	-0.537790
	9.660000	-0.455571
	9.665000	-0.580543
	9.670000	-0.675916
	9.675000	-0.547656
	9.680000	-0.462149
	9.685000	-0.593698
	9.690000	-0.689071
	9.695000	-0.564099
	9.700000	-0.475304
	9.705000	-0.606853
	9.710000	-0.695648
	9.715000	-0.570677
	9.720000	-0.488459
	9.725000	-0.613430
	9.730000	-0.705514
	9.735000	-0.577254
	9.740000	-0.501614
	9.745000	-0.629874
	9.750000	-0.718669
	9.755000	-0.596987
	9.760000	-0.511480
	9.765000	-0.643029
	9.770000	-0.728535
	9.775000	-0.600275
	9.780000	-0.521346
	9.785000	-0.649606
	9.790000	-0.735113
	9.795000	-0.606853
	9.800000	-0.524635
	9.805000	-0.656184
	9.810000	-0.735113
	9.815000	-0.610141
	9.820000	-0.524635
	9.825000	-0.656184
	9.830000	-0.738402
	9.835000	-0.613430
	9.840000	-0.534501
	9.845000	-0.666050
	9.850000	-0.741690
	9.855000	-0.616719
	9.860000	-0.537790
	9.865000	-0.666050
	9.870000	-0.748268
	9.875000	-0.620008
	9.880000	-0.537790
	9.885000	-0.672627
	9.890000	-0.751556
	9.895000	-0.629874
	9.900000	-0.544367
	9.905000	-0.672627
	9.910000	-0.751556
	9.915000	-0.620008
	9.920000	-0.544367
	9.925000	-0.672627
	9.930000	-0.751556
	9.935000	-0.620008
	9.940000	-0.541078
	9.945000	-0.669338
	9.950000	-0.751556
	9.955000	-0.616719
	9.960000	-0.537790
	9.965000	-0.669338
	9.970000	-0.748268
	9.975000	-0.620008
	9.980000	-0.541078
	9.985000	-0.669338
	9.990000	-0.744979
	9.995000	-0.616719
	10.000000	-0.537790
	10.005000	-0.666050
	10.010000	-0.748268
	10.015000	-0.616719
	10.020000	-0.534501
	10.025000	-0.669338
	10.030000	-0.744979
	10.035000	-0.613430
	10.040000	-0.534501
	10.045000	-0.669338
	10.050000	-0.744979
	10.055000	-0.616719
	10.060000	-0.541078
	10.065000	-0.669338
	10.070000	-0.741690
	10.075000	-0.613430
	10.080000	-0.534501
	10.085000	-0.672627
	10.090000	-0.748268
	10.095000	-0.613430
	10.100000	-0.544367
	10.105000	-0.669338
	10.110000	-0.748268
	10.115000	-0.613430
	10.120000	-0.544367
	10.125000	-0.672627
	10.130000	-0.748268
	10.135000	-0.616719
	10.140000	-0.534501
	10.145000	-0.675916
	10.150000	-0.744979
	10.155000	-0.606853
	10.160000	-0.541078
	10.165000	-0.672627
	10.170000	-0.744979
	10.175000	-0.610141
	10.180000	-0.541078
	10.185000	-0.672627
	10.190000	-0.748268
	10.195000	-0.613430
	10.200000	-0.534501
	10.205000	-0.672627
	10.210000	-0.741690
	10.215000	-0.603564
	10.220000	-0.541078
	10.225000	-0.675916
	10.230000	-0.741690
	10.235000	-0.610141
	10.240000	-0.537790
	10.245000	-0.672627
	10.250000	-0.741690
	10.255000	-0.610141
	10.260000	-0.544367
	10.265000	-0.675916
	10.270000	-0.744979
	10.275000	-0.610141
	10.280000	-0.547656
	10.285000	-0.682493
	10.290000	-0.748268
	10.295000	-0.616719
	10.300000	-0.544367
	10.305000	-0.682493
	10.310000	-0.751556
	10.315000	-0.613430
	10.320000	-0.547656
	10.325000	-0.679205
	10.330000	-0.751556
	10.335000	-0.610141
	10.340000	-0.547656
	10.345000	-0.679205
	10.350000	-0.748268
	10.355000	-0.613430
	10.360000	-0.544367
	10.365000	-0.679205
	10.370000	-0.748268
	10.375000	-0.606853
	10.380000	-0.547656
	10.385000	-0.679205
	10.390000	-0.741690
	10.395000	-0.606853
	10.400000	-0.541078
	10.405000	-0.682493
	10.410000	-0.744979
	10.415000	-0.610141
	10.420000	-0.544367
	10.425000	-0.679205
	10.430000	-0.744979
	10.435000	-0.606853
	10.440000	-0.544367
	10.445000	-0.679205
	10.450000	-0.748268
	10.455000	-0.606853
	10.460000	-0.544367
	10.465000	-0.679205
	10.470000	-0.744979
	10.475000	-0.603564
	10.480000	-0.544367
	10.485000	-0.682493
	10.490000	-0.738402
	10.495000	-0.603564
	10.500000	-0.547656
	10.505000	-0.679205
	10.510000	-0.741690
	10.515000	-0.603564
	10.520000	-0.541078
	10.525000	-0.682493
	10.530000	-0.738402
	10.535000	-0.603564
	10.540000	-0.541078
	10.545000	-0.679205
	10.550000	-0.738402
	10.555000	-0.600275
	10.560000	-0.541078
	10.565000	-0.679205
	10.570000	-0.741690
	10.575000	-0.603564
	10.580000	-0.544367
	10.585000	-0.679205
	10.590000	-0.735113
	10.595000	-0.596987
	10.600000	-0.537790
	10.605000	-0.682493
	10.610000	-0.735113
	10.615000	-0.600275
	10.620000	-0.534501
	10.625000	-0.679205
	10.630000	-0.735113
	10.635000	-0.596987
	10.640000	-0.537790
	10.645000	-0.672627
	10.650000	-0.735113
	10.655000	-0.593698
	10.660000	-0.537790
	10.665000	-0.672627
	10.670000	-0.725247
	10.675000	-0.590409
	10.680000	-0.531212
	10.685000	-0.675916
	10.690000	-0.728535
	10.695000	-0.590409
	10.700000	-0.531212
	10.705000	-0.672627
	10.710000	-0.728535
	10.715000	-0.587120
	10.720000	-0.527923
	10.725000	-0.675916
	10.730000	-0.728535
	10.735000	-0.580543
	10.740000	-0.534501
	10.745000	-0.675916
	10.750000	-0.731824
	10.755000	-0.587120
	10.760000	-0.531212
	10.765000	-0.675916
	10.770000	-0.731824
	10.775000	-0.587120
	10.780000	-0.534501
	10.785000	-0.679205
	10.790000	-0.728535
	10.795000	-0.587120
	10.800000	-0.534501
	10.805000	-0.672627
	10.810000	-0.728535
	10.815000	-0.587120
	10.820000	-0.534501
	10.825000	-0.672627
	10.830000	-0.728535
	10.835000	-0.590409
	10.840000	-0.531212
	10.845000	-0.679205
	10.850000	-0.731824
	10.855000	-0.587120
	10.860000	-0.537790
	10.865000	-0.675916
	10.870000	-0.728535
	10.875000	-0.583832
	10.880000	-0.537790
	10.885000	-0.679205
	10.890000	-0.731824
	10.895000	-0.587120
	10.900000	-0.537790
	10.905000	-0.685782
	10.910000	-0.728535
	10.915000	-0.580543
	10.920000	-0.537790
	10.925000	-0.682493
	10.930000	-0.728535
	10.935000	-0.580543
	10.940000	-0.534501
	10.945000	-0.679205
	10.950000	-0.721958
	10.955000	-0.577254
	10.960000	-0.527923
	10.965000	-0.672627
	10.970000	-0.718669
	10.975000	-0.573965
	10.980000	-0.521346
	10.985000	-0.669338
	10.990000	-0.715381
	10.995000	-0.567388
	11.000000	-0.518057
	11.005000	-0.666050
	11.010000	-0.708803
	11.015000	-0.557522
	11.020000	-0.514768
	11.025000	-0.656184
	11.030000	-0.698937
	11.035000	-0.554233
	11.040000	-0.504902
	11.045000	-0.646317
	11.050000	-0.692359
	11.055000	-0.544367
	11.060000	-0.495036
	11.065000	-0.643029
	11.070000	-0.682493
	11.075000	-0.534501
	11.080000	-0.485170
	11.085000	-0.629874
	11.090000	-0.679205
	11.095000	-0.518057
	11.100000	-0.478592
	11.105000	-0.626585
	11.110000	-0.666050
	11.115000	-0.514768
	11.120000	-0.475304
	11.125000	-0.620008
	11.130000	-0.662761
	11.135000	-0.514768
	11.140000	-0.472015
	11.145000	-0.623296
	11.150000	-0.659472
	11.155000	-0.511480
	11.160000	-0.475304
	11.165000	-0.623296
	11.170000	-0.659472
	11.175000	-0.521346
	11.180000	-0.485170
	11.185000	-0.629874
	11.190000	-0.672627
	11.195000	-0.527923
	11.200000	-0.488459
	11.205000	-0.636451
	11.210000	-0.679205
	11.215000	-0.534501
	11.220000	-0.495036
	11.225000	-0.646317
	11.230000	-0.685782
	11.235000	-0.534501
	11.240000	-0.508191
	11.245000	-0.652895
	11.250000	-0.695648
	11.255000	-0.550944
	11.260000	-0.514768
	11.265000	-0.662761
	11.270000	-0.712092
	11.275000	-0.564099
	11.280000	-0.524635
	11.285000	-0.679205
	11.290000	-0.708803
	11.295000	-0.567388
	11.300000	-0.534501
	11.305000	-0.685782
	11.310000	-0.718669
	11.315000	-0.577254
	11.320000	-0.541078
	11.325000	-0.689071
	11.330000	-0.721958
	11.335000	-0.573965
	11.340000	-0.541078
	11.345000	-0.692359
	11.350000	-0.721958
	11.355000	-0.580543
	11.360000	-0.544367
	11.365000	-0.685782
	11.370000	-0.721958
	11.375000	-0.580543
	11.380000	-0.544367
	11.385000	-0.689071
	11.390000	-0.725247
	11.395000	-0.577254
	11.400000	-0.547656
	11.405000	-0.692359
	11.410000	-0.728535
	11.415000	-0.583832
	11.420000	-0.554233
	11.425000	-0.698937
	11.430000	-0.725247
	11.435000	-0.583832
	11.440000	-0.547656
	11.445000	-0.689071
	11.450000	-0.721958
	11.455000	-0.577254
	11.460000	-0.541078
	11.465000	-0.675916
	11.470000	-0.705514
	11.475000	-0.570677
	11.480000	-0.541078
	11.485000	-0.679205
	11.490000	-0.705514
	11.495000	-0.567388
	11.500000	-0.537790
	11.505000	-0.679205
	11.510000	-0.708803
	11.515000	-0.567388
	11.520000	-0.541078
	11.525000	-0.682493
	11.530000	-0.708803
	11.535000	-0.577254
	11.540000	-0.550944
	11.545000	-0.698937
	11.550000	-0.731824
	11.555000	-0.596987
	11.560000	-0.577254
	11.565000	-0.718669
	11.570000	-0.754845
	11.575000	-0.623296
	11.580000	-0.593698
	11.585000	-0.728535
	11.590000	-0.758134
	11.595000	-0.626585
	11.600000	-0.603564
	11.605000	-0.748268
	11.610000	-0.787732
	11.615000	-0.666050
	11.620000	-0.662761
	11.625000	-0.817331
	11.630000	-0.869951
	11.635000	-0.764711
	11.640000	-0.771289
	11.645000	-0.935725
	11.650000	-1.004788
	11.655000	-0.929148
	11.660000	-0.968612
	11.665000	-1.165936
	11.670000	-1.258020
	11.675000	-1.175802
	11.680000	-1.179090
	11.685000	-1.323794
	11.690000	-1.366548
	11.695000	-1.267886
	11.700000	-1.258020
	11.705000	-1.406012
	11.710000	-1.461921
	11.715000	-1.356682
	11.720000	-1.340238
	11.725000	-1.468498
	11.730000	-1.507963
	11.735000	-1.402724
	11.740000	-1.392857
	11.745000	-1.514540
	11.750000	-1.560582
	11.755000	-1.458632
	11.760000	-1.435611
	11.765000	-1.557294
	11.770000	-1.583603
	11.775000	-1.475076
	11.780000	-1.452054
	11.785000	-1.567160
	11.790000	-1.583603
	11.795000	-1.461921
	11.800000	-1.419167
	11.805000	-1.507963
	11.810000	-1.511251
	11.815000	-1.373125
	11.820000	-1.317217
	11.825000	-1.396146
	11.830000	-1.382991
	11.835000	-1.234999
	11.840000	-1.175802
	11.845000	-1.251442
	11.850000	-1.244865
	11.855000	-1.093584
	11.860000	-1.037675
	11.865000	-1.116605
	11.870000	-1.106739
	11.875000	-0.958746
	11.880000	-0.899549
	11.885000	-0.981767
	11.890000	-0.975190
	11.895000	-0.830486
	11.900000	-0.781155
	11.905000	-0.866662
	11.910000	-0.856796
	11.915000	-0.718669
	11.920000	-0.666050
	11.925000	-0.741690
	11.930000	-0.721958
	11.935000	-0.567388
	11.940000	-0.514768
	11.945000	-0.593698
	11.950000	-0.583832
	11.955000	-0.445705
	11.960000	-0.402952
	11.965000	-0.501614
	11.970000	-0.514768
	11.975000	-0.386508
	11.980000	-0.360198
	11.985000	-0.462149
	11.990000	-0.475304
	11.995000	-0.340466
	12.000000	-0.310868
	12.005000	-0.416107
	12.010000	-0.419395
	12.015000	-0.287847
	12.020000	-0.251671
	12.025000	-0.350332
	12.030000	-0.347044
	12.035000	-0.205628
	12.040000	-0.195762
	12.045000	-0.333889
	12.050000	-0.356910
	12.055000	-0.245093
	12.060000	-0.235227
	12.065000	-0.373353
	12.070000	-0.402952
	12.075000	-0.301001
	12.080000	-0.324023
	12.085000	-0.485170
	12.090000	-0.524635
	12.095000	-0.419395
	12.100000	-0.425973
	12.105000	-0.557522
	12.110000	-0.570677
	12.115000	-0.445705
	12.120000	-0.429262
	12.125000	-0.554233
	12.130000	-0.570677
	12.135000	-0.442417
	12.140000	-0.429262
	12.145000	-0.560811
	12.150000	-0.577254
	12.155000	-0.445705
	12.160000	-0.435839
	12.165000	-0.570677
	12.170000	-0.580543
	12.175000	-0.455571
	12.180000	-0.452283
	12.185000	-0.583832
	12.190000	-0.590409
	12.195000	-0.462149
	12.200000	-0.448994
	12.205000	-0.577254
	12.210000	-0.583832
	12.215000	-0.452283
	12.220000	-0.439128
	12.225000	-0.564099
	12.230000	-0.573965
	12.235000	-0.442417
	12.240000	-0.432550
	12.245000	-0.557522
	12.250000	-0.564099
	12.255000	-0.425973
	12.260000	-0.412818
	12.265000	-0.541078
	12.270000	-0.544367
	12.275000	-0.409529
	12.280000	-0.399663
	12.285000	-0.534501
	12.290000	-0.531212
	12.295000	-0.396374
	12.300000	-0.386508
	12.305000	-0.531212
	12.310000	-0.541078
	12.315000	-0.393086
	12.320000	-0.386508
	12.325000	-0.527923
	12.330000	-0.534501
	12.335000	-0.389797
	12.340000	-0.379931
	12.345000	-0.514768
	12.350000	-0.514768
	12.355000	-0.370065
	12.360000	-0.370065
	12.365000	-0.508191
	12.370000	-0.504902
	12.375000	-0.360198
	12.380000	-0.363487
	12.385000	-0.501614
	12.390000	-0.508191
	12.395000	-0.366776
	12.400000	-0.370065
	12.405000	-0.521346
	12.410000	-0.518057
	12.415000	-0.379931
	12.420000	-0.379931
	12.425000	-0.524635
	12.430000	-0.524635
	12.435000	-0.379931
	12.440000	-0.386508
	12.445000	-0.527923
	12.450000	-0.531212
	12.455000	-0.386508
	12.460000	-0.386508
	12.465000	-0.537790
	12.470000	-0.537790
	12.475000	-0.389797
	12.480000	-0.393086
	12.485000	-0.550944
	12.490000	-0.547656
	12.495000	-0.402952
	12.500000	-0.409529
	12.505000	-0.560811
	12.510000	-0.564099
	12.515000	-0.422684
	12.520000	-0.425973
	12.525000	-0.567388
	12.530000	-0.564099
	12.535000	-0.419395
	12.540000	-0.425973
	12.545000	-0.570677
	12.550000	-0.564099
	12.555000	-0.419395
	12.560000	-0.425973
	12.565000	-0.577254
	12.570000	-0.573965
	12.575000	-0.425973
	12.580000	-0.432550
	12.585000	-0.587120
	12.590000	-0.573965
	12.595000	-0.422684
	12.600000	-0.432550
	12.605000	-0.587120
	12.610000	-0.587120
	12.615000	-0.439128
	12.620000	-0.455571
	12.625000	-0.600275
	12.630000	-0.593698
	12.635000	-0.442417
	12.640000	-0.455571
	12.645000	-0.606853
	12.650000	-0.600275
	12.655000	-0.448994
	12.660000	-0.458860
	12.665000	-0.613430
	12.670000	-0.603564
	12.675000	-0.452283
	12.680000	-0.465438
	12.685000	-0.613430
	12.690000	-0.603564
	12.695000	-0.455571
	12.700000	-0.468726
	12.705000	-0.620008
	12.710000	-0.616719
	12.715000	-0.472015
	12.720000	-0.481881
	12.725000	-0.633162
	12.730000	-0.620008
	12.735000	-0.475304
	12.740000	-0.488459
	12.745000	-0.646317
	12.750000	-0.633162
	12.755000	-0.478592
	12.760000	-0.498325
	12.765000	-0.652895
	12.770000	-0.636451
	12.775000	-0.488459
	12.780000	-0.501614
	12.785000	-0.656184
	12.790000	-0.646317
	12.795000	-0.495036
	12.800000	-0.504902
	12.805000	-0.662761
	12.810000	-0.643029
	12.815000	-0.495036
	12.820000	-0.511480
	12.825000	-0.662761
	12.830000	-0.656184
	12.835000	-0.501614
	12.840000	-0.518057
	12.845000	-0.672627
	12.850000	-0.662761
	12.855000	-0.508191
	12.860000	-0.521346
	12.865000	-0.675916
	12.870000	-0.659472
	12.875000	-0.504902
	12.880000	-0.524635
	12.885000	-0.672627
	12.890000	-0.659472
	12.895000	-0.511480
	12.900000	-0.527923
	12.905000	-0.679205
	12.910000	-0.662761
	12.915000	-0.511480
	12.920000	-0.527923
	12.925000	-0.685782
	12.930000	-0.662761
	12.935000	-0.511480
	12.940000	-0.531212
	12.945000	-0.679205
	12.950000	-0.666050
	12.955000	-0.514768
	12.960000	-0.534501
	12.965000	-0.685782
	12.970000	-0.662761
	12.975000	-0.514768
	12.980000	-0.537790
	12.985000	-0.689071
	12.990000	-0.666050
	12.995000	-0.511480
	13.000000	-0.541078
	13.005000	-0.689071
	13.010000	-0.666050
	13.015000	-0.518057
	13.020000	-0.541078
	13.025000	-0.689071
	13.030000	-0.666050
	13.035000	-0.518057
	13.040000	-0.537790
	13.045000	-0.692359
	13.050000	-0.669338
	13.055000	-0.521346
	13.060000	-0.541078
	13.065000	-0.692359
	13.070000	-0.672627
	13.075000	-0.521346
	13.080000	-0.547656
	13.085000	-0.695648
	13.090000	-0.672627
	13.095000	-0.514768
	13.100000	-0.541078
	13.105000	-0.692359
	13.110000	-0.666050
	13.115000	-0.524635
	13.120000	-0.544367
	13.125000	-0.689071
	13.130000	-0.669338
	13.135000	-0.521346
	13.140000	-0.544367
	13.145000	-0.695648
	13.150000	-0.669338
	13.155000	-0.518057
	13.160000	-0.547656
	13.165000	-0.695648
	13.170000	-0.669338
	13.175000	-0.518057
	13.180000	-0.544367
	13.185000	-0.695648
	13.190000	-0.662761
	13.195000	-0.518057
	13.200000	-0.541078
	13.205000	-0.689071
	13.210000	-0.662761
	13.215000	-0.514768
	13.220000	-0.537790
	13.225000	-0.692359
	13.230000	-0.659472
	13.235000	-0.511480
	13.240000	-0.541078
	13.245000	-0.689071
	13.250000	-0.662761
	13.255000	-0.518057
	13.260000	-0.541078
	13.265000	-0.689071
	13.270000	-0.662761
	13.275000	-0.511480
	13.280000	-0.541078
	13.285000	-0.695648
	13.290000	-0.659472
	13.295000	-0.514768
	13.300000	-0.547656
	13.305000	-0.692359
	13.310000	-0.662761
	13.315000	-0.514768
	13.320000	-0.544367
	13.325000	-0.692359
	13.330000	-0.659472
	13.335000	-0.511480
	13.340000	-0.544367
	13.345000	-0.695648
	13.350000	-0.662761
	13.355000	-0.514768
	13.360000	-0.547656
	13.365000	-0.692359
	13.370000	-0.662761
	13.375000	-0.511480
	13.380000	-0.544367
	13.385000	-0.692359
	13.390000	-0.656184
	13.395000	-0.511480
	13.400000	-0.544367
	13.405000	-0.692359
	13.410000	-0.659472
	13.415000	-0.511480
	13.420000	-0.544367
	13.425000	-0.695648
	13.430000	-0.656184
	13.435000	-0.511480
	13.440000	-0.541078
	13.445000	-0.685782
	13.450000	-0.656184
	13.455000	-0.504902
	13.460000	-0.541078
	13.465000	-0.689071
	13.470000	-0.656184
	13.475000	-0.504902
	13.480000	-0.537790
	13.485000	-0.682493
	13.490000	-0.649606
	13.495000	-0.495036
	13.500000	-0.531212
	13.505000	-0.669338
	13.510000	-0.633162
	13.515000	-0.478592
	13.520000	-0.514768
	13.525000	-0.652895
	13.530000	-0.613430
	13.535000	-0.462149
	13.540000	-0.495036
	13.545000	-0.643029
	13.550000	-0.596987
	13.555000	-0.448994
	13.560000	-0.481881
	13.565000	-0.620008
	13.570000	-0.580543
	13.575000	-0.425973
	13.580000	-0.462149
	13.585000	-0.610141
	13.590000	-0.567388
	13.595000	-0.419395
	13.600000	-0.458860
	13.605000	-0.606853
	13.610000	-0.567388
	13.615000	-0.422684
	13.620000	-0.462149
	13.625000	-0.603564
	13.630000	-0.564099
	13.635000	-0.422684
	13.640000	-0.458860
	13.645000	-0.606853
	13.650000	-0.570677
	13.655000	-0.416107
	13.660000	-0.462149
	13.665000	-0.606853
	13.670000	-0.573965
	13.675000	-0.432550
	13.680000	-0.468726
	13.685000	-0.620008
	13.690000	-0.583832
	13.695000	-0.439128
	13.700000	-0.485170
	13.705000	-0.633162
	13.710000	-0.590409
	13.715000	-0.448994
	13.720000	-0.491747
	13.725000	-0.639740
	13.730000	-0.593698
	13.735000	-0.452283
	13.740000	-0.501614
	13.745000	-0.646317
	13.750000	-0.606853
	13.755000	-0.462149
	13.760000	-0.501614
	13.765000	-0.656184
	13.770000	-0.603564
	13.775000	-0.468726
	13.780000	-0.511480
	13.785000	-0.659472
	13.790000	-0.616719
	13.795000	-0.472015
	13.800000	-0.521346
	13.805000	-0.659472
	13.810000	-0.620008
	13.815000	-0.472015
	13.820000	-0.524635
	13.825000	-0.669338
	13.830000	-0.623296
	13.835000	-0.481881
	13.840000	-0.531212
	13.845000	-0.675916
	13.850000	-0.629874
	13.855000	-0.481881
	13.860000	-0.534501
	13.865000	-0.679205
	13.870000	-0.626585
	13.875000	-0.488459
	13.880000	-0.534501
	13.885000	-0.679205
	13.890000	-0.629874
	13.895000	-0.488459
	13.900000	-0.531212
	13.905000	-0.669338
	13.910000	-0.623296
	13.915000	-0.481881
	13.920000	-0.524635
	13.925000	-0.672627
	13.930000	-0.620008
	13.935000	-0.475304
	13.940000	-0.527923
	13.945000	-0.666050
	13.950000	-0.620008
	13.955000	-0.475304
	13.960000	-0.524635
	13.965000	-0.666050
	13.970000	-0.613430
	13.975000	-0.475304
	13.980000	-0.524635
	13.985000	-0.662761
	13.990000	-0.616719
	13.995000	-0.472015
	14.000000	-0.524635
	14.005000	-0.666050
	14.010000	-0.616719
	14.015000	-0.468726
	14.020000	-0.521346
	14.025000	-0.659472
	14.030000	-0.606853
	14.035000	-0.465438
	14.040000	-0.518057
	14.045000	-0.659472
	14.050000	-0.606853
	14.055000	-0.462149
	14.060000	-0.514768
	14.065000	-0.659472
	14.070000	-0.600275
	14.075000	-0.458860
	14.080000	-0.511480
	14.085000	-0.656184
	14.090000	-0.600275
	14.095000	-0.458860
	14.100000	-0.511480
	14.105000	-0.656184
	14.110000	-0.593698
	14.115000	-0.458860
	14.120000	-0.514768
	14.125000	-0.652895
	14.130000	-0.596987
	14.135000	-0.455571
	14.140000	-0.514768
	14.145000	-0.656184
	14.150000	-0.603564
	14.155000	-0.455571
	14.160000	-0.514768
	14.165000	-0.656184
	14.170000	-0.600275
	14.175000	-0.458860
	14.180000	-0.514768
	14.185000	-0.656184
	14.190000	-0.600275
	14.195000	-0.458860
	14.200000	-0.514768
	14.205000	-0.659472
	14.210000	-0.596987
	14.215000	-0.462149
	14.220000	-0.518057
	14.225000	-0.656184
	14.230000	-0.596987
	14.235000	-0.458860
	14.240000	-0.514768
	14.245000	-0.659472
	14.250000	-0.600275
	14.255000	-0.458860
	14.260000	-0.521346
	14.265000	-0.659472
	14.270000	-0.600275
	14.275000	-0.458860
	14.280000	-0.514768
	14.285000	-0.659472
	14.290000	-0.600275
	14.295000	-0.462149
	14.300000	-0.521346
	14.305000	-0.662761
	14.310000	-0.600275
	14.315000	-0.462149
	14.320000	-0.524635
	14.325000	-0.662761
	14.330000	-0.603564
	14.335000	-0.458860
	14.340000	-0.527923
	14.345000	-0.666050
	14.350000	-0.600275
	14.355000	-0.468726
	14.360000	-0.527923
	14.365000	-0.669338
	14.370000	-0.610141
	14.375000	-0.472015
	14.380000	-0.534501
	14.385000	-0.675916
	14.390000	-0.616719
	14.395000	-0.485170
	14.400000	-0.554233
	14.405000	-0.695648
	14.410000	-0.636451
	14.415000	-0.501614
	14.420000	-0.567388
	14.425000	-0.712092
	14.430000	-0.652895
	14.435000	-0.524635
	14.440000	-0.590409
	14.445000	-0.721958
	14.450000	-0.666050
	14.455000	-0.537790
	14.460000	-0.600275
	14.465000	-0.735113
	14.470000	-0.682493
	14.475000	-0.554233
	14.480000	-0.613430
	14.485000	-0.754845
	14.490000	-0.698937
	14.495000	-0.570677
	14.500000	-0.636451
	14.505000	-0.774578
	14.510000	-0.721958
	14.515000	-0.606853
	14.520000	-0.679205
	14.525000	-0.823908
	14.530000	-0.774578
	14.535000	-0.666050
	14.540000	-0.748268
	14.545000	-0.902838
	14.550000	-0.879817
	14.555000	-0.807465
	14.560000	-0.912704
	14.565000	-1.083718
	14.570000	-1.067274
	14.575000	-0.978478
	14.580000	-1.060696
	14.585000	-1.208689
	14.590000	-1.172513
	14.595000	-1.063985
	14.600000	-1.119893
	14.605000	-1.248154
	14.610000	-1.205400
	14.615000	-1.100161
	14.620000	-1.169224
	14.625000	-1.294196
	14.630000	-1.248154
	14.635000	-1.139626
	14.640000	-1.195534
	14.645000	-1.317217
	14.650000	-1.264597
	14.655000	-1.152781
	14.660000	-1.208689
	14.665000	-1.327083
	14.670000	-1.281041
	14.675000	-1.172513
	14.680000	-1.228421
	14.685000	-1.350104
	14.690000	-1.300773
	14.695000	-1.192245
	14.700000	-1.241576
	14.705000	-1.359970
	14.710000	-1.304062
	14.715000	-1.188957
	14.720000	-1.225133
	14.725000	-1.317217
	14.730000	-1.261309
	14.735000	-1.136337
	14.740000	-1.169224
	14.745000	-1.267886
	14.750000	-1.205400
	14.755000	-1.073851
	14.760000	-1.110027
	14.765000	-1.198823
	14.770000	-1.133048
	14.775000	-1.004788
	14.780000	-1.031098
	14.785000	-1.113316
	14.790000	-1.037675
	14.795000	-0.912704
	14.800000	-0.935725
	14.805000	-1.017943
	14.810000	-0.942302
	14.815000	-0.807465
	14.820000	-0.837063
	14.825000	-0.912704
	14.830000	-0.837063
	14.835000	-0.698937
	14.840000	-0.715381
	14.845000	-0.791021
	14.850000	-0.705514
	14.855000	-0.564099
	14.860000	-0.587120
	14.865000	-0.666050
	14.870000	-0.587120
	14.875000	-0.465438
	14.880000	-0.504902
	14.885000	-0.596987
	14.890000	-0.534501
	14.895000	-0.412818
	14.900000	-0.455571
	14.905000	-0.544367
	14.910000	-0.468726
	14.915000	-0.337177
	14.920000	-0.366776
	14.925000	-0.442417
	14.930000	-0.340466
	14.935000	-0.189185
	14.940000	-0.205628
	14.945000	-0.271403
	14.950000	-0.169453
	14.955000	-0.041192
	14.960000	-0.123410
	14.965000	-0.245093
	14.970000	-0.199051
	14.975000	-0.110256
	14.980000	-0.199051
	14.985000	-0.320734
	14.990000	-0.268114
	14.995000	-0.176030
	15.000000	-0.254959
	15.005000	-0.379931
	15.010000	-0.330600
	15.015000	-0.228650
	15.020000	-0.314156
	15.025000	-0.439128
	15.030000	-0.386508
	15.035000	-0.291135
	15.040000	-0.376642
	15.045000	-0.504902
	15.050000	-0.445705
	15.055000	-0.337177
	15.060000	-0.409529
	15.065000	-0.524635
	15.070000	-0.458860
	15.075000	-0.343755
	15.080000	-0.416107
	15.085000	-0.531212
	15.090000	-0.468726
	15.095000	-0.360198
	15.100000	-0.429262
	15.105000	-0.541078
	15.110000	-0.472015
	15.115000	-0.356910
	15.120000	-0.425973
	15.125000	-0.534501
	15.130000	-0.462149
	15.135000	-0.350332
	15.140000	-0.422684
	15.145000	-0.537790
	15.150000	-0.472015
	15.155000	-0.363487
	15.160000	-0.435839
	15.165000	-0.550944
	15.170000	-0.478592
	15.175000	-0.356910
	15.180000	-0.432550
	15.185000	-0.537790
	15.190000	-0.462149
	15.195000	-0.350332
	15.200000	-0.425973
	15.205000	-0.531212
	15.210000	-0.458860
	15.215000	-0.340466
	15.220000	-0.419395
	15.225000	-0.527923
	15.230000	-0.442417
	15.235000	-0.324023
	15.240000	-0.399663
	15.245000	-0.508191
	15.250000	-0.425973
	15.255000	-0.307579
	15.260000	-0.386508
	15.265000	-0.504902
	15.270000	-0.425973
	15.275000	-0.310868
	15.280000	-0.393086
	15.285000	-0.504902
	15.290000	-0.422684
	15.295000	-0.297713
	15.300000	-0.376642
	15.305000	-0.488459
	15.310000	-0.402952
	15.315000	-0.287847
	15.320000	-0.366776
	15.325000	-0.478592
	15.330000	-0.389797
	15.335000	-0.274692
	15.340000	-0.363487
	15.345000	-0.478592
	15.350000	-0.393086
	15.355000	-0.284558
	15.360000	-0.370065
	15.365000	-0.488459
	15.370000	-0.399663
	15.375000	-0.284558
	15.380000	-0.373353
	15.385000	-0.491747
	15.390000	-0.409529
	15.395000	-0.291135
	15.400000	-0.383220
	15.405000	-0.501614
	15.410000	-0.419395
	15.415000	-0.304290
	15.420000	-0.399663
	15.425000	-0.524635
	15.430000	-0.435839
	15.435000	-0.324023
	15.440000	-0.412818
	15.445000	-0.534501
	15.450000	-0.445705
	15.455000	-0.330600
	15.460000	-0.429262
	15.465000	-0.544367
	15.470000	-0.455571
	15.475000	-0.343755
	15.480000	-0.435839
	15.485000	-0.554233
	15.490000	-0.465438
	15.495000	-0.353621
	15.500000	-0.448994
	15.505000	-0.567388
	15.510000	-0.481881
	15.515000	-0.366776
	15.520000	-0.465438
	15.525000	-0.580543
	15.530000	-0.488459
	15.535000	-0.373353
	15.540000	-0.468726
	15.545000	-0.587120
	15.550000	-0.495036
	15.555000	-0.379931
	15.560000	-0.475304
	15.565000	-0.590409
	15.570000	-0.495036
	15.575000	-0.383220
	15.580000	-0.478592
	15.585000	-0.593698
	15.590000	-0.501614
	15.595000	-0.386508
	15.600000	-0.481881
	15.605000	-0.600275
	15.610000	-0.508191
	15.615000	-0.386508
	15.620000	-0.488459
	15.625000	-0.603564
	15.630000	-0.504902
	15.635000	-0.393086
	15.640000	-0.495036
	15.645000	-0.613430
	15.650000	-0.514768
	15.655000	-0.402952
	15.660000	-0.498325
	15.665000	-0.616719
	15.670000	-0.521346
	15.675000	-0.409529
	15.680000	-0.504902
	15.685000	-0.620008
	15.690000	-0.518057
	15.695000	-0.406241
	15.700000	-0.504902
	15.705000	-0.620008
	15.710000	-0.524635
	15.715000	-0.409529
	15.720000	-0.508191
	15.725000	-0.626585
	15.730000	-0.524635
	15.735000	-0.416107
	15.740000	-0.511480
	15.745000	-0.626585
	15.750000	-0.527923
	15.755000	-0.416107
	15.760000	-0.514768
	15.765000	-0.629874
	15.770000	-0.531212
	15.775000	-0.416107
	15.780000	-0.524635
	15.785000	-0.633162
	15.790000	-0.531212
	15.795000	-0.419395
	15.800000	-0.524635
	15.805000	-0.636451
	15.810000	-0.531212
	15.815000	-0.422684
	15.820000	-0.527923
	15.825000	-0.636451
	15.830000	-0.527923
	15.835000	-0.422684
	15.840000	-0.524635
	15.845000	-0.633162
	15.850000	-0.534501
	15.855000	-0.419395
	15.860000	-0.524635
	15.865000	-0.626585
	15.870000	-0.531212
	15.875000	-0.416107
	15.880000	-0.514768
	15.885000	-0.629874
	15.890000	-0.521346
	15.895000	-0.409529
	15.900000	-0.511480
	15.905000	-0.620008
	15.910000	-0.514768
	15.915000	-0.399663
	15.920000	-0.518057
	15.925000	-0.620008
	15.930000	-0.511480
	15.935000	-0.412818
	15.940000	-0.514768
	15.945000	-0.623296
	15.950000	-0.518057
	15.955000	-0.416107
	15.960000	-0.521346
	15.965000	-0.629874
	15.970000	-0.524635
	15.975000	-0.416107
	15.980000	-0.521346
	15.985000	-0.636451
	15.990000	-0.524635
	15.995000	-0.419395
	16.000000	-0.524635
	16.005000	-0.633162
	16.010000	-0.521346
	16.015000	-0.422684
	16.020000	-0.524635
	16.025000	-0.633162
	16.030000	-0.524635
	16.035000	-0.422684
	16.040000	-0.527923
	16.045000	-0.636451
	16.050000	-0.524635
	16.055000	-0.422684
	16.060000	-0.534501
	16.065000	-0.639740
	16.070000	-0.531212
	16.075000	-0.425973
	16.080000	-0.534501
	16.085000	-0.636451
	16.090000	-0.531212
	16.095000	-0.422684
	16.100000	-0.531212
	16.105000	-0.636451
	16.110000	-0.531212
	16.115000	-0.425973
	16.120000	-0.534501
	16.125000	-0.639740
	16.130000	-0.531212
	16.135000	-0.425973
	16.140000	-0.537790
	16.145000	-0.639740
	16.150000	-0.527923
	16.155000	-0.422684
	16.160000	-0.537790
	16.165000	-0.636451
	16.170000	-0.531212
	16.175000	-0.429262
	16.180000	-0.537790
	16.185000	-0.639740
	16.190000	-0.531212
	16.195000	-0.425973
	16.200000	-0.537790
	16.205000	-0.639740
	16.210000	-0.531212
	16.215000	-0.425973
	16.220000	-0.544367
	16.225000	-0.639740
	16.230000	-0.534501
	16.235000	-0.429262
	16.240000	-0.544367
	16.245000	-0.646317
	16.250000	-0.534501
	16.255000	-0.435839
	16.260000	-0.547656
	16.265000	-0.643029
	16.270000	-0.531212
	16.275000	-0.435839
	16.280000	-0.550944
	16.285000	-0.646317
	16.290000	-0.534501
	16.295000	-0.435839
	16.300000	-0.550944
	16.305000	-0.652895
	16.310000	-0.537790
	16.315000	-0.442417
	16.320000	-0.550944
	16.325000	-0.652895
	16.330000	-0.537790
	16.335000	-0.439128
	16.340000	-0.547656
	16.345000	-0.652895
	16.350000	-0.537790
	16.355000	-0.439128
	16.360000	-0.554233
	16.365000	-0.656184
	16.370000	-0.541078
	16.375000	-0.435839
	16.380000	-0.550944
	16.385000	-0.652895
	16.390000	-0.537790
	16.395000	-0.435839
	16.400000	-0.554233
	16.405000	-0.646317
	16.410000	-0.531212
	16.415000	-0.432550
	16.420000	-0.557522
	16.425000	-0.649606
	16.430000	-0.534501
	16.435000	-0.442417
	16.440000	-0.554233
	16.445000	-0.652895
	16.450000	-0.537790
	16.455000	-0.435839
	16.460000	-0.557522
	16.465000	-0.649606
	16.470000	-0.534501
	16.475000	-0.442417
	16.480000	-0.560811
	16.485000	-0.649606
	16.490000	-0.534501
	16.495000	-0.442417
	16.500000	-0.550944
	16.505000	-0.652895
	16.510000	-0.534501
	16.515000	-0.439128
	16.520000	-0.554233
	16.525000	-0.652895
	16.530000	-0.534501
	16.535000	-0.442417
	16.540000	-0.557522
	16.545000	-0.652895
	16.550000	-0.531212
	16.555000	-0.439128
	16.560000	-0.554233
	16.565000	-0.652895
	16.570000	-0.531212
	16.575000	-0.435839
	16.580000	-0.554233
	16.585000	-0.649606
	16.590000	-0.527923
	16.595000	-0.439128
	16.600000	-0.554233
	16.605000	-0.646317
	16.610000	-0.521346
	16.615000	-0.435839
	16.620000	-0.550944
	16.625000	-0.643029
	16.630000	-0.524635
	16.635000	-0.435839
	16.640000	-0.554233
	16.645000	-0.643029
	16.650000	-0.524635
	16.655000	-0.435839
	16.660000	-0.550944
	16.665000	-0.636451
	16.670000	-0.521346
	16.675000	-0.435839
	16.680000	-0.550944
	16.685000	-0.639740
	16.690000	-0.518057
	16.695000	-0.429262
	16.700000	-0.557522
	16.705000	-0.639740
	16.710000	-0.524635
	16.715000	-0.432550
	16.720000	-0.557522
	16.725000	-0.646317
	16.730000	-0.524635
	16.735000	-0.435839
	16.740000	-0.557522
	16.745000	-0.646317
	16.750000	-0.524635
	16.755000	-0.435839
	16.760000	-0.564099
	16.765000	-0.643029
	16.770000	-0.524635
	16.775000	-0.439128
	16.780000	-0.560811
	16.785000	-0.646317
	16.790000	-0.524635
	16.795000	-0.442417
	16.800000	-0.564099
	16.805000	-0.649606
	16.810000	-0.527923
	16.815000	-0.442417
	16.820000	-0.564099
	16.825000	-0.649606
	16.830000	-0.521346
	16.835000	-0.435839
	16.840000	-0.560811
	16.845000	-0.646317
	16.850000	-0.514768
	16.855000	-0.435839
	16.860000	-0.560811
	16.865000	-0.636451
	16.870000	-0.514768
	16.875000	-0.432550
	16.880000	-0.557522
	16.885000	-0.636451
	16.890000	-0.514768
	16.895000	-0.435839
	16.900000	-0.557522
	16.905000	-0.639740
	16.910000	-0.514768
	16.915000	-0.429262
	16.920000	-0.554233
	16.925000	-0.636451
	16.930000	-0.504902
	16.935000	-0.422684
	16.940000	-0.547656
	16.945000	-0.626585
	16.950000	-0.491747
	16.955000	-0.402952
	16.960000	-0.531212
	16.965000	-0.610141
	16.970000	-0.481881
	16.975000	-0.396374
	16.980000	-0.521346
	16.985000	-0.596987
	16.990000	-0.462149
	16.995000	-0.383220
	17.000000	-0.508191
	17.005000	-0.580543
	17.010000	-0.455571
	17.015000	-0.376642
	17.020000	-0.504902
	17.025000	-0.580543
	17.030000	-0.452283
	17.035000	-0.373353
	17.040000	-0.498325
	17.045000	-0.583832
	17.050000	-0.458860
	17.055000	-0.379931
	17.060000	-0.511480
	17.065000	-0.593698
	17.070000	-0.465438
	17.075000	-0.389797
	17.080000	-0.518057
	17.085000	-0.596987
	17.090000	-0.475304
	17.095000	-0.396374
	17.100000	-0.527923
	17.105000	-0.610141
	17.110000	-0.481881
	17.115000	-0.409529
	17.120000	-0.544367
	17.125000	-0.620008
	17.130000	-0.495036
	17.135000	-0.412818
	17.140000	-0.550944
	17.145000	-0.633162
	17.150000	-0.501614
	17.155000	-0.425973
	17.160000	-0.557522
	17.165000	-0.636451
	17.170000	-0.504902
	17.175000	-0.432550
	17.180000	-0.564099
	17.185000	-0.643029
	17.190000	-0.511480
	17.195000	-0.435839
	17.200000	-0.567388
	17.205000	-0.646317
	17.210000	-0.508191
	17.215000	-0.432550
	17.220000	-0.567388
	17.225000	-0.643029
	17.230000	-0.511480
	17.235000	-0.435839
	17.240000	-0.567388
	17.245000	-0.639740
	17.250000	-0.501614
	17.255000	-0.432550
	17.260000	-0.567388
	17.265000	-0.643029
	17.270000	-0.504902
	17.275000	-0.425973
	17.280000	-0.560811
	17.285000	-0.633162
	17.290000	-0.501614
	17.295000	-0.422684
	17.300000	-0.560811
	17.305000	-0.626585
	17.310000	-0.495036
	17.315000	-0.419395
	17.320000	-0.557522
	17.325000	-0.626585
	17.330000	-0.488459
	17.335000	-0.422684
	17.340000	-0.557522
	17.345000	-0.629874
	17.350000	-0.495036
	17.355000	-0.419395
	17.360000	-0.557522
	17.365000	-0.629874
	17.370000	-0.495036
	17.375000	-0.425973
	17.380000	-0.564099
	17.385000	-0.636451
	17.390000	-0.504902
	17.395000	-0.439128
	17.400000	-0.573965
	17.405000	-0.649606
	17.410000	-0.511480
	17.415000	-0.445705
	17.420000	-0.583832
	17.425000	-0.656184
	17.430000	-0.521346
	17.435000	-0.458860
	17.440000	-0.593698
	17.445000	-0.662761
	17.450000	-0.534501
	17.455000	-0.462149
	17.460000	-0.600275
	17.465000	-0.669338
	17.470000	-0.537790
	17.475000	-0.472015
	17.480000	-0.603564
	17.485000	-0.669338
	17.490000	-0.541078
	17.495000	-0.472015
	17.500000	-0.603564
	17.505000	-0.666050
	17.510000	-0.534501
	17.515000	-0.468726
	17.520000	-0.596987
	17.525000	-0.659472
	17.530000	-0.527923
	17.535000	-0.455571
	17.540000	-0.583832
	17.545000	-0.649606
	17.550000	-0.524635
	17.555000	-0.465438
	17.560000	-0.600275
	17.565000	-0.672627
	17.570000	-0.564099
	17.575000	-0.514768
	17.580000	-0.652895
	17.585000	-0.728535
	17.590000	-0.620008
	17.595000	-0.567388
	17.600000	-0.712092
	17.605000	-0.784444
	17.610000	-0.675916
	17.615000	-0.629874
	17.620000	-0.774578
	17.625000	-0.866662
	17.630000	-0.777866
	17.635000	-0.731824
	17.640000	-0.863373
	17.645000	-0.932436
	17.650000	-0.820620
	17.655000	-0.777866
	17.660000	-0.902838
	17.665000	-0.965323
	17.670000	-0.840352
	17.675000	-0.787732
	17.680000	-0.909415
	17.685000	-0.968612
	17.690000	-0.850218
	17.695000	-0.794310
	17.700000	-0.922570
	17.705000	-0.994922
	17.710000	-0.886394
	17.715000	-0.833775
	17.720000	-0.955457
	17.725000	-1.024520
	17.730000	-0.922570
	17.735000	-0.866662
	17.740000	-0.975190
	17.745000	-1.027809
	17.750000	-0.922570
	17.755000	-0.869951
	17.760000	-0.988345
	17.765000	-1.050830
	17.770000	-0.948880
	17.775000	-0.896260
	17.780000	-1.008077
	17.785000	-1.044253
	17.790000	-0.929148
	17.795000	-0.863373
	17.800000	-0.962035
	17.805000	-0.998211
	17.810000	-0.876528
	17.815000	-0.800887
	17.820000	-0.892972
	17.825000	-0.929148
	17.830000	-0.797599
	17.835000	-0.721958
	17.840000	-0.810754
	17.845000	-0.846929
	17.850000	-0.718669
	17.855000	-0.649606
	17.860000	-0.741690
	17.865000	-0.777866
	17.870000	-0.649606
	17.875000	-0.580543
	17.880000	-0.669338
	17.885000	-0.702226
	17.890000	-0.573965
	17.895000	-0.498325
	17.900000	-0.587120
	17.905000	-0.616719
	17.910000	-0.485170
	17.915000	-0.419395
	17.920000	-0.514768
	17.925000	-0.541078
	17.930000	-0.402952
	17.935000	-0.340466
	17.940000	-0.435839
	17.945000	-0.468726
	17.950000	-0.330600
	17.955000	-0.251671
	17.960000	-0.333889
	17.965000	-0.340466
	17.970000	-0.195762
	17.975000	-0.149720
	17.980000	-0.261537
	17.985000	-0.301001
	17.990000	-0.189185
	17.995000	-0.143143
	18.000000	-0.271403
	18.005000	-0.337177
	18.010000	-0.235227
	18.015000	-0.202340
	18.020000	-0.356910
	18.025000	-0.435839
	18.030000	-0.333889
	18.035000	-0.310868
	18.040000	-0.448994
	18.045000	-0.511480
	18.050000	-0.396374
	18.055000	-0.343755
	18.060000	-0.478592
	18.065000	-0.524635
	18.070000	-0.399663
	18.075000	-0.353621
	18.080000	-0.478592
	18.085000	-0.524635
	18.090000	-0.399663
	18.095000	-0.360198
	18.100000	-0.485170
	18.105000	-0.527923
	18.110000	-0.406241
	18.115000	-0.356910
	18.120000	-0.485170
	18.125000	-0.534501
	18.130000	-0.406241
	18.135000	-0.363487
	18.140000	-0.488459
	18.145000	-0.534501
	18.150000	-0.409529
	18.155000	-0.363487
	18.160000	-0.491747
	18.165000	-0.537790
	18.170000	-0.409529
	18.175000	-0.360198
	18.180000	-0.491747
	18.185000	-0.531212
	18.190000	-0.396374
	18.195000	-0.343755
	18.200000	-0.475304
	18.205000	-0.511480
	18.210000	-0.379931
	18.215000	-0.327311
	18.220000	-0.458860
	18.225000	-0.495036
	18.230000	-0.366776
	18.235000	-0.317445
	18.240000	-0.452283
	18.245000	-0.495036
	18.250000	-0.353621
	18.255000	-0.310868
	18.260000	-0.445705
	18.265000	-0.481881
	18.270000	-0.343755
	18.275000	-0.304290
	18.280000	-0.439128
	18.285000	-0.481881
	18.290000	-0.343755
	18.295000	-0.301001
	18.300000	-0.439128
	18.305000	-0.478592
	18.310000	-0.343755
	18.315000	-0.304290
	18.320000	-0.439128
	18.325000	-0.485170
	18.330000	-0.343755
	18.335000	-0.307579
	18.340000	-0.442417
	18.345000	-0.485170
	18.350000	-0.343755
	18.355000	-0.304290
	18.360000	-0.448994
	18.365000	-0.481881
	18.370000	-0.337177
	18.375000	-0.297713
	18.380000	-0.445705
	18.385000	-0.485170
	18.390000	-0.343755
	18.395000	-0.304290
	18.400000	-0.455571
	18.405000	-0.491747
	18.410000	-0.353621
	18.415000	-0.317445
	18.420000	-0.462149
	18.425000	-0.511480
	18.430000	-0.370065
	18.435000	-0.333889
	18.440000	-0.478592
	18.445000	-0.518057
	18.450000	-0.379931
	18.455000	-0.343755
	18.460000	-0.495036
	18.465000	-0.534501
	18.470000	-0.389797
	18.475000	-0.360198
	18.480000	-0.501614
	18.485000	-0.541078
	18.490000	-0.399663
	18.495000	-0.366776
	18.500000	-0.514768
	18.505000	-0.554233
	18.510000	-0.406241
	18.515000	-0.373353
	18.520000	-0.521346
	18.525000	-0.557522
	18.530000	-0.416107
	18.535000	-0.379931
	18.540000	-0.524635
	18.545000	-0.560811
	18.550000	-0.416107
	18.555000	-0.389797
	18.560000	-0.531212
	18.565000	-0.567388
	18.570000	-0.429262
	18.575000	-0.396374
	18.580000	-0.544367
	18.585000	-0.573965
	18.590000	-0.425973
	18.595000	-0.396374
	18.600000	-0.550944
	18.605000	-0.580543
	18.610000	-0.435839
	18.615000	-0.402952
	18.620000	-0.557522
	18.625000	-0.590409
	18.630000	-0.442417
	18.635000	-0.409529
	18.640000	-0.564099
	18.645000	-0.593698
	18.650000	-0.452283
	18.655000	-0.422684
	18.660000	-0.564099
	18.665000	-0.593698
	18.670000	-0.448994
	18.675000	-0.419395
	18.680000	-0.570677
	18.685000	-0.593698
	18.690000	-0.448994
	18.695000	-0.419395
	18.700000	-0.567388
	18.705000	-0.593698
	18.710000	-0.448994
	18.715000	-0.416107
	18.720000	-0.567388
	18.725000	-0.593698
	18.730000	-0.445705
	18.735000	-0.419395
	18.740000	-0.567388
	18.745000	-0.593698
	18.750000	-0.445705
	18.755000	-0.422684
	18.760000	-0.564099
	18.765000	-0.593698
	18.770000	-0.448994
	18.775000	-0.419395
	18.780000	-0.567388
	18.785000	-0.590409
	18.790000	-0.445705
	18.795000	-0.422684
	18.800000	-0.567388
	18.805000	-0.593698
	18.810000	-0.445705
	18.815000	-0.419395
	18.820000	-0.567388
	18.825000	-0.593698
	18.830000	-0.442417
	18.835000	-0.419395
	18.840000	-0.567388
	18.845000	-0.590409
	18.850000	-0.442417
	18.855000	-0.419395
	18.860000	-0.567388
	18.865000	-0.593698
	18.870000	-0.445705
	18.875000	-0.416107
	18.880000	-0.570677
	18.885000	-0.593698
	18.890000	-0.442417
	18.895000	-0.419395
	18.900000	-0.570677
	18.905000	-0.593698
	18.910000	-0.445705
	18.915000	-0.425973
	18.920000	-0.570677
	18.925000	-0.596987
	18.930000	-0.445705
	18.935000	-0.425973
	18.940000	-0.573965
	18.945000	-0.593698
	18.950000	-0.442417
	18.955000	-0.425973
	18.960000	-0.577254
	18.965000	-0.593698
	18.970000	-0.448994
	18.975000	-0.422684
	18.980000	-0.573965
	18.985000	-0.593698
	18.990000	-0.445705
	18.995000	-0.422684
	19.000000	-0.580543
	19.005000	-0.600275
	19.010000	-0.452283
	19.015000	-0.425973
	19.020000	-0.577254
	19.025000	-0.596987
	19.030000	-0.445705
	19.035000	-0.429262
	19.040000	-0.580543
	19.045000	-0.596987
	19.050000	-0.445705
	19.055000	-0.432550
	19.060000	-0.580543
	19.065000	-0.600275
	19.070000	-0.448994
	19.075000	-0.429262
	19.080000	-0.580543
	19.085000	-0.596987
	19.090000	-0.448994
	19.095000	-0.439128
	19.100000	-0.583832
	19.105000	-0.600275
	19.110000	-0.448994
	19.115000	-0.435839
	19.120000	-0.590409
	19.125000	-0.600275
	19.130000	-0.448994
	19.135000	-0.435839
	19.140000	-0.587120
	19.145000	-0.603564
	19.150000	-0.445705
	19.155000	-0.435839
	19.160000	-0.587120
	19.165000	-0.600275
	19.170000	-0.448994
	19.175000	-0.435839
	19.180000	-0.577254
	19.185000	-0.593698
	19.190000	-0.445705
	19.195000	-0.432550
	19.200000	-0.577254
	19.205000	-0.593698
	19.210000	-0.445705
	19.215000	-0.429262
	19.220000	-0.577254
	19.225000	-0.590409
	19.230000	-0.442417
	19.235000	-0.429262
	19.240000	-0.577254
	19.245000	-0.593698
	19.250000	-0.442417
	19.255000	-0.429262
	19.260000	-0.583832
	19.265000	-0.587120
	19.270000	-0.442417
	19.275000	-0.429262
	19.280000	-0.580543
	19.285000	-0.590409
	19.290000	-0.439128
	19.295000	-0.422684
	19.300000	-0.580543
	19.305000	-0.583832
	19.310000	-0.432550
	19.315000	-0.422684
	19.320000	-0.573965
	19.325000	-0.583832
	19.330000	-0.432550
	19.335000	-0.429262
	19.340000	-0.570677
	19.345000	-0.580543
	19.350000	-0.429262
	19.355000	-0.425973
	19.360000	-0.573965
	19.365000	-0.583832
	19.370000	-0.432550
	19.375000	-0.429262
	19.380000	-0.573965
	19.385000	-0.587120
	19.390000	-0.432550
	19.395000	-0.429262
	19.400000	-0.580543
	19.405000	-0.583832
	19.410000	-0.432550
	19.415000	-0.435839
	19.420000	-0.580543
	19.425000	-0.587120
	19.430000	-0.435839
	19.435000	-0.429262
	19.440000	-0.580543
	19.445000	-0.583832
	19.450000	-0.435839
	19.455000	-0.429262
	19.460000	-0.580543
	19.465000	-0.587120
	19.470000	-0.435839
	19.475000	-0.429262
	19.480000	-0.583832
	19.485000	-0.587120
	19.490000	-0.435839
	19.495000	-0.429262
	19.500000	-0.580543
	19.505000	-0.587120
	19.510000	-0.429262
	19.515000	-0.432550
	19.520000	-0.583832
	19.525000	-0.580543
	19.530000	-0.432550
	19.535000	-0.425973
	19.540000	-0.583832
	19.545000	-0.583832
	19.550000	-0.435839
	19.555000	-0.439128
	19.560000	-0.583832
	19.565000	-0.580543
	19.570000	-0.435839
	19.575000	-0.435839
	19.580000	-0.587120
	19.585000	-0.587120
	19.590000	-0.435839
	19.595000	-0.435839
	19.600000	-0.587120
	19.605000	-0.590409
	19.610000	-0.442417
	19.615000	-0.442417
	19.620000	-0.590409
	19.625000	-0.596987
	19.630000	-0.442417
	19.635000	-0.442417
	19.640000	-0.593698
	19.645000	-0.590409
	19.650000	-0.442417
	19.655000	-0.445705
	19.660000	-0.590409
	19.665000	-0.590409
	19.670000	-0.442417
	19.675000	-0.442417
	19.680000	-0.590409
	19.685000	-0.593698
	19.690000	-0.439128
	19.695000	-0.442417
	19.700000	-0.590409
	19.705000	-0.583832
	19.710000	-0.432550
	19.715000	-0.432550
	19.720000	-0.583832
	19.725000	-0.580543
	19.730000	-0.432550
	19.735000	-0.432550
	19.740000	-0.593698
	19.745000	-0.580543
	19.750000	-0.425973
	19.755000	-0.429262
	19.760000	-0.583832
	19.765000	-0.577254
	19.770000	-0.422684
	19.775000	-0.429262
	19.780000	-0.580543
	19.785000	-0.573965
	19.790000	-0.416107
	19.795000	-0.432550
	19.800000	-0.570677
	19.805000	-0.567388
	19.810000	-0.409529
	19.815000	-0.412818
	19.820000	-0.560811
	19.825000	-0.550944
	19.830000	-0.399663
	19.835000	-0.406241
	19.840000	-0.557522
	19.845000	-0.547656
	19.850000	-0.396374
	19.855000	-0.402952
	19.860000	-0.554233
	19.865000	-0.547656
	19.870000	-0.389797
	19.875000	-0.399663
	19.880000	-0.557522
	19.885000	-0.541078
	19.890000	-0.389797
	19.895000	-0.393086
	19.900000	-0.547656
	19.905000	-0.534501
	19.910000	-0.379931
	19.915000	-0.389797
	19.920000	-0.544367
	19.925000	-0.537790
	19.930000	-0.389797
	19.935000	-0.409529
	19.940000	-0.564099
	19.945000	-0.554233
	19.950000	-0.409529
	19.955000	-0.425973
	19.960000	-0.583832
	19.965000	-0.573965
	19.970000	-0.422684
	19.975000	-0.439128
	19.980000	-0.593698
	19.985000	-0.580543
	19.990000	-0.432550
	19.995000	-0.448994
	20.000000	-0.600275
	20.005000	-0.583832
	20.010000	-0.445705
	20.015000	-0.458860
	20.020000	-0.610141
	20.025000	-0.600275
	20.030000	-0.448994
	20.035000	-0.465438
	20.040000	-0.620008
	20.045000	-0.606853
	20.050000	-0.458860
	20.055000	-0.475304
	20.060000	-0.626585
	20.065000	-0.610141
	20.070000	-0.458860
	20.075000	-0.478592
	20.080000	-0.626585
	20.085000	-0.610141
	20.090000	-0.458860
	20.095000	-0.475304
	20.100000	-0.629874
	20.105000	-0.616719
	20.110000	-0.475304
	20.115000	-0.491747
	20.120000	-0.649606
	20.125000	-0.636451
	20.130000	-0.501614
	20.135000	-0.524635
	20.140000	-0.679205
	20.145000	-0.659472
	20.150000	-0.521346
	20.155000	-0.531212
	20.160000	-0.675916
	20.165000	-0.666050
	20.170000	-0.518057
	20.175000	-0.534501
	20.180000	-0.662761
	20.185000	-0.646317
	20.190000	-0.504902
	20.195000	-0.518057
	20.200000	-0.656184
	20.205000	-0.643029
	20.210000	-0.521346
	20.215000	-0.544367
	20.220000	-0.685782
	20.225000	-0.666050
	20.230000	-0.521346
	20.235000	-0.534501
	20.240000	-0.662761
	20.245000	-0.646317
	20.250000	-0.501614
	20.255000	-0.508191
	20.260000	-0.639740
	20.265000	-0.623296
	20.270000	-0.485170
	20.275000	-0.511480
	20.280000	-0.656184
	20.285000	-0.646317
	20.290000	-0.531212
	20.295000	-0.564099
	20.300000	-0.712092
	20.305000	-0.715381
	20.310000	-0.606853
	20.315000	-0.633162
	20.320000	-0.781155
	20.325000	-0.777866
	20.330000	-0.662761
	20.335000	-0.695648
	20.340000	-0.840352
	20.345000	-0.823908
	20.350000	-0.702226
	20.355000	-0.718669
	20.360000	-0.843641
	20.365000	-0.830486
	20.370000	-0.712092
	20.375000	-0.735113
	20.380000	-0.866662
	20.385000	-0.863373
	20.390000	-0.754845
	20.395000	-0.777866
	20.400000	-0.912704
	20.405000	-0.909415
	20.410000	-0.787732
	20.415000	-0.800887
	20.420000	-0.915993
	20.425000	-0.899549
	20.430000	-0.768000
	20.435000	-0.777866
	20.440000	-0.892972
	20.445000	-0.869951
	20.450000	-0.741690
	20.455000	-0.744979
	20.460000	-0.853507
	20.465000	-0.827197
	20.470000	-0.698937
	20.475000	-0.702226
	20.480000	-0.804176
	20.485000	-0.781155
	20.490000	-0.643029
	20.495000	-0.646317
	20.500000	-0.748268
	20.505000	-0.715381
	20.510000	-0.587120
	20.515000	-0.596987
	20.520000	-0.698937
	20.525000	-0.669338
	20.530000	-0.544367
	20.535000	-0.544367
	20.540000	-0.643029
	20.545000	-0.626585
	20.550000	-0.498325
	20.555000	-0.498325
	20.560000	-0.613430
	20.565000	-0.590409
	20.570000	-0.465438
	20.575000	-0.475304
	20.580000	-0.587120
	20.585000	-0.560811
	20.590000	-0.439128
	20.595000	-0.448994
	20.600000	-0.564099
	20.605000	-0.534501
	20.610000	-0.406241
	20.615000	-0.409529
	20.620000	-0.514768
	20.625000	-0.475304
	20.630000	-0.320734
	20.635000	-0.304290
	20.640000	-0.376642
	20.645000	-0.307579
	20.650000	-0.169453
	20.655000	-0.189185
	20.660000	-0.307579
	20.665000	-0.284558
	20.670000	-0.169453
	20.675000	-0.202340
	20.680000	-0.337177
	20.685000	-0.317445
	20.690000	-0.212206
	20.695000	-0.271403
	20.700000	-0.419395
	20.705000	-0.419395
	20.710000	-0.314156
	20.715000	-0.350332
	20.720000	-0.485170
	20.725000	-0.465438
	20.730000	-0.353621
	20.735000	-0.383220
	20.740000	-0.514768
	20.745000	-0.488459
	20.750000	-0.363487
	20.755000	-0.389797
	20.760000	-0.521346
	20.765000	-0.488459
	20.770000	-0.363487
	20.775000	-0.402952
	20.780000	-0.537790
	20.785000	-0.504902
	20.790000	-0.373353
	20.795000	-0.406241
	20.800000	-0.534501
	20.805000	-0.504902
	20.810000	-0.373353
	20.815000	-0.402952
	20.820000	-0.534501
	20.825000	-0.498325
	20.830000	-0.370065
	20.835000	-0.402952
	20.840000	-0.531212
	20.845000	-0.498325
	20.850000	-0.373353
	20.855000	-0.406241
	20.860000	-0.541078
	20.865000	-0.508191
	20.870000	-0.373353
	20.875000	-0.419395
	20.880000	-0.550944
	20.885000	-0.518057
	20.890000	-0.379931
	20.895000	-0.422684
	20.900000	-0.554233
	20.905000	-0.514768
	20.910000	-0.383220
	20.915000	-0.425973
	20.920000	-0.557522
	20.925000	-0.518057
	20.930000	-0.386508
	20.935000	-0.422684
	20.940000	-0.564099
	20.945000	-0.521346
	20.950000	-0.389797
	20.955000	-0.429262
	20.960000	-0.567388
	20.965000	-0.521346
	20.970000	-0.396374
	20.975000	-0.432550
	20.980000	-0.564099
	20.985000	-0.524635
	20.990000	-0.389797
	20.995000	-0.432550
	21.000000	-0.567388
	21.005000	-0.521346
	21.010000	-0.389797
	21.015000	-0.432550
	21.020000	-0.567388
	21.025000	-0.524635
	21.030000	-0.386508
	21.035000	-0.429262
	21.040000	-0.570677
	21.045000	-0.521346
	21.050000	-0.389797
	21.055000	-0.435839
	21.060000	-0.573965
	21.065000	-0.531212
	21.070000	-0.389797
	21.075000	-0.439128
	21.080000	-0.573965
	21.085000	-0.527923
	21.090000	-0.393086
	21.095000	-0.439128
	21.100000	-0.577254
	21.105000	-0.534501
	21.110000	-0.389797
	21.115000	-0.445705
	21.120000	-0.570677
	21.125000	-0.531212
	21.130000	-0.393086
	21.135000	-0.442417
	21.140000	-0.583832
	21.145000	-0.531212
	21.150000	-0.399663
	21.155000	-0.452283
	21.160000	-0.587120
	21.165000	-0.544367
	21.170000	-0.402952
	21.175000	-0.455571
	21.180000	-0.593698
	21.185000	-0.541078
	21.190000	-0.409529
	21.195000	-0.458860
	21.200000	-0.596987
	21.205000	-0.550944
	21.210000	-0.412818
	21.215000	-0.462149
	21.220000	-0.596987
	21.225000	-0.550944
	21.230000	-0.412818
	21.235000	-0.462149
	21.240000	-0.600275
	21.245000	-0.554233
	21.250000	-0.412818
	21.255000	-0.468726
	21.260000	-0.603564
	21.265000	-0.550944
	21.270000	-0.422684
	21.275000	-0.472015
	21.280000	-0.606853
	21.285000	-0.557522
	21.290000	-0.419395
	21.295000	-0.472015
	21.300000	-0.606853
	21.305000	-0.554233
	21.310000	-0.412818
	21.315000	-0.465438
	21.320000	-0.603564
	21.325000	-0.550944
	21.330000	-0.412818
	21.335000	-0.465438
	21.340000	-0.603564
	21.345000	-0.544367
	21.350000	-0.409529
	21.355000	-0.462149
	21.360000	-0.593698
	21.365000	-0.537790
	21.370000	-0.402952
	21.375000	-0.462149
	21.380000	-0.593698
	21.385000	-0.537790
	21.390000	-0.393086
	21.395000	-0.455571
	21.400000	-0.587120
	21.405000	-0.534501
	21.410000	-0.393086
	21.415000	-0.452283
	21.420000	-0.590409
	21.425000	-0.524635
	21.430000	-0.393086
	21.435000	-0.445705
	21.440000	-0.583832
	21.445000	-0.524635
	21.450000	-0.386508
	21.455000	-0.448994
	21.460000	-0.583832
	21.465000	-0.527923
	21.470000	-0.386508
	21.475000	-0.452283
	21.480000	-0.587120
	21.485000	-0.527923
	21.490000	-0.393086
	21.495000	-0.452283
	21.500000	-0.587120
	21.505000	-0.524635
	21.510000	-0.393086
	21.515000	-0.452283
	21.520000	-0.587120
	21.525000	-0.521346
	21.530000	-0.386508
	21.535000	-0.452283
	21.540000	-0.583832
	21.545000	-0.524635
	21.550000	-0.386508
	21.555000	-0.448994
	21.560000	-0.587120
	21.565000	-0.524635
	21.570000	-0.383220
	21.575000	-0.445705
	21.580000	-0.587120
	21.585000	-0.524635
	21.590000	-0.386508
	21.595000	-0.452283
	21.600000	-0.583832
	21.605000	-0.514768
	21.610000	-0.383220
	21.615000	-0.448994
	21.620000	-0.583832
	21.625000	-0.518057
	21.630000	-0.383220
	21.635000	-0.445705
	21.640000	-0.580543
	21.645000	-0.518057
	21.650000	-0.379931
	21.655000	-0.445705
	21.660000	-0.580543
	21.665000	-0.511480
	21.670000	-0.383220
	21.675000	-0.445705
	21.680000	-0.570677
	21.685000	-0.508191
	21.690000	-0.373353
	21.695000	-0.445705
	21.700000	-0.577254
	21.705000	-0.504902
	21.710000	-0.376642
	21.715000	-0.442417
	21.720000	-0.567388
	21.725000	-0.504902
	21.730000	-0.370065
	21.735000	-0.435839
	21.740000	-0.567388
	21.745000	-0.498325
	21.750000	-0.366776
	21.755000	-0.435839
	21.760000	-0.567388
	21.765000	-0.498325
	21.770000	-0.363487
	21.775000	-0.432550
	21.780000	-0.564099
	21.785000	-0.495036
	21.790000	-0.363487
	21.795000	-0.432550
	21.800000	-0.564099
	21.805000	-0.495036
	21.810000	-0.360198
	21.815000	-0.429262
	21.820000	-0.560811
	21.825000	-0.488459
	21.830000	-0.360198
	21.835000	-0.425973
	21.840000	-0.560811
	21.845000	-0.491747
	21.850000	-0.356910
	21.855000	-0.429262
	21.860000	-0.560811
	21.865000	-0.491747
	21.870000	-0.360198
	21.875000	-0.432550
	21.880000	-0.564099
	21.885000	-0.488459
	21.890000	-0.360198
	21.895000	-0.435839
	21.900000	-0.567388
	21.905000	-0.488459
	21.910000	-0.360198
	21.915000	-0.435839
	21.920000	-0.567388
	21.925000	-0.488459
	21.930000	-0.363487
	21.935000	-0.439128
	21.940000	-0.570677
	21.945000	-0.495036
	21.950000	-0.363487
	21.955000	-0.442417
	21.960000	-0.567388
	21.965000	-0.498325
	21.970000	-0.363487
	21.975000	-0.439128
	21.980000	-0.564099
	21.985000	-0.485170
	21.990000	-0.356910
	21.995000	-0.439128
	22.000000	-0.567388
	22.005000	-0.485170
	22.010000	-0.356910
	22.015000	-0.432550
	22.020000	-0.567388
	22.025000	-0.488459
	22.030000	-0.360198
	22.035000	-0.435839
	22.040000	-0.567388
	22.045000	-0.488459
	22.050000	-0.356910
	22.055000	-0.439128
	22.060000	-0.564099
	22.065000	-0.488459
	22.070000	-0.356910
	22.075000	-0.435839
	22.080000	-0.560811
	22.085000	-0.481881
	22.090000	-0.353621
	22.095000	-0.429262
	22.100000	-0.550944
	22.105000	-0.472015
	22.110000	-0.347044
	22.115000	-0.419395
	22.120000	-0.547656
	22.125000	-0.465438
	22.130000	-0.333889
	22.135000	-0.416107
	22.140000	-0.541078
	22.145000	-0.458860
	22.150000	-0.337177
	22.155000	-0.416107
	22.160000	-0.544367
	22.165000	-0.458860
	22.170000	-0.324023
	22.175000	-0.406241
	22.180000	-0.534501
	22.185000	-0.448994
	22.190000	-0.317445
	22.195000	-0.409529
	22.200000	-0.531212
	22.205000	-0.448994
	22.210000	-0.324023
	22.215000	-0.402952
	22.220000	-0.527923
	22.225000	-0.452283
	22.230000	-0.320734
	22.235000	-0.406241
	22.240000	-0.534501
	22.245000	-0.452283
	22.250000	-0.324023
	22.255000	-0.412818
	22.260000	-0.534501
	22.265000	-0.448994
	22.270000	-0.324023
	22.275000	-0.406241
	22.280000	-0.534501
	22.285000	-0.448994
	22.290000	-0.320734
	22.295000	-0.409529
	22.300000	-0.537790
	22.305000	-0.448994
	22.310000	-0.324023
	22.315000	-0.409529
	22.320000	-0.537790
	22.325000	-0.452283
	22.330000	-0.324023
	22.335000	-0.412818
	22.340000	-0.541078
	22.345000	-0.452283
	22.350000	-0.327311
	22.355000	-0.412818
	22.360000	-0.544367
	22.365000	-0.448994
	22.370000	-0.327311
	22.375000	-0.409529
	22.380000	-0.537790
	22.385000	-0.448994
	22.390000	-0.320734
	22.395000	-0.409529
	22.400000	-0.534501
	22.405000	-0.439128
	22.410000	-0.317445
	22.415000	-0.409529
	22.420000	-0.527923
	22.425000	-0.439128
	22.430000	-0.314156
	22.435000	-0.402952
	22.440000	-0.527923
	22.445000	-0.432550
	22.450000	-0.304290
	22.455000	-0.396374
	22.460000	-0.514768
	22.465000	-0.422684
	22.470000	-0.294424
	22.475000	-0.389797
	22.480000	-0.508191
	22.485000	-0.419395
	22.490000	-0.297713
	22.495000	-0.393086
	22.500000	-0.514768
	22.505000	-0.422684
	22.510000	-0.301001
	22.515000	-0.396374
	22.520000	-0.521346
	22.525000	-0.432550
	22.530000	-0.314156
	22.535000	-0.416107
	22.540000	-0.534501
	22.545000	-0.448994
	22.550000	-0.330600
	22.555000	-0.429262
	22.560000	-0.550944
	22.565000	-0.465438
	22.570000	-0.343755
	22.575000	-0.439128
	22.580000	-0.560811
	22.585000	-0.472015
	22.590000	-0.350332
	22.595000	-0.445705
	22.600000	-0.567388
	22.605000	-0.478592
	22.610000	-0.356910
	22.615000	-0.448994
	22.620000	-0.567388
	22.625000	-0.472015
	22.630000	-0.360198
	22.635000	-0.448994
	22.640000	-0.567388
	22.645000	-0.478592
	22.650000	-0.366776
	22.655000	-0.455571
	22.660000	-0.567388
	22.665000	-0.475304
	22.670000	-0.363487
	22.675000	-0.452283
	22.680000	-0.564099
	22.685000	-0.475304
	22.690000	-0.363487
	22.695000	-0.452283
	22.700000	-0.564099
	22.705000	-0.485170
	22.710000	-0.370065
	22.715000	-0.462149
	22.720000	-0.570677
	22.725000	-0.488459
	22.730000	-0.379931
	22.735000	-0.475304
	22.740000	-0.590409
	22.745000	-0.508191
	22.750000	-0.416107
	22.755000	-0.508191
	22.760000	-0.620008
	22.765000	-0.537790
	22.770000	-0.442417
	22.775000	-0.534501
	22.780000	-0.639740
	22.785000	-0.560811
	22.790000	-0.468726
	22.795000	-0.560811
	22.800000	-0.672627
	22.805000	-0.593698
	22.810000	-0.488459
	22.815000	-0.570677
	22.820000	-0.672627
	22.825000	-0.593698
	22.830000	-0.488459
	22.835000	-0.567388
	22.840000	-0.662761
	22.845000	-0.577254
	22.850000	-0.478592
	22.855000	-0.564099
	22.860000	-0.672627
	22.865000	-0.600275
	22.870000	-0.498325
	22.875000	-0.587120
	22.880000	-0.692359
	22.885000	-0.620008
	22.890000	-0.511480
	22.895000	-0.593698
	22.900000	-0.689071
	22.905000	-0.603564
	22.910000	-0.508191
	22.915000	-0.590409
	22.920000	-0.698937
	22.925000	-0.629874
	22.930000	-0.537790
	22.935000	-0.633162
	22.940000	-0.741690
	22.945000	-0.675916
	22.950000	-0.583832
	22.955000	-0.672627
	22.960000	-0.777866
	22.965000	-0.702226
	22.970000	-0.606853
	22.975000	-0.685782
	22.980000	-0.787732
	22.985000	-0.708803
	22.990000	-0.606853
	22.995000	-0.685782
	23.000000	-0.781155
	23.005000	-0.698937
	23.010000	-0.606853
	23.015000	-0.672627
	23.020000	-0.768000
	23.025000	-0.689071
	23.030000	-0.590409
	23.035000	-0.659472
	23.040000	-0.744979
	23.045000	-0.666050
	23.050000	-0.564099
	23.055000	-0.626585
	23.060000	-0.712092
	23.065000	-0.633162
	23.070000	-0.524635
	23.075000	-0.587120
	23.080000	-0.672627
	23.085000	-0.587120
	23.090000	-0.481881
	23.095000	-0.541078
	23.100000	-0.620008
	23.105000	-0.527923
	23.110000	-0.419395
	23.115000	-0.472015
	23.120000	-0.541078
	23.125000	-0.442417
	23.130000	-0.333889
	23.135000	-0.393086
	23.140000	-0.468726
	23.145000	-0.376642
	23.150000	-0.277980
	23.155000	-0.340466
	23.160000	-0.429262
	23.165000	-0.347044
	23.170000	-0.258248
	23.175000	-0.337177
	23.180000	-0.425973
	23.185000	-0.343755
	23.190000	-0.251671
	23.195000	-0.327311
	23.200000	-0.409529
	23.205000	-0.310868
	23.210000	-0.195762
	23.215000	-0.254959
	23.220000	-0.310868
	23.225000	-0.189185
	23.230000	-0.080657
	23.235000	-0.159586
	23.240000	-0.228650
	23.245000	-0.143143
	23.250000	-0.057636
	23.255000	-0.146431
	23.260000	-0.241804
	23.265000	-0.172741
	23.270000	-0.103678
	23.275000	-0.218783
	23.280000	-0.340466
	23.285000	-0.268114
	23.290000	-0.199051
	23.295000	-0.307579
	23.300000	-0.419395
	23.305000	-0.330600
	23.310000	-0.245093
	23.315000	-0.343755
	23.320000	-0.432550
	23.325000	-0.350332
	23.330000	-0.251671
	23.335000	-0.347044
	23.340000	-0.439128
	23.345000	-0.340466
	23.350000	-0.251671
	23.355000	-0.343755
	23.360000	-0.439128
	23.365000	-0.347044
	23.370000	-0.251671
	23.375000	-0.350332
	23.380000	-0.448994
	23.385000	-0.350332
	23.390000	-0.261537
	23.395000	-0.353621
	23.400000	-0.445705
	23.405000	-0.347044
	23.410000	-0.258248
	23.415000	-0.363487
	23.420000	-0.445705
	23.425000	-0.347044
	23.430000	-0.254959
	23.435000	-0.353621
	23.440000	-0.445705
	23.445000	-0.343755
	23.450000	-0.254959
	23.455000	-0.347044
	23.460000	-0.442417
	23.465000	-0.337177
	23.470000	-0.245093
	23.475000	-0.353621
	23.480000	-0.439128
	23.485000	-0.340466
	23.490000	-0.248382
	23.495000	-0.350332
	23.500000	-0.442417
	23.505000	-0.337177
	23.510000	-0.245093
	23.515000	-0.350332
	23.520000	-0.442417
	23.525000	-0.337177
	23.530000	-0.245093
	23.535000	-0.350332
	23.540000	-0.442417
	23.545000	-0.337177
	23.550000	-0.245093
	23.555000	-0.350332
	23.560000	-0.452283
	23.565000	-0.343755
	23.570000	-0.245093
	23.575000	-0.356910
	23.580000	-0.448994
	23.585000	-0.337177
	23.590000	-0.251671
	23.595000	-0.363487
	23.600000	-0.462149
	23.605000	-0.356910
	23.610000	-0.258248
	23.615000	-0.370065
	23.620000	-0.462149
	23.625000	-0.360198
	23.630000	-0.268114
	23.635000	-0.379931
	23.640000	-0.478592
	23.645000	-0.366776
	23.650000	-0.274692
	23.655000	-0.389797
	23.660000	-0.481881
	23.665000	-0.376642
	23.670000	-0.277980
	23.675000	-0.393086
	23.680000	-0.488459
	23.685000	-0.370065
	23.690000	-0.277980
	23.695000	-0.393086
	23.700000	-0.488459
	23.705000	-0.370065
	23.710000	-0.281269
	23.715000	-0.399663
	23.720000	-0.491747
	23.725000	-0.383220
	23.730000	-0.294424
	23.735000	-0.412818
	23.740000	-0.501614
	23.745000	-0.389797
	23.750000	-0.301001
	23.755000	-0.419395
	23.760000	-0.511480
	23.765000	-0.393086
	23.770000	-0.301001
	23.775000	-0.422684
	23.780000	-0.511480
	23.785000	-0.396374
	23.790000	-0.307579
	23.795000	-0.425973
	23.800000	-0.518057
	23.805000	-0.402952
	23.810000	-0.314156
	23.815000	-0.432550
	23.820000	-0.524635
	23.825000	-0.412818
	23.830000	-0.317445
	23.835000	-0.442417
	23.840000	-0.527923
	23.845000	-0.412818
	23.850000	-0.330600
	23.855000	-0.445705
	23.860000	-0.537790
	23.865000	-0.416107
	23.870000	-0.327311
	23.875000	-0.452283
	23.880000	-0.537790
	23.885000	-0.409529
	23.890000	-0.324023
	23.895000	-0.445705
	23.900000	-0.534501
	23.905000	-0.416107
	23.910000	-0.320734
	23.915000	-0.442417
	23.920000	-0.527923
	23.925000	-0.412818
	23.930000	-0.324023
	23.935000	-0.445705
	23.940000	-0.531212
	23.945000	-0.412818
	23.950000	-0.327311
	23.955000	-0.445705
	23.960000	-0.537790
	23.965000	-0.416107
	23.970000	-0.327311
	23.975000	-0.448994
	23.980000	-0.541078
	23.985000	-0.416107
	23.990000	-0.330600
	23.995000	-0.448994
	24.000000	-0.534501
	24.005000	-0.409529
	24.010000	-0.320734
	24.015000	-0.442417
	24.020000	-0.531212
	24.025000	-0.402952
	24.030000	-0.317445
	24.035000	-0.445705
	24.040000	-0.521346
	24.045000	-0.399663
	24.050000	-0.317445
	24.055000	-0.439128
	24.060000	-0.524635
	24.065000	-0.402952
	24.070000	-0.314156
	24.075000	-0.445705
	24.080000	-0.521346
	24.085000	-0.402952
	24.090000	-0.317445
	24.095000	-0.439128
	24.100000	-0.527923
	24.105000	-0.396374
	24.110000	-0.317445
	24.115000	-0.439128
	24.120000	-0.521346
	24.125000	-0.396374
	24.130000	-0.317445
	24.135000	-0.439128
	24.140000	-0.524635
	24.145000	-0.399663
	24.150000	-0.317445
	24.155000	-0.445705
	24.160000	-0.527923
	24.165000	-0.406241
	24.170000	-0.317445
	24.175000	-0.452283
	24.180000	-0.527923
	24.185000	-0.406241
	24.190000	-0.324023
	24.195000	-0.452283
	24.200000	-0.534501
	24.205000	-0.409529
	24.210000	-0.324023
	24.215000	-0.452283
	24.220000	-0.531212
	24.225000	-0.402952
	24.230000	-0.324023
	24.235000	-0.452283
	24.240000	-0.527923
	24.245000	-0.399663
	24.250000	-0.320734
	24.255000	-0.445705
	24.260000	-0.527923
	24.265000	-0.396374
	24.270000	-0.314156
	24.275000	-0.442417
	24.280000	-0.521346
	24.285000	-0.389797
	24.290000	-0.310868
	24.295000	-0.439128
	24.300000	-0.518057
	24.305000	-0.393086
	24.310000	-0.310868
	24.315000	-0.439128
	24.320000	-0.514768
	24.325000	-0.386508
	24.330000	-0.307579
	24.335000	-0.435839
	24.340000	-0.504902
	24.345000	-0.379931
	24.350000	-0.304290
	24.355000	-0.429262
	24.360000	-0.508191
	24.365000	-0.376642
	24.370000	-0.297713
	24.375000	-0.425973
	24.380000	-0.498325
	24.385000	-0.366776
	24.390000	-0.291135
	24.395000	-0.419395
	24.400000	-0.491747
	24.405000	-0.366776
	24.410000	-0.287847
	24.415000	-0.422684
	24.420000	-0.495036
	24.425000	-0.363487
	24.430000	-0.284558
	24.435000	-0.422684
	24.440000	-0.488459
	24.445000	-0.363487
	24.450000	-0.287847
	24.455000	-0.422684
	24.460000	-0.488459
	24.465000	-0.356910
	24.470000	-0.287847
	24.475000	-0.416107
	24.480000	-0.491747
	24.485000	-0.360198
	24.490000	-0.287847
	24.495000	-0.425973
	24.500000	-0.495036
	24.505000	-0.363487
	24.510000	-0.294424
	24.515000	-0.425973
	24.520000	-0.501614
	24.525000	-0.373353
	24.530000	-0.291135
	24.535000	-0.425973
	24.540000	-0.501614
	24.545000	-0.366776
	24.550000	-0.301001
	24.555000	-0.435839
	24.560000	-0.504902
	24.565000	-0.370065
	24.570000	-0.304290
	24.575000	-0.442417
	24.580000	-0.508191
	24.585000	-0.379931
	24.590000	-0.307579
	24.595000	-0.445705
	24.600000	-0.511480
	24.605000	-0.379931
	24.610000	-0.310868
	24.615000	-0.442417
	24.620000	-0.511480
	24.625000	-0.379931
	24.630000	-0.314156
	24.635000	-0.445705
	24.640000	-0.508191
	24.645000	-0.373353
	24.650000	-0.314156
	24.655000	-0.448994
	24.660000	-0.518057
	24.665000	-0.383220
	24.670000	-0.310868
	24.675000	-0.455571
	24.680000	-0.514768
	24.685000	-0.379931
	24.690000	-0.314156
	24.695000	-0.452283
	24.700000	-0.518057
	24.705000	-0.379931
	24.710000	-0.314156
	24.715000	-0.455571
	24.720000	-0.511480
	24.725000	-0.383220
	24.730000	-0.310868
	24.735000	-0.452283
	24.740000	-0.514768
	24.745000	-0.376642
	24.750000	-0.314156
	24.755000	-0.448994
	24.760000	-0.508191
	24.765000	-0.376642
	24.770000	-0.310868
	24.775000	-0.445705
	24.780000	-0.511480
	24.785000	-0.373353
	24.790000	-0.304290
	24.795000	-0.448994
	24.800000	-0.508191
	24.805000	-0.370065
	24.810000	-0.310868
	24.815000	-0.445705
	24.820000	-0.508191
	24.825000	-0.366776
	24.830000	-0.304290
	24.835000	-0.445705
	24.840000	-0.514768
	24.845000	-0.376642
	24.850000	-0.320734
	24.855000	-0.458860
	24.860000	-0.527923
	24.865000	-0.389797
	24.870000	-0.330600
	24.875000	-0.468726
	24.880000	-0.531212
	24.885000	-0.389797
	24.890000	-0.333889
	24.895000	-0.468726
	24.900000	-0.534501
	24.905000	-0.393086
	24.910000	-0.337177
	24.915000	-0.478592
	24.920000	-0.527923
	24.925000	-0.396374
	24.930000	-0.337177
	24.935000	-0.475304
	24.940000	-0.537790
	24.945000	-0.396374
	24.950000	-0.337177
	24.955000	-0.481881
	24.960000	-0.531212
	24.965000	-0.389797
	24.970000	-0.337177
	24.975000	-0.478592
	24.980000	-0.531212
	24.985000	-0.396374
	24.990000	-0.333889
	24.995000	-0.475304
	25.000000	-0.534501
	25.005000	-0.393086
	25.010000	-0.337177
	25.015000	-0.478592
	25.020000	-0.534501
	25.025000	-0.396374
	25.030000	-0.340466
	25.035000	-0.481881
	25.040000	-0.541078
	25.045000	-0.402952
	25.050000	-0.350332
	25.055000	-0.491747
	25.060000	-0.541078
	25.065000	-0.402952
	25.070000	-0.343755
	25.075000	-0.488459
	25.080000	-0.537790
	25.085000	-0.399663
	25.090000	-0.333889
	25.095000	-0.478592
	25.100000	-0.527923
	25.105000	-0.386508
	25.110000	-0.330600
	25.115000	-0.465438
	25.120000	-0.518057
	25.125000	-0.373353
	25.130000	-0.320734
	25.135000	-0.458860
	25.140000	-0.504902
	25.145000	-0.366776
	25.150000	-0.314156
	25.155000	-0.445705
	25.160000	-0.491747
	25.165000	-0.356910
	25.170000	-0.297713
	25.175000	-0.439128
	25.180000	-0.488459
	25.185000	-0.350332
	25.190000	-0.297713
	25.195000	-0.435839
	25.200000	-0.488459
	25.205000	-0.343755
	25.210000	-0.294424
	25.215000	-0.435839
	25.220000	-0.485170
	25.225000	-0.350332
	25.230000	-0.304290
	25.235000	-0.445705
	25.240000	-0.498325
	25.245000	-0.360198
	25.250000	-0.314156
	25.255000	-0.448994
	25.260000	-0.501614
	25.265000	-0.370065
	25.270000	-0.320734
	25.275000	-0.458860
	25.280000	-0.498325
	25.285000	-0.363487
	25.290000	-0.314156
	25.295000	-0.442417
	25.300000	-0.488459
	25.305000	-0.343755
	25.310000	-0.297713
	25.315000	-0.425973
	25.320000	-0.462149
	25.325000	-0.330600
	25.330000	-0.281269
	25.335000	-0.406241
	25.340000	-0.455571
	25.345000	-0.320734
	25.350000	-0.277980
	25.355000	-0.406241
	25.360000	-0.452283
	25.365000	-0.317445
	25.370000	-0.274692
	25.375000	-0.409529
	25.380000	-0.458860
	25.385000	-0.324023
	25.390000	-0.284558
	25.395000	-0.412818
	25.400000	-0.462149
	25.405000	-0.337177
	25.410000	-0.291135
	25.415000	-0.429262
	25.420000	-0.472015
	25.425000	-0.340466
	25.430000	-0.304290
	25.435000	-0.435839
	25.440000	-0.481881
	25.445000	-0.353621
	25.450000	-0.317445
	25.455000	-0.455571
	25.460000	-0.495036
	25.465000	-0.363487
	25.470000	-0.330600
	25.475000	-0.468726
	25.480000	-0.514768
	25.485000	-0.386508
	25.490000	-0.360198
	25.495000	-0.491747
	25.500000	-0.537790
	25.505000	-0.416107
	25.510000	-0.386508
	25.515000	-0.527923
	25.520000	-0.570677
	25.525000	-0.462149
	25.530000	-0.435839
	25.535000	-0.570677
	25.540000	-0.616719
	25.545000	-0.498325
	25.550000	-0.455571
	25.555000	-0.587120
	25.560000	-0.633162
	25.565000	-0.521346
	25.570000	-0.498325
	25.575000	-0.639740
	25.580000	-0.695648
	25.585000	-0.593698
	25.590000	-0.577254
	25.595000	-0.718669
	25.600000	-0.771289
	25.605000	-0.666050
	25.610000	-0.629874
	25.615000	-0.758134
	25.620000	-0.777866
	25.625000	-0.652895
	25.630000	-0.610141
	25.635000	-0.725247
	25.640000	-0.768000
	25.645000	-0.656184
	25.650000	-0.620008
	25.655000	-0.735113
	25.660000	-0.771289
	25.665000	-0.649606
	25.670000	-0.616719
	25.675000	-0.725247
	25.680000	-0.754845
	25.685000	-0.633162
	25.690000	-0.600275
	25.695000	-0.712092
	25.700000	-0.738402
	25.705000	-0.616719
	25.710000	-0.573965
	25.715000	-0.685782
	25.720000	-0.715381
	25.725000	-0.587120
	25.730000	-0.550944
	25.735000	-0.656184
	25.740000	-0.682493
	25.745000	-0.547656
	25.750000	-0.518057
	25.755000	-0.620008
	25.760000	-0.636451
	25.765000	-0.511480
	25.770000	-0.472015
	25.775000	-0.567388
	25.780000	-0.587120
	25.785000	-0.465438
	25.790000	-0.422684
	25.795000	-0.527923
	25.800000	-0.550944
	25.805000	-0.429262
	25.810000	-0.386508
	25.815000	-0.498325
	25.820000	-0.518057
	25.825000	-0.396374
	25.830000	-0.353621
	25.835000	-0.455571
	25.840000	-0.478592
	25.845000	-0.353621
	25.850000	-0.310868
	25.855000	-0.419395
	25.860000	-0.432550
	25.865000	-0.314156
	25.870000	-0.271403
	25.875000	-0.373353
	25.880000	-0.399663
	25.885000	-0.268114
	25.890000	-0.238516
	25.895000	-0.363487
	25.900000	-0.389797
	25.905000	-0.274692
	25.910000	-0.238516
	25.915000	-0.356910
	25.920000	-0.383220
	25.925000	-0.258248
	25.930000	-0.225361
	25.935000	-0.337177
	25.940000	-0.363487
	25.945000	-0.238516
	25.950000	-0.212206
	25.955000	-0.327311
	25.960000	-0.353621
	25.965000	-0.222072
	25.970000	-0.199051
	25.975000	-0.327311
	25.980000	-0.353621
	25.985000	-0.238516
	25.990000	-0.222072
	25.995000	-0.353621
	26.000000	-0.383220
	26.005000	-0.274692
	26.010000	-0.251671
	26.015000	-0.386508
	26.020000	-0.422684
	26.025000	-0.301001
	26.030000	-0.281269
	26.035000	-0.419395
	26.040000	-0.442417
	26.045000	-0.317445
	26.050000	-0.297713
	26.055000	-0.425973
	26.060000	-0.452283
	26.065000	-0.327311
	26.070000	-0.310868
	26.075000	-0.439128
	26.080000	-0.462149
	26.085000	-0.337177
	26.090000	-0.320734
	26.095000	-0.445705
	26.100000	-0.465438
	26.105000	-0.337177
	26.110000	-0.317445
	26.115000	-0.452283
	26.120000	-0.475304
	26.125000	-0.343755
	26.130000	-0.330600
	26.135000	-0.468726
	26.140000	-0.488459
	26.145000	-0.356910
	26.150000	-0.343755
	26.155000	-0.472015
	26.160000	-0.498325
	26.165000	-0.356910
	26.170000	-0.343755
	26.175000	-0.475304
	26.180000	-0.498325
	26.185000	-0.360198
	26.190000	-0.350332
	26.195000	-0.481881
	26.200000	-0.508191
	26.205000	-0.363487
	26.210000	-0.343755
	26.215000	-0.488459
	26.220000	-0.501614
	26.225000	-0.363487
	26.230000	-0.343755
	26.235000	-0.478592
	26.240000	-0.501614
	26.245000	-0.363487
	26.250000	-0.340466
	26.255000	-0.485170
	26.260000	-0.501614
	26.265000	-0.363487
	26.270000	-0.350332
	26.275000	-0.488459
	26.280000	-0.508191
	26.285000	-0.366776
	26.290000	-0.350332
	26.295000	-0.498325
	26.300000	-0.508191
	26.305000	-0.366776
	26.310000	-0.356910
	26.315000	-0.501614
	26.320000	-0.511480
	26.325000	-0.373353
	26.330000	-0.356910
	26.335000	-0.504902
	26.340000	-0.514768
	26.345000	-0.366776
	26.350000	-0.360198
	26.355000	-0.501614
	26.360000	-0.514768
	26.365000	-0.370065
	26.370000	-0.353621
	26.375000	-0.501614
	26.380000	-0.508191
	26.385000	-0.366776
	26.390000	-0.353621
	26.395000	-0.498325
	26.400000	-0.511480
	26.405000	-0.360198
	26.410000	-0.356910
	26.415000	-0.495036
	26.420000	-0.508191
	26.425000	-0.360198
	26.430000	-0.350332
	26.435000	-0.501614
	26.440000	-0.508191
	26.445000	-0.363487
	26.450000	-0.353621
	26.455000	-0.504902
	26.460000	-0.511480
	26.465000	-0.363487
	26.470000	-0.350332
	26.475000	-0.501614
	26.480000	-0.508191
	26.485000	-0.360198
	26.490000	-0.360198
	26.495000	-0.498325
	26.500000	-0.508191
	26.505000	-0.363487
	26.510000	-0.356910
	26.515000	-0.504902
	26.520000	-0.511480
	26.525000	-0.366776
	26.530000	-0.356910
	26.535000	-0.504902
	26.540000	-0.508191
	26.545000	-0.356910
	26.550000	-0.353621
	26.555000	-0.504902
	26.560000	-0.504902
	26.565000	-0.356910
	26.570000	-0.350332
	26.575000	-0.495036
	26.580000	-0.501614
	26.585000	-0.343755
	26.590000	-0.340466
	26.595000	-0.488459
	26.600000	-0.488459
	26.605000	-0.337177
	26.610000	-0.330600
	26.615000	-0.485170
	26.620000	-0.485170
	26.625000	-0.330600
	26.630000	-0.330600
	26.635000	-0.481881
	26.640000	-0.478592
	26.645000	-0.330600
	26.650000	-0.327311
	26.655000	-0.475304
	26.660000	-0.478592
	26.665000	-0.324023
	26.670000	-0.327311
	26.675000	-0.468726
	26.680000	-0.475304
	26.685000	-0.324023
	26.690000	-0.324023
	26.695000	-0.475304
	26.700000	-0.478592
	26.705000	-0.330600
	26.710000	-0.330600
	26.715000	-0.475304
	26.720000	-0.481881
	26.725000	-0.327311
	26.730000	-0.330600
	26.735000	-0.481881
	26.740000	-0.478592
	26.745000	-0.324023
	26.750000	-0.324023
	26.755000	-0.475304
	26.760000	-0.475304
	26.765000	-0.324023
	26.770000	-0.327311
	26.775000	-0.472015
	26.780000	-0.478592
	26.785000	-0.320734
	26.790000	-0.320734
	26.795000	-0.475304
	26.800000	-0.468726
	26.805000	-0.320734
	26.810000	-0.320734
	26.815000	-0.468726
	26.820000	-0.458860
	26.825000	-0.317445
	26.830000	-0.314156
	26.835000	-0.465438
	26.840000	-0.455571
	26.845000	-0.310868
	26.850000	-0.317445
	26.855000	-0.462149
	26.860000	-0.458860
	26.865000	-0.307579
	26.870000	-0.314156
	26.875000	-0.462149
	26.880000	-0.458860
	26.885000	-0.304290
	26.890000	-0.307579
	26.895000	-0.458860
	26.900000	-0.458860
	26.905000	-0.301001
	26.910000	-0.314156
	26.915000	-0.462149
	26.920000	-0.455571
	26.925000	-0.304290
	26.930000	-0.310868
	26.935000	-0.462149
	26.940000	-0.448994
	26.945000	-0.301001
	26.950000	-0.307579
	26.955000	-0.462149
	26.960000	-0.452283
	26.965000	-0.304290
	26.970000	-0.314156
	26.975000	-0.465438
	26.980000	-0.452283
	26.985000	-0.304290
	26.990000	-0.317445
	26.995000	-0.468726
	27.000000	-0.455571
	27.005000	-0.307579
	27.010000	-0.320734
	27.015000	-0.462149
	27.020000	-0.455571
	27.025000	-0.304290
	27.030000	-0.314156
	27.035000	-0.472015
	27.040000	-0.458860
	27.045000	-0.307579
	27.050000	-0.314156
	27.055000	-0.472015
	27.060000	-0.458860
	27.065000	-0.301001
	27.070000	-0.317445
	27.075000	-0.468726
	27.080000	-0.455571
	27.085000	-0.307579
	27.090000	-0.320734
	27.095000	-0.472015
	27.100000	-0.455571
	27.105000	-0.307579
	27.110000	-0.317445
	27.115000	-0.478592
	27.120000	-0.455571
	27.125000	-0.304290
	27.130000	-0.317445
	27.135000	-0.475304
	27.140000	-0.458860
	27.145000	-0.307579
	27.150000	-0.324023
	27.155000	-0.475304
	27.160000	-0.458860
	27.165000	-0.307579
	27.170000	-0.333889
	27.175000	-0.478592
	27.180000	-0.458860
	27.185000	-0.310868
	27.190000	-0.330600
	27.195000	-0.475304
	27.200000	-0.462149
	27.205000	-0.314156
	27.210000	-0.330600
	27.215000	-0.481881
	27.220000	-0.465438
	27.225000	-0.314156
	27.230000	-0.330600
	27.235000	-0.481881
	27.240000	-0.465438
	27.245000	-0.310868
	27.250000	-0.333889
	27.255000	-0.481881
	27.260000	-0.455571
	27.265000	-0.307579
	27.270000	-0.327311
	27.275000	-0.478592
	27.280000	-0.458860
	27.285000	-0.304290
	27.290000	-0.330600
	27.295000	-0.478592
	27.300000	-0.458860
	27.305000	-0.304290
	27.310000	-0.327311
	27.315000	-0.481881
	27.320000	-0.458860
	27.325000	-0.307579
	27.330000	-0.330600
	27.335000	-0.485170
	27.340000	-0.462149
	27.345000	-0.310868
	27.350000	-0.337177
	27.355000	-0.481881
	27.360000	-0.462149
	27.365000	-0.310868
	27.370000	-0.337177
	27.375000	-0.485170
	27.380000	-0.462149
	27.385000	-0.314156
	27.390000	-0.337177
	27.395000	-0.481881
	27.400000	-0.458860
	27.405000	-0.310868
	27.410000	-0.330600
	27.415000	-0.478592
	27.420000	-0.448994
	27.425000	-0.297713
	27.430000	-0.310868
	27.435000	-0.462149
	27.440000	-0.429262
	27.445000	-0.274692
	27.450000	-0.301001
	27.455000	-0.452283
	27.460000	-0.412818
	27.465000	-0.271403
	27.470000	-0.297713
	27.475000	-0.442417
	27.480000	-0.419395
	27.485000	-0.264826
	27.490000	-0.294424
	27.495000	-0.439128
	27.500000	-0.409529
	27.505000	-0.261537
	27.510000	-0.291135
	27.515000	-0.442417
	27.520000	-0.412818
	27.525000	-0.264826
	27.530000	-0.294424
	27.535000	-0.442417
	27.540000	-0.416107
	27.545000	-0.271403
	27.550000	-0.297713
	27.555000	-0.452283
	27.560000	-0.419395
	27.565000	-0.268114
	27.570000	-0.301001
	27.575000	-0.455571
	27.580000	-0.425973
	27.585000	-0.274692
	27.590000	-0.301001
	27.595000	-0.458860
	27.600000	-0.429262
	27.605000	-0.277980
	27.610000	-0.310868
	27.615000	-0.465438
	27.620000	-0.432550
	27.625000	-0.284558
	27.630000	-0.320734
	27.635000	-0.468726
	27.640000	-0.442417
	27.645000	-0.291135
	27.650000	-0.327311
	27.655000	-0.478592
	27.660000	-0.445705
	27.665000	-0.291135
	27.670000	-0.330600
	27.675000	-0.481881
	27.680000	-0.445705
	27.685000	-0.291135
	27.690000	-0.330600
	27.695000	-0.485170
	27.700000	-0.452283
	27.705000	-0.297713
	27.710000	-0.337177
	27.715000	-0.488459
	27.720000	-0.448994
	27.725000	-0.304290
	27.730000	-0.340466
	27.735000	-0.491747
	27.740000	-0.462149
	27.745000	-0.307579
	27.750000	-0.340466
	27.755000	-0.495036
	27.760000	-0.458860
	27.765000	-0.304290
	27.770000	-0.340466
	27.775000	-0.495036
	27.780000	-0.458860
	27.785000	-0.307579
	27.790000	-0.337177
	27.795000	-0.485170
	27.800000	-0.445705
	27.805000	-0.294424
	27.810000	-0.330600
	27.815000	-0.475304
	27.820000	-0.432550
	27.825000	-0.281269
	27.830000	-0.310868
	27.835000	-0.452283
	27.840000	-0.412818
	27.845000	-0.268114
	27.850000	-0.301001
	27.855000	-0.435839
	27.860000	-0.399663
	27.865000	-0.251671
	27.870000	-0.287847
	27.875000	-0.435839
	27.880000	-0.396374
	27.885000	-0.261537
	27.890000	-0.297713
	27.895000	-0.435839
	27.900000	-0.402952
	27.905000	-0.271403
	27.910000	-0.304290
	27.915000	-0.445705
	27.920000	-0.409529
	27.925000	-0.277980
	27.930000	-0.314156
	27.935000	-0.452283
	27.940000	-0.429262
	27.945000	-0.320734
	27.950000	-0.393086
	27.955000	-0.583832
	27.960000	-0.610141
	27.965000	-0.524635
	27.970000	-0.587120
	27.975000	-0.741690
	27.980000	-0.718669
	27.985000	-0.596987
	27.990000	-0.643029
	27.995000	-0.791021
	28.000000	-0.784444
	28.005000	-0.692359
	28.010000	-0.764711
	28.015000	-0.925859
	28.020000	-0.929148
	28.025000	-0.840352
	28.030000	-0.909415
	28.035000	-1.063985
	28.040000	-1.057408
	28.045000	-0.962035
	28.050000	-1.001499
	28.055000	-1.123182
	28.060000	-1.106739
	28.065000	-0.991633
	28.070000	-1.027809
	28.075000	-1.142915
	28.080000	-1.113316
	28.085000	-0.994922
	28.090000	-1.027809
	28.095000	-1.133048
	28.100000	-1.103450
	28.105000	-0.978478
	28.110000	-0.994922
	28.115000	-1.093584
	28.120000	-1.047542
	28.125000	-0.919281
	28.130000	-0.929148
	28.135000	-1.017943
	28.140000	-0.978478
	28.145000	-0.840352
	28.150000	-0.846929
	28.155000	-0.939014
	28.160000	-0.886394
	28.165000	-0.748268
	28.170000	-0.751556
	28.175000	-0.846929
	28.180000	-0.797599
	28.185000	-0.666050
	28.190000	-0.672627
	28.195000	-0.761423
	28.200000	-0.712092
	28.205000	-0.577254
	28.210000	-0.583832
	28.215000	-0.672627
	28.220000	-0.620008
	28.225000	-0.488459
	28.230000	-0.498325
	28.235000	-0.587120
	28.240000	-0.527923
	28.245000	-0.396374
	28.250000	-0.399663
	28.255000	-0.485170
	28.260000	-0.429262
	28.265000	-0.301001
	28.270000	-0.301001
	28.275000	-0.379931
	28.280000	-0.324023
	28.285000	-0.182607
	28.290000	-0.195762
	28.295000	-0.287847
	28.300000	-0.231938
	28.305000	-0.103678
	28.310000	-0.123410
	28.315000	-0.208917
	28.320000	-0.149720
	28.325000	-0.034615
	28.330000	-0.054347
	28.335000	-0.153009
	28.340000	-0.110256
	28.345000	0.004850
	28.350000	-0.021460
	28.355000	-0.139854
	28.360000	-0.110256
	28.365000	0.001561
	28.370000	-0.051059
	28.375000	-0.172741
	28.380000	-0.146431
	28.385000	-0.047770
	28.390000	-0.097101
	28.395000	-0.222072
	28.400000	-0.199051
	28.405000	-0.097101
	28.410000	-0.149720
	28.415000	-0.277980
	28.420000	-0.258248
	28.425000	-0.153009
	28.430000	-0.208917
	28.435000	-0.330600
	28.440000	-0.301001
	28.445000	-0.199051
	28.450000	-0.248382
	28.455000	-0.373353
	28.460000	-0.337177
	28.465000	-0.231938
	28.470000	-0.277980
	28.475000	-0.399663
	28.480000	-0.366776
	28.485000	-0.245093
	28.490000	-0.294424
	28.495000	-0.409529
	28.500000	-0.370065
	28.505000	-0.248382
	28.510000	-0.294424
	28.515000	-0.402952
	28.520000	-0.363487
	28.525000	-0.248382
	28.530000	-0.294424
	28.535000	-0.406241
	28.540000	-0.356910
	28.545000	-0.241804
	28.550000	-0.291135
	28.555000	-0.412818
	28.560000	-0.363487
	28.565000	-0.245093
	28.570000	-0.287847
	28.575000	-0.399663
	28.580000	-0.356910
	28.585000	-0.238516
	28.590000	-0.294424
	28.595000	-0.406241
	28.600000	-0.356910
	28.605000	-0.241804
	28.610000	-0.291135
	28.615000	-0.409529
	28.620000	-0.356910
	28.625000	-0.238516
	28.630000	-0.294424
	28.635000	-0.409529
	28.640000	-0.363487
	28.645000	-0.248382
	28.650000	-0.304290
	28.655000	-0.422684
	28.660000	-0.376642
	28.665000	-0.254959
	28.670000	-0.310868
	28.675000	-0.429262
	28.680000	-0.376642
	28.685000	-0.254959
	28.690000	-0.310868
	28.695000	-0.429262
	28.700000	-0.379931
	28.705000	-0.254959
	28.710000	-0.310868
	28.715000	-0.429262
	28.720000	-0.370065
	28.725000	-0.251671
	28.730000	-0.301001
	28.735000	-0.422684
	28.740000	-0.360198
	28.745000	-0.231938
	28.750000	-0.291135
	28.755000	-0.416107
	28.760000	-0.353621
	28.765000	-0.225361
	28.770000	-0.287847
	28.775000	-0.402952
	28.780000	-0.333889
	28.785000	-0.202340
	28.790000	-0.254959
	28.795000	-0.370065
	28.800000	-0.294424
	28.805000	-0.153009
	28.810000	-0.195762
	28.815000	-0.291135
	28.820000	-0.208917
	28.825000	-0.070791
	28.830000	-0.139854
	28.835000	-0.261537
	28.840000	-0.185896
	28.845000	-0.060925
	28.850000	-0.129988
	28.855000	-0.251671
	28.860000	-0.192474
	28.865000	-0.074080
	28.870000	-0.139854
	28.875000	-0.271403
	28.880000	-0.202340
	28.885000	-0.074080
	28.890000	-0.159586
	28.895000	-0.294424
	28.900000	-0.222072
	28.905000	-0.106967
	28.910000	-0.182607
	28.915000	-0.314156
	28.920000	-0.248382
	28.925000	-0.123410
	28.930000	-0.205628
	28.935000	-0.340466
	28.940000	-0.271403
	28.945000	-0.149720
	28.950000	-0.228650
	28.955000	-0.363487
	28.960000	-0.297713
	28.965000	-0.169453
	28.970000	-0.245093
	28.975000	-0.383220
	28.980000	-0.307579
	28.985000	-0.182607
	28.990000	-0.261537
	28.995000	-0.393086
	29.000000	-0.317445
	29.005000	-0.192474
	29.010000	-0.271403
	29.015000	-0.406241
	29.020000	-0.324023
	29.025000	-0.199051
	29.030000	-0.277980
	29.035000	-0.416107
	29.040000	-0.330600
	29.045000	-0.208917
	29.050000	-0.287847
	29.055000	-0.416107
	29.060000	-0.340466
	29.065000	-0.215495
	29.070000	-0.294424
	29.075000	-0.419395
	29.080000	-0.340466
	29.085000	-0.218783
	29.090000	-0.294424
	29.095000	-0.425973
	29.100000	-0.350332
	29.105000	-0.218783
	29.110000	-0.297713
	29.115000	-0.429262
	29.120000	-0.350332
	29.125000	-0.218783
	29.130000	-0.301001
	29.135000	-0.429262
	29.140000	-0.350332
	29.145000	-0.222072
	29.150000	-0.297713
	29.155000	-0.435839
	29.160000	-0.347044
	29.165000	-0.218783
	29.170000	-0.310868
	29.175000	-0.432550
	29.180000	-0.356910
	29.185000	-0.222072
	29.190000	-0.310868
	29.195000	-0.429262
	29.200000	-0.356910
	29.205000	-0.225361
	29.210000	-0.310868
	29.215000	-0.435839
	29.220000	-0.353621
	29.225000	-0.225361
	29.230000	-0.310868
	29.235000	-0.442417
	29.240000	-0.353621
	29.245000	-0.225361
	29.250000	-0.310868
	29.255000	-0.445705
	29.260000	-0.350332
	29.265000	-0.231938
	29.270000	-0.317445
	29.275000	-0.442417
	29.280000	-0.356910
	29.285000	-0.231938
	29.290000	-0.314156
	29.295000	-0.435839
	29.300000	-0.347044
	29.305000	-0.228650
	29.310000	-0.314156
	29.315000	-0.439128
	29.320000	-0.356910
	29.325000	-0.228650
	29.330000	-0.314156
	29.335000	-0.442417
	29.340000	-0.356910
	29.345000	-0.228650
	29.350000	-0.314156
	29.355000	-0.445705
	29.360000	-0.350332
	29.365000	-0.228650
	29.370000	-0.314156
	29.375000	-0.445705
	29.380000	-0.350332
	29.385000	-0.228650
	29.390000	-0.317445
	29.395000	-0.442417
	29.400000	-0.350332
	29.405000	-0.231938
	29.410000	-0.317445
	29.415000	-0.442417
	29.420000	-0.350332
	29.425000	-0.235227
	29.430000	-0.320734
	29.435000	-0.445705
	29.440000	-0.356910
	29.445000	-0.235227
	29.450000	-0.327311
	29.455000	-0.445705
	29.460000	-0.353621
	29.465000	-0.235227
	29.470000	-0.324023
	29.475000	-0.442417
	29.480000	-0.353621
	29.485000	-0.228650
	29.490000	-0.320734
	29.495000	-0.442417
	29.500000	-0.353621
	29.505000	-0.225361
	29.510000	-0.324023
	29.515000	-0.442417
	29.520000	-0.350332
	29.525000	-0.235227
	29.530000	-0.327311
	29.535000	-0.448994
	29.540000	-0.350332
	29.545000	-0.228650
	29.550000	-0.320734
	29.555000	-0.442417
	29.560000	-0.353621
	29.565000	-0.231938
	29.570000	-0.327311
	29.575000	-0.445705
	29.580000	-0.350332
	29.585000	-0.235227
	29.590000	-0.327311
	29.595000	-0.448994
	29.600000	-0.353621
	29.605000	-0.231938
	29.610000	-0.330600
	29.615000	-0.442417
	29.620000	-0.353621
	29.625000	-0.231938
	29.630000	-0.330600
	29.635000	-0.445705
	29.640000	-0.350332
	29.645000	-0.231938
	29.650000	-0.327311
	29.655000	-0.445705
	29.660000	-0.350332
	29.665000	-0.235227
	29.670000	-0.330600
	29.675000	-0.448994
	29.680000	-0.350332
	29.685000	-0.231938
	29.690000	-0.333889
	29.695000	-0.448994
	29.700000	-0.350332
	29.705000	-0.235227
	29.710000	-0.330600
	29.715000	-0.452283
	29.720000	-0.343755
	29.725000	-0.231938
	29.730000	-0.330600
	29.735000	-0.448994
	29.740000	-0.350332
	29.745000	-0.235227
	29.750000	-0.330600
	29.755000	-0.452283
	29.760000	-0.350332
	29.765000	-0.235227
	29.770000	-0.330600
	29.775000	-0.445705
	29.780000	-0.353621
	29.785000	-0.231938
	29.790000	-0.333889
	29.795000	-0.448994
	29.800000	-0.350332
	29.805000	-0.235227
	29.810000	-0.333889
	29.815000	-0.448994
	29.820000	-0.347044
	29.825000	-0.231938
	29.830000	-0.337177
	29.835000	-0.448994
	29.840000	-0.350332
	29.845000	-0.235227
	29.850000	-0.333889
	29.855000	-0.448994
	29.860000	-0.343755
	29.865000	-0.235227
	29.870000	-0.337177
	29.875000	-0.448994
	29.880000	-0.343755
	29.885000	-0.231938
	29.890000	-0.340466
	29.895000	-0.448994
	29.900000	-0.347044
	29.905000	-0.235227
	29.910000	-0.340466
	29.915000	-0.455571
	29.920000	-0.343755
	29.925000	-0.238516
	29.930000	-0.343755
	29.935000	-0.452283
	29.940000	-0.347044
	29.945000	-0.235227
	29.950000	-0.343755
	29.955000	-0.452283
	29.960000	-0.347044
	29.965000	-0.238516
	29.970000	-0.343755
	29.975000	-0.458860
	29.980000	-0.347044
	29.985000	-0.238516
	29.990000	-0.347044
	29.995000	-0.452283
	30.000000	-0.350332
	30.005000	-0.235227
	30.010000	-0.343755
	30.015000	-0.455571
	30.020000	-0.343755
	30.025000	-0.238516
	30.030000	-0.343755
	30.035000	-0.458860
	30.040000	-0.343755
	30.045000	-0.238516
	30.050000	-0.350332
	30.055000	-0.458860
	30.060000	-0.343755
	30.065000	-0.231938
	30.070000	-0.343755
	30.075000	-0.452283
	30.080000	-0.343755
	30.085000	-0.235227
	30.090000	-0.343755
	30.095000	-0.452283
	30.100000	-0.343755
	30.105000	-0.238516
	30.110000	-0.343755
	30.115000	-0.455571
	30.120000	-0.337177
	30.125000	-0.238516
	30.130000	-0.343755
	30.135000	-0.452283
	30.140000	-0.337177
	30.145000	-0.231938
	30.150000	-0.347044
	30.155000	-0.448994
	30.160000	-0.337177
	30.165000	-0.231938
	30.170000	-0.340466
	30.175000	-0.448994
	30.180000	-0.337177
	30.185000	-0.235227
	30.190000	-0.340466
	30.195000	-0.448994
	30.200000	-0.337177
	30.205000	-0.235227
	30.210000	-0.347044
	30.215000	-0.448994
	30.220000	-0.337177
	30.225000	-0.238516
	30.230000	-0.347044
	30.235000	-0.448994
	30.240000	-0.337177
	30.245000	-0.228650
	30.250000	-0.340466
	30.255000	-0.452283
	30.260000	-0.340466
	30.265000	-0.235227
	30.270000	-0.340466
	30.275000	-0.452283
	30.280000	-0.337177
	30.285000	-0.235227
	30.290000	-0.347044
	30.295000	-0.448994
	30.300000	-0.333889
	30.305000	-0.228650
	30.310000	-0.343755
	30.315000	-0.448994
	30.320000	-0.340466
	30.325000	-0.231938
	30.330000	-0.350332
	30.335000	-0.448994
	30.340000	-0.333889
	30.345000	-0.231938
	30.350000	-0.350332
	30.355000	-0.452283
	30.360000	-0.333889
	30.365000	-0.235227
	30.370000	-0.347044
	30.375000	-0.448994
	30.380000	-0.333889
	30.385000	-0.235227
	30.390000	-0.350332
	30.395000	-0.445705
	30.400000	-0.337177
	30.405000	-0.235227
	30.410000	-0.353621
	30.415000	-0.448994
	30.420000	-0.330600
	30.425000	-0.235227
	30.430000	-0.350332
	30.435000	-0.448994
	30.440000	-0.333889
	30.445000	-0.235227
	30.450000	-0.350332
	30.455000	-0.448994
	30.460000	-0.330600
	30.465000	-0.235227
	30.470000	-0.353621
	30.475000	-0.448994
	30.480000	-0.333889
	30.485000	-0.235227
	30.490000	-0.353621
	30.495000	-0.452283
	30.500000	-0.333889
	30.505000	-0.235227
	30.510000	-0.350332
	30.515000	-0.445705
	30.520000	-0.333889
	30.525000	-0.235227
	30.530000	-0.353621
	30.535000	-0.448994
	30.540000	-0.327311
	30.545000	-0.235227
	30.550000	-0.350332
	30.555000	-0.445705
	30.560000	-0.327311
	30.565000	-0.231938
	30.570000	-0.353621
	30.575000	-0.448994
	30.580000	-0.330600
	30.585000	-0.235227
	30.590000	-0.356910
	30.595000	-0.445705
	30.600000	-0.324023
	30.605000	-0.231938
	30.610000	-0.350332
	30.615000	-0.445705
	30.620000	-0.327311
	30.625000	-0.235227
	30.630000	-0.356910
	30.635000	-0.448994
	30.640000	-0.324023
	30.645000	-0.231938
	30.650000	-0.353621
	30.655000	-0.442417
	30.660000	-0.320734
	30.665000	-0.231938
	30.670000	-0.350332
	30.675000	-0.442417
	30.680000	-0.320734
	30.685000	-0.231938
	30.690000	-0.350332
	30.695000	-0.435839
	30.700000	-0.317445
	30.705000	-0.228650
	30.710000	-0.340466
	30.715000	-0.429262
	30.720000	-0.307579
	30.725000	-0.222072
	30.730000	-0.340466
	30.735000	-0.429262
	30.740000	-0.307579
	30.745000	-0.225361
	30.750000	-0.337177
	30.755000	-0.425973
	30.760000	-0.304290
	30.765000	-0.215495
	30.770000	-0.333889
	30.775000	-0.422684
	30.780000	-0.307579
	30.785000	-0.215495
	30.790000	-0.337177
	30.795000	-0.425973
	30.800000	-0.301001
	30.805000	-0.218783
	30.810000	-0.337177
	30.815000	-0.432550
	30.820000	-0.310868
	30.825000	-0.222072
	30.830000	-0.340466
	30.835000	-0.425973
	30.840000	-0.307579
	30.845000	-0.222072
	30.850000	-0.340466
	30.855000	-0.429262
	30.860000	-0.310868
	30.865000	-0.225361
	30.870000	-0.347044
	30.875000	-0.432550
	30.880000	-0.307579
	30.885000	-0.222072
	30.890000	-0.347044
	30.895000	-0.429262
	30.900000	-0.310868
	30.905000	-0.222072
	30.910000	-0.350332
	30.915000	-0.432550
	30.920000	-0.307579
	30.925000	-0.225361
	30.930000	-0.347044
	30.935000	-0.432550
	30.940000	-0.301001
	30.945000	-0.222072
	30.950000	-0.343755
	30.955000	-0.432550
	30.960000	-0.307579
	30.965000	-0.228650
	30.970000	-0.343755
	30.975000	-0.429262
	30.980000	-0.310868
	30.985000	-0.225361
	30.990000	-0.356910
	30.995000	-0.435839
	31.000000	-0.310868
	31.005000	-0.225361
	31.010000	-0.356910
	31.015000	-0.435839
	31.020000	-0.310868
	31.025000	-0.228650
	31.030000	-0.360198
	31.035000	-0.442417
	31.040000	-0.314156
	31.045000	-0.231938
	31.050000	-0.360198
	31.055000	-0.445705
	31.060000	-0.317445
	31.065000	-0.235227
	31.070000	-0.363487
	31.075000	-0.442417
	31.080000	-0.317445
	31.085000	-0.238516
	31.090000	-0.363487
	31.095000	-0.452283
	31.100000	-0.324023
	31.105000	-0.245093
	31.110000	-0.376642
	31.115000	-0.462149
	31.120000	-0.330600
	31.125000	-0.258248
	31.130000	-0.389797
	31.135000	-0.465438
	31.140000	-0.343755
	31.145000	-0.261537
	31.150000	-0.389797
	31.155000	-0.475304
	31.160000	-0.347044
	31.165000	-0.268114
	31.170000	-0.393086
	31.175000	-0.472015
	31.180000	-0.347044
	31.185000	-0.264826
	31.190000	-0.389797
	31.195000	-0.468726
	31.200000	-0.347044
	31.205000	-0.271403
	31.210000	-0.396374
	31.215000	-0.465438
	31.220000	-0.350332
	31.225000	-0.274692
	31.230000	-0.396374
	31.235000	-0.465438
	31.240000	-0.350332
	31.245000	-0.277980
	31.250000	-0.402952
	31.255000	-0.481881
	31.260000	-0.383220
	31.265000	-0.324023
	31.270000	-0.462149
	31.275000	-0.580543
	31.280000	-0.511480
	31.285000	-0.498325
	31.290000	-0.685782
	31.295000	-0.856796
	31.300000	-0.853507
	31.305000	-0.892972
	31.310000	-1.087006
	31.315000	-1.218555
	31.320000	-1.172513
	31.325000	-1.152781
	31.330000	-1.304062
	31.335000	-1.412590
	31.340000	-1.353393
	31.345000	-1.320506
	31.350000	-1.445477
	31.355000	-1.540850
	31.360000	-1.452054
	31.365000	-1.382991
	31.370000	-1.481653
	31.375000	-1.547427
	31.380000	-1.448766
	31.385000	-1.376414
	31.390000	-1.461921
	31.395000	-1.517829
	31.400000	-1.409301
	31.405000	-1.327083
	31.410000	-1.396146
	31.415000	-1.435611
	31.420000	-1.313928
	31.425000	-1.218555
	31.430000	-1.277752
	31.435000	-1.313928
	31.440000	-1.179090
	31.445000	-1.083718
	31.450000	-1.142915
	31.455000	-1.159358
	31.460000	-1.037675
	31.465000	-0.935725
	31.470000	-0.988345
	31.475000	-1.014654
	31.480000	-0.886394
	31.485000	-0.794310
	31.490000	-0.853507
	31.495000	-0.883105
	31.500000	-0.761423
	31.505000	-0.669338
	31.510000	-0.744979
	31.515000	-0.777866
	31.520000	-0.659472
	31.525000	-0.577254
	31.530000	-0.646317
	31.535000	-0.689071
	31.540000	-0.567388
	31.545000	-0.491747
	31.550000	-0.560811
	31.555000	-0.593698
	31.560000	-0.472015
	31.565000	-0.386508
	31.570000	-0.458860
	31.575000	-0.495036
	31.580000	-0.383220
	31.585000	-0.297713
	31.590000	-0.383220
	31.595000	-0.419395
	31.600000	-0.301001
	31.605000	-0.225361
	31.610000	-0.304290
	31.615000	-0.330600
	31.620000	-0.208917
	31.625000	-0.126699
	31.630000	-0.192474
	31.635000	-0.228650
	31.640000	-0.090523
	31.645000	-0.001728
	31.650000	-0.080657
	31.655000	-0.113544
	31.660000	0.004850
	31.665000	0.073913
	31.670000	-0.018171
	31.675000	-0.074080
	31.680000	0.034448
	31.685000	0.093645
	31.690000	-0.008305
	31.695000	-0.067502
	31.700000	0.034448
	31.705000	0.090357
	31.710000	-0.021460
	31.715000	-0.080657
	31.720000	0.021293
	31.725000	0.070624
	31.730000	-0.041192
	31.735000	-0.106967
	31.740000	-0.008305
	31.745000	0.044314
	31.750000	-0.074080
	31.755000	-0.133277
	31.760000	-0.028037
	31.765000	0.018005
	31.770000	-0.093812
	31.775000	-0.156298
	31.780000	-0.041192
	31.785000	0.014716
	31.790000	-0.103678
	31.795000	-0.162875
	31.800000	-0.051059
	31.805000	0.004850
	31.810000	-0.113544
	31.815000	-0.172741
	31.820000	-0.057636
	31.825000	0.001561
	31.830000	-0.126699
	31.835000	-0.192474
	31.840000	-0.080657
	31.845000	-0.024749
	31.850000	-0.156298
	31.855000	-0.215495
	31.860000	-0.093812
	31.865000	-0.041192
	31.870000	-0.179319
	31.875000	-0.235227
	31.880000	-0.113544
	31.885000	-0.057636
	31.890000	-0.185896
	31.895000	-0.248382
	31.900000	-0.129988
	31.905000	-0.070791
	31.910000	-0.205628
	31.915000	-0.268114
	31.920000	-0.136565
	31.925000	-0.083946
	31.930000	-0.222072
	31.935000	-0.277980
	31.940000	-0.146431
	31.945000	-0.100389
	31.950000	-0.228650
	31.955000	-0.287847
	31.960000	-0.156298
	31.965000	-0.100389
	31.970000	-0.241804
	31.975000	-0.297713
	31.980000	-0.159586
	31.985000	-0.106967
	31.990000	-0.238516
	31.995000	-0.301001
	32.000000	-0.169453
	32.005000	-0.113544
	32.010000	-0.251671
	32.015000	-0.307579
	32.020000	-0.172741
	32.025000	-0.126699
	32.030000	-0.261537
	32.035000	-0.317445
	32.040000	-0.185896
	32.045000	-0.133277
	32.050000	-0.274692
	32.055000	-0.324023
	32.060000	-0.195762
	32.065000	-0.143143
	32.070000	-0.284558
	32.075000	-0.337177
	32.080000	-0.205628
	32.085000	-0.146431
	32.090000	-0.291135
	32.095000	-0.337177
	32.100000	-0.208917
	32.105000	-0.153009
	32.110000	-0.294424
	32.115000	-0.350332
	32.120000	-0.215495
	32.125000	-0.162875
	32.130000	-0.307579
	32.135000	-0.363487
	32.140000	-0.222072
	32.145000	-0.176030
	32.150000	-0.314156
	32.155000	-0.370065
	32.160000	-0.228650
	32.165000	-0.182607
	32.170000	-0.327311
	32.175000	-0.376642
	32.180000	-0.235227
	32.185000	-0.182607
	32.190000	-0.330600
	32.195000	-0.383220
	32.200000	-0.245093
	32.205000	-0.192474
	32.210000	-0.330600
	32.215000	-0.389797
	32.220000	-0.251671
	32.225000	-0.205628
	32.230000	-0.350332
	32.235000	-0.396374
	32.240000	-0.258248
	32.245000	-0.212206
	32.250000	-0.353621
	32.255000	-0.406241
	32.260000	-0.264826
	32.265000	-0.215495
	32.270000	-0.360198
	32.275000	-0.409529
	32.280000	-0.268114
	32.285000	-0.222072
	32.290000	-0.366776
	32.295000	-0.416107
	32.300000	-0.274692
	32.305000	-0.228650
	32.310000	-0.373353
	32.315000	-0.419395
	32.320000	-0.284558
	32.325000	-0.235227
	32.330000	-0.376642
	32.335000	-0.425973
	32.340000	-0.281269
	32.345000	-0.235227
	32.350000	-0.376642
	32.355000	-0.419395
	32.360000	-0.277980
	32.365000	-0.228650
	32.370000	-0.379931
	32.375000	-0.419395
	32.380000	-0.281269
	32.385000	-0.235227
	32.390000	-0.373353
	32.395000	-0.419395
	32.400000	-0.274692
	32.405000	-0.235227
	32.410000	-0.373353
	32.415000	-0.416107
	32.420000	-0.274692
	32.425000	-0.228650
	32.430000	-0.373353
	32.435000	-0.409529
	32.440000	-0.268114
	32.445000	-0.222072
	32.450000	-0.366776
	32.455000	-0.406241
	32.460000	-0.258248
	32.465000	-0.215495
	32.470000	-0.360198
	32.475000	-0.396374
	32.480000	-0.251671
	32.485000	-0.208917
	32.490000	-0.353621
	32.495000	-0.386508
	32.500000	-0.238516
	32.505000	-0.189185
	32.510000	-0.333889
	32.515000	-0.370065
	32.520000	-0.225361
	32.525000	-0.182607
	32.530000	-0.320734
	32.535000	-0.366776
	32.540000	-0.218783
	32.545000	-0.176030
	32.550000	-0.320734
	32.555000	-0.350332
	32.560000	-0.212206
	32.565000	-0.169453
	32.570000	-0.310868
	32.575000	-0.353621
	32.580000	-0.205628
	32.585000	-0.169453
	32.590000	-0.314156
	32.595000	-0.356910
	32.600000	-0.208917
	32.605000	-0.166164
	32.610000	-0.317445
	32.615000	-0.350332
	32.620000	-0.208917
	32.625000	-0.169453
	32.630000	-0.317445
	32.635000	-0.350332
	32.640000	-0.205628
	32.645000	-0.169453
	32.650000	-0.317445
	32.655000	-0.350332
	32.660000	-0.208917
	32.665000	-0.172741
	32.670000	-0.317445
	32.675000	-0.356910
	32.680000	-0.205628
	32.685000	-0.172741
	32.690000	-0.317445
	32.695000	-0.356910
	32.700000	-0.205628
	32.705000	-0.176030
	32.710000	-0.324023
	32.715000	-0.363487
	32.720000	-0.215495
	32.725000	-0.182607
	32.730000	-0.333889
	32.735000	-0.366776
	32.740000	-0.218783
	32.745000	-0.189185
	32.750000	-0.333889
	32.755000	-0.370065
	32.760000	-0.222072
	32.765000	-0.195762
	32.770000	-0.343755
	32.775000	-0.370065
	32.780000	-0.225361
	32.785000	-0.195762
	32.790000	-0.340466
	32.795000	-0.370065
	32.800000	-0.228650
	32.805000	-0.192474
	32.810000	-0.350332
	32.815000	-0.376642
	32.820000	-0.228650
	32.825000	-0.199051
	32.830000	-0.353621
	32.835000	-0.379931
	32.840000	-0.231938
	32.845000	-0.205628
	32.850000	-0.343755
	32.855000	-0.376642
	32.860000	-0.231938
	32.865000	-0.199051
	32.870000	-0.353621
	32.875000	-0.379931
	32.880000	-0.228650
	32.885000	-0.199051
	32.890000	-0.350332
	32.895000	-0.373353
	32.900000	-0.225361
	32.905000	-0.199051
	32.910000	-0.350332
	32.915000	-0.379931
	32.920000	-0.228650
	32.925000	-0.205628
	32.930000	-0.353621
	32.935000	-0.376642
	32.940000	-0.225361
	32.945000	-0.195762
	32.950000	-0.350332
	32.955000	-0.376642
	32.960000	-0.228650
	32.965000	-0.205628
	32.970000	-0.353621
	32.975000	-0.376642
	32.980000	-0.225361
	32.985000	-0.205628
	32.990000	-0.350332
	32.995000	-0.379931
	33.000000	-0.228650
	33.005000	-0.202340
	33.010000	-0.356910
	33.015000	-0.376642
	33.020000	-0.225361
	33.025000	-0.199051
	33.030000	-0.350332
	33.035000	-0.373353
	33.040000	-0.222072
	33.045000	-0.199051
	33.050000	-0.353621
	33.055000	-0.370065
	33.060000	-0.225361
	33.065000	-0.202340
	33.070000	-0.350332
	33.075000	-0.373353
	33.080000	-0.225361
	33.085000	-0.202340
	33.090000	-0.353621
	33.095000	-0.373353
	33.100000	-0.222072
	33.105000	-0.199051
	33.110000	-0.350332
	33.115000	-0.373353
	33.120000	-0.225361
	33.125000	-0.202340
	33.130000	-0.356910
	33.135000	-0.370065
	33.140000	-0.222072
	33.145000	-0.195762
	33.150000	-0.350332
	33.155000	-0.370065
	33.160000	-0.218783
	33.165000	-0.202340
	33.170000	-0.353621
	33.175000	-0.366776
	33.180000	-0.222072
	33.185000	-0.202340
	33.190000	-0.356910
	33.195000	-0.370065
	33.200000	-0.222072
	33.205000	-0.199051
	33.210000	-0.356910
	33.215000	-0.370065
	33.220000	-0.215495
	33.225000	-0.202340
	33.230000	-0.356910
	33.235000	-0.370065
	33.240000	-0.218783
	33.245000	-0.199051
	33.250000	-0.356910
	33.255000	-0.370065
	33.260000	-0.222072
	33.265000	-0.202340
	33.270000	-0.353621
	33.275000	-0.370065
	33.280000	-0.218783
	33.285000	-0.205628
	33.290000	-0.356910
	33.295000	-0.366776
	33.300000	-0.215495
	33.305000	-0.202340
	33.310000	-0.353621
	33.315000	-0.366776
	33.320000	-0.215495
	33.325000	-0.199051
	33.330000	-0.356910
	33.335000	-0.366776
	33.340000	-0.215495
	33.345000	-0.202340
	33.350000	-0.356910
	33.355000	-0.370065
	33.360000	-0.215495
	33.365000	-0.205628
	33.370000	-0.356910
	33.375000	-0.366776
	33.380000	-0.212206
	33.385000	-0.205628
	33.390000	-0.363487
	33.395000	-0.373353
	33.400000	-0.222072
	33.405000	-0.208917
	33.410000	-0.363487
	33.415000	-0.376642
	33.420000	-0.225361
	33.425000	-0.212206
	33.430000	-0.373353
	33.435000	-0.376642
	33.440000	-0.222072
	33.445000	-0.212206
	33.450000	-0.366776
	33.455000	-0.379931
	33.460000	-0.225361
	33.465000	-0.218783
	33.470000	-0.370065
	33.475000	-0.379931
	33.480000	-0.225361
	33.485000	-0.225361
	33.490000	-0.370065
	33.495000	-0.383220
	33.500000	-0.228650
	33.505000	-0.218783
	33.510000	-0.373353
	33.515000	-0.379931
	33.520000	-0.225361
	33.525000	-0.218783
	33.530000	-0.370065
	33.535000	-0.370065
	33.540000	-0.215495
	33.545000	-0.208917
	33.550000	-0.360198
	33.555000	-0.363487
	33.560000	-0.208917
	33.565000	-0.205628
	33.570000	-0.356910
	33.575000	-0.360198
	33.580000	-0.205628
	33.585000	-0.202340
	33.590000	-0.356910
	33.595000	-0.363487
	33.600000	-0.208917
	33.605000	-0.205628
	33.610000	-0.353621
	33.615000	-0.353621
	33.620000	-0.205628
	33.625000	-0.199051
	33.630000	-0.350332
	33.635000	-0.350332
	33.640000	-0.202340
	33.645000	-0.199051
	33.650000	-0.343755
	33.655000	-0.343755
	33.660000	-0.195762
	33.665000	-0.192474
	33.670000	-0.337177
	33.675000	-0.337177
	33.680000	-0.199051
	33.685000	-0.199051
	33.690000	-0.350332
	33.695000	-0.356910
	33.700000	-0.212206
	33.705000	-0.212206
	33.710000	-0.356910
	33.715000	-0.360198
	33.720000	-0.215495
	33.725000	-0.222072
	33.730000	-0.360198
	33.735000	-0.360198
	33.740000	-0.225361
	33.745000	-0.225361
	33.750000	-0.373353
	33.755000	-0.379931
	33.760000	-0.248382
	33.765000	-0.251671
	33.770000	-0.396374
	33.775000	-0.419395
	33.780000	-0.310868
	33.785000	-0.353621
	33.790000	-0.527923
	33.795000	-0.560811
	33.800000	-0.452283
	33.805000	-0.478592
	33.810000	-0.636451
	33.815000	-0.652895
	33.820000	-0.531212
	33.825000	-0.534501
	33.830000	-0.666050
	33.835000	-0.669338
	33.840000	-0.541078
	33.845000	-0.531212
	33.850000	-0.652895
	33.855000	-0.646317
	33.860000	-0.511480
	33.865000	-0.504902
	33.870000	-0.620008
	33.875000	-0.613430
	33.880000	-0.478592
	33.885000	-0.468726
	33.890000	-0.587120
	33.895000	-0.580543
	33.900000	-0.448994
	33.905000	-0.439128
	33.910000	-0.554233
	33.915000	-0.550944
	33.920000	-0.419395
	33.925000	-0.409529
	33.930000	-0.524635
	33.935000	-0.514768
	33.940000	-0.389797
	33.945000	-0.373353
	33.950000	-0.488459
	33.955000	-0.485170
	33.960000	-0.356910
	33.965000	-0.350332
	33.970000	-0.465438
	33.975000	-0.462149
	33.980000	-0.333889
	33.985000	-0.330600
	33.990000	-0.445705
	33.995000	-0.445705
	34.000000	-0.314156
	34.005000	-0.314156
	34.010000	-0.429262
	34.015000	-0.425973
	34.020000	-0.301001
	34.025000	-0.297713
	34.030000	-0.409529
	34.035000	-0.409529
	34.040000	-0.281269
	34.045000	-0.284558
	34.050000	-0.396374
	34.055000	-0.389797
	34.060000	-0.271403
	34.065000	-0.271403
	34.070000	-0.383220
	34.075000	-0.379931
	34.080000	-0.251671
	34.085000	-0.258248
	34.090000	-0.370065
	34.095000	-0.353621
	34.100000	-0.231938
	34.105000	-0.222072
	34.110000	-0.327311
	34.115000	-0.310868
	34.120000	-0.182607
	34.125000	-0.176030
	34.130000	-0.291135
	34.135000	-0.274692
	34.140000	-0.143143
	34.145000	-0.139854
	34.150000	-0.258248
	34.155000	-0.241804
	34.160000	-0.110256
	34.165000	-0.110256
	34.170000	-0.235227
	34.175000	-0.225361
	34.180000	-0.103678
	34.185000	-0.116833
	34.190000	-0.251671
	34.195000	-0.248382
	34.200000	-0.126699
	34.205000	-0.139854
	34.210000	-0.277980
	34.215000	-0.277980
	34.220000	-0.139854
	34.225000	-0.156298
	34.230000	-0.297713
	34.235000	-0.281269
	34.240000	-0.156298
	34.245000	-0.166164
	34.250000	-0.301001
	34.255000	-0.294424
	34.260000	-0.166164
	34.265000	-0.179319
	34.270000	-0.317445
	34.275000	-0.307579
	34.280000	-0.172741
	34.285000	-0.199051
	34.290000	-0.330600
	34.295000	-0.310868
	34.300000	-0.176030
	34.305000	-0.195762
	34.310000	-0.324023
	34.315000	-0.304290
	34.320000	-0.159586
	34.325000	-0.176030
	34.330000	-0.317445
	34.335000	-0.297713
	34.340000	-0.159586
	34.345000	-0.179319
	34.350000	-0.324023
	34.355000	-0.297713
	34.360000	-0.159586
	34.365000	-0.179319
	34.370000	-0.324023
	34.375000	-0.310868
	34.380000	-0.169453
	34.385000	-0.192474
	34.390000	-0.337177
	34.395000	-0.317445
	34.400000	-0.176030
	34.405000	-0.199051
	34.410000	-0.343755
	34.415000	-0.324023
	34.420000	-0.179319
	34.425000	-0.208917
	34.430000	-0.350332
	34.435000	-0.327311
	34.440000	-0.185896
	34.445000	-0.215495
	34.450000	-0.363487
	34.455000	-0.340466
	34.460000	-0.199051
	34.465000	-0.228650
	34.470000	-0.379931
	34.475000	-0.356910
	34.480000	-0.208917
	34.485000	-0.235227
	34.490000	-0.389797
	34.495000	-0.356910
	34.500000	-0.215495
	34.505000	-0.241804
	34.510000	-0.389797
	34.515000	-0.360198
	34.520000	-0.215495
	34.525000	-0.245093
	34.530000	-0.396374
	34.535000	-0.366776
	34.540000	-0.225361
	34.545000	-0.254959
	34.550000	-0.396374
	34.555000	-0.373353
	34.560000	-0.225361
	34.565000	-0.254959
	34.570000	-0.402952
	34.575000	-0.370065
	34.580000	-0.225361
	34.585000	-0.258248
	34.590000	-0.402952
	34.595000	-0.366776
	34.600000	-0.222072
	34.605000	-0.254959
	34.610000	-0.399663
	34.615000	-0.363487
	34.620000	-0.222072
	34.625000	-0.245093
	34.630000	-0.389797
	34.635000	-0.356910
	34.640000	-0.205628
	34.645000	-0.231938
	34.650000	-0.376642
	34.655000	-0.340466
	34.660000	-0.189185
	34.665000	-0.222072
	34.670000	-0.360198
	34.675000	-0.324023
	34.680000	-0.172741
	34.685000	-0.199051
	34.690000	-0.347044
	34.695000	-0.310868
	34.700000	-0.162875
	34.705000	-0.192474
	34.710000	-0.337177
	34.715000	-0.304290
	34.720000	-0.156298
	34.725000	-0.189185
	34.730000	-0.337177
	34.735000	-0.304290
	34.740000	-0.159586
	34.745000	-0.192474
	34.750000	-0.340466
	34.755000	-0.304290
	34.760000	-0.159586
	34.765000	-0.195762
	34.770000	-0.347044
	34.775000	-0.307579
	34.780000	-0.159586
	34.785000	-0.199051
	34.790000	-0.343755
	34.795000	-0.304290
	34.800000	-0.162875
	34.805000	-0.205628
	34.810000	-0.350332
	34.815000	-0.307579
	34.820000	-0.166164
	34.825000	-0.208917
	34.830000	-0.353621
	34.835000	-0.310868
	34.840000	-0.166164
	34.845000	-0.205628
	34.850000	-0.353621
	34.855000	-0.310868
	34.860000	-0.166164
	34.865000	-0.212206
	34.870000	-0.353621
	34.875000	-0.314156
	34.880000	-0.172741
	34.885000	-0.208917
	34.890000	-0.356910
	34.895000	-0.317445
	34.900000	-0.169453
	34.905000	-0.212206
	34.910000	-0.356910
	34.915000	-0.320734
	34.920000	-0.172741
	34.925000	-0.215495
	34.930000	-0.360198
	34.935000	-0.314156
	34.940000	-0.172741
	34.945000	-0.222072
	34.950000	-0.366776
	34.955000	-0.317445
	34.960000	-0.176030
	34.965000	-0.215495
	34.970000	-0.363487
	34.975000	-0.320734
	34.980000	-0.172741
	34.985000	-0.225361
	34.990000	-0.363487
	34.995000	-0.320734
	35.000000	-0.172741
	35.005000	-0.222072
	35.010000	-0.366776
	35.015000	-0.320734
	35.020000	-0.176030
	35.025000	-0.225361
	35.030000	-0.363487
	35.035000	-0.317445
	35.040000	-0.172741
	35.045000	-0.218783
	35.050000	-0.366776
	35.055000	-0.317445
	35.060000	-0.172741
	35.065000	-0.225361
	35.070000	-0.366776
	35.075000	-0.320734
	35.080000	-0.176030
	35.085000	-0.222072
	35.090000	-0.370065
	35.095000	-0.314156
	35.100000	-0.176030
	35.105000	-0.218783
	35.110000	-0.370065
	35.115000	-0.320734
	35.120000	-0.176030
	35.125000	-0.225361
	35.130000	-0.366776
	35.135000	-0.320734
	35.140000	-0.176030
	35.145000	-0.225361
	35.150000	-0.370065
	35.155000	-0.320734
	35.160000	-0.172741
	35.165000	-0.222072
	35.170000	-0.366776
	35.175000	-0.314156
	35.180000	-0.172741
	35.185000	-0.222072
	35.190000	-0.363487
	35.195000	-0.314156
	35.200000	-0.179319
	35.205000	-0.228650
	35.210000	-0.370065
	35.215000	-0.314156
	35.220000	-0.172741
	35.225000	-0.228650
	35.230000	-0.366776
	35.235000	-0.314156
	35.240000	-0.172741
	35.245000	-0.222072
	35.250000	-0.366776
	35.255000	-0.310868
	35.260000	-0.169453
	35.265000	-0.231938
	35.270000	-0.366776
	35.275000	-0.317445
	35.280000	-0.169453
	35.285000	-0.225361
	35.290000	-0.366776
	35.295000	-0.314156
	35.300000	-0.176030
	35.305000	-0.231938
	35.310000	-0.363487
	35.315000	-0.310868
	35.320000	-0.172741
	35.325000	-0.228650
	35.330000	-0.373353
	35.335000	-0.310868
	35.340000	-0.172741
	35.345000	-0.228650
	35.350000	-0.370065
	35.355000	-0.310868
	35.360000	-0.169453
	35.365000	-0.222072
	35.370000	-0.363487
	35.375000	-0.304290
	35.380000	-0.166164
	35.385000	-0.225361
	35.390000	-0.366776
	35.395000	-0.307579
	35.400000	-0.162875
	35.405000	-0.225361
	35.410000	-0.363487
	35.415000	-0.301001
	35.420000	-0.162875
	35.425000	-0.225361
	35.430000	-0.360198
	35.435000	-0.304290
	35.440000	-0.159586
	35.445000	-0.225361
	35.450000	-0.356910
	35.455000	-0.301001
	35.460000	-0.149720
	35.465000	-0.212206
	35.470000	-0.350332
	35.475000	-0.291135
	35.480000	-0.153009
	35.485000	-0.205628
	35.490000	-0.350332
	35.495000	-0.284558
	35.500000	-0.153009
	35.505000	-0.205628
	35.510000	-0.347044
	35.515000	-0.277980
	35.520000	-0.139854
	35.525000	-0.202340
	35.530000	-0.350332
	35.535000	-0.284558
	35.540000	-0.143143
	35.545000	-0.205628
	35.550000	-0.343755
	35.555000	-0.277980
	35.560000	-0.143143
	35.565000	-0.208917
	35.570000	-0.343755
	35.575000	-0.277980
	35.580000	-0.143143
	35.585000	-0.212206
	35.590000	-0.350332
	35.595000	-0.277980
	35.600000	-0.146431
	35.605000	-0.212206
	35.610000	-0.343755
	35.615000	-0.281269
	35.620000	-0.146431
	35.625000	-0.212206
	35.630000	-0.350332
	35.635000	-0.284558
	35.640000	-0.146431
	35.645000	-0.215495
	35.650000	-0.347044
	35.655000	-0.281269
	35.660000	-0.156298
	35.665000	-0.215495
	35.670000	-0.350332
	35.675000	-0.284558
	35.680000	-0.146431
	35.685000	-0.215495
	35.690000	-0.353621
	35.695000	-0.284558
	35.700000	-0.149720
	35.705000	-0.218783
	35.710000	-0.356910
	35.715000	-0.287847
	35.720000	-0.149720
	35.725000	-0.225361
	35.730000	-0.350332
	35.735000	-0.284558
	35.740000	-0.153009
	35.745000	-0.222072
	35.750000	-0.350332
	35.755000	-0.291135
	35.760000	-0.153009
	35.765000	-0.222072
	35.770000	-0.353621
	35.775000	-0.287847
	35.780000	-0.159586
	35.785000	-0.228650
	35.790000	-0.360198
	35.795000	-0.287847
	35.800000	-0.153009
	35.805000	-0.228650
	35.810000	-0.356910
	35.815000	-0.291135
	35.820000	-0.156298
	35.825000	-0.225361
	35.830000	-0.360198
	35.835000	-0.291135
	35.840000	-0.162875
	35.845000	-0.228650
	35.850000	-0.363487
	35.855000	-0.287847
	35.860000	-0.156298
	35.865000	-0.225361
	35.870000	-0.363487
	35.875000	-0.287847
	35.880000	-0.159586
	35.885000	-0.235227
	35.890000	-0.366776
	35.895000	-0.291135
	35.900000	-0.162875
	35.905000	-0.231938
	35.910000	-0.370065
	35.915000	-0.294424
	35.920000	-0.162875
	35.925000	-0.235227
	35.930000	-0.363487
	35.935000	-0.294424
	35.940000	-0.169453
	35.945000	-0.238516
	35.950000	-0.370065
	35.955000	-0.291135
	35.960000	-0.166164
	35.965000	-0.241804
	35.970000	-0.370065
	35.975000	-0.294424
	35.980000	-0.169453
	35.985000	-0.245093
	35.990000	-0.373353
	35.995000	-0.301001
	36.000000	-0.169453
	36.005000	-0.245093
	36.010000	-0.373353
	36.015000	-0.301001
	36.020000	-0.172741
	36.025000	-0.248382
	36.030000	-0.379931
	36.035000	-0.301001
	36.040000	-0.172741
	36.045000	-0.245093
	36.050000	-0.376642
	36.055000	-0.304290
	36.060000	-0.176030
	36.065000	-0.251671
	36.070000	-0.379931
	36.075000	-0.304290
	36.080000	-0.179319
	36.085000	-0.258248
	36.090000	-0.376642
	36.095000	-0.307579
	36.100000	-0.182607
	36.105000	-0.258248
	36.110000	-0.379931
	36.115000	-0.304290
	36.120000	-0.179319
	36.125000	-0.254959
	36.130000	-0.376642
	36.135000	-0.304290
	36.140000	-0.182607
	36.145000	-0.264826
	36.150000	-0.383220
	36.155000	-0.314156
	36.160000	-0.192474
	36.165000	-0.271403
	36.170000	-0.393086
	36.175000	-0.330600
	36.180000	-0.225361
	36.185000	-0.317445
	36.190000	-0.448994
	36.195000	-0.399663
	36.200000	-0.317445
	36.205000	-0.416107
	36.210000	-0.573965
	36.215000	-0.537790
	36.220000	-0.478592
	36.225000	-0.596987
	36.230000	-0.771289
	36.235000	-0.758134
	36.240000	-0.689071
	36.245000	-0.810754
	36.250000	-0.975190
	36.255000	-0.971901
	36.260000	-0.909415
	36.265000	-1.014654
	36.270000	-1.156069
	36.275000	-1.116605
	36.280000	-1.024520
	36.285000	-1.100161
	36.290000	-1.228421
	36.295000	-1.179090
	36.300000	-1.080429
	36.305000	-1.149492
	36.310000	-1.261309
	36.315000	-1.188957
	36.320000	-1.083718
	36.325000	-1.126471
	36.330000	-1.225133
	36.335000	-1.159358
	36.340000	-1.050830
	36.345000	-1.100161
	36.350000	-1.198823
	36.355000	-1.126471
	36.360000	-1.011366
	36.365000	-1.060696
	36.370000	-1.156069
	36.375000	-1.083718
	36.380000	-0.985056
	36.385000	-1.024520
	36.390000	-1.110027
	36.395000	-1.040964
	36.400000	-0.925859
	36.405000	-0.968612
	36.410000	-1.037675
	36.415000	-0.965323
	36.420000	-0.846929
	36.425000	-0.876528
	36.430000	-0.948880
	36.435000	-0.869951
	36.440000	-0.744979
	36.445000	-0.777866
	36.450000	-0.846929
	36.455000	-0.761423
	36.460000	-0.643029
	36.465000	-0.672627
	36.470000	-0.741690
	36.475000	-0.659472
	36.480000	-0.534501
	36.485000	-0.570677
	36.490000	-0.639740
	36.495000	-0.554233
	36.500000	-0.432550
	36.505000	-0.462149
	36.510000	-0.531212
	36.515000	-0.445705
	36.520000	-0.330600
	36.525000	-0.366776
	36.530000	-0.442417
	36.535000	-0.363487
	36.540000	-0.248382
	36.545000	-0.297713
	36.550000	-0.373353
	36.555000	-0.294424
	36.560000	-0.192474
	36.565000	-0.231938
	36.570000	-0.307579
	36.575000	-0.228650
	36.580000	-0.110256
	36.585000	-0.153009
	36.590000	-0.235227
	36.595000	-0.153009
	36.600000	-0.047770
	36.605000	-0.103678
	36.610000	-0.192474
	36.615000	-0.110256
	36.620000	-0.001728
	36.625000	-0.044481
	36.630000	-0.126699
	36.635000	-0.031326
	36.640000	0.090357
	36.645000	0.047603
	36.650000	-0.014883
	36.655000	0.073913
	36.660000	0.175863
	36.665000	0.100223
	36.670000	-0.001728
	36.675000	0.064047
	36.680000	0.156131
	36.685000	0.077202
	36.690000	-0.028037
	36.695000	0.037737
	36.700000	0.129821
	36.705000	0.047603
	36.710000	-0.047770
	36.715000	0.018005
	36.720000	0.116666
	36.725000	0.034448
	36.730000	-0.067502
	36.735000	0.001561
	36.740000	0.100223
	36.745000	0.014716
	36.750000	-0.083946
	36.755000	-0.018171
	36.760000	0.073913
	36.765000	-0.011594
	36.770000	-0.120122
	36.775000	-0.037904
	36.780000	0.073913
	36.785000	-0.014883
	36.790000	-0.120122
	36.795000	-0.044481
	36.800000	0.054181
	36.805000	-0.031326
	36.810000	-0.136565
	36.815000	-0.057636
	36.820000	0.047603
	36.825000	-0.044481
	36.830000	-0.146431
	36.835000	-0.060925
	36.840000	0.044314
	36.845000	-0.041192
	36.850000	-0.139854
	36.855000	-0.041192
	36.860000	0.070624
	36.865000	-0.011594
	36.870000	-0.106967
	36.875000	-0.008305
	36.880000	0.119955
	36.885000	0.037737
	36.890000	-0.051059
	36.895000	0.050892
	36.900000	0.156131
	36.905000	0.064047
	36.910000	-0.044481
	36.915000	0.044314
	36.920000	0.142976
	36.925000	0.041026
	36.930000	-0.074080
	36.935000	0.018005
	36.940000	0.116666
	36.945000	0.008138
	36.950000	-0.106967
	36.955000	-0.014883
	36.960000	0.083779
	36.965000	-0.018171
	36.970000	-0.133277
	36.975000	-0.034615
	36.980000	0.067335
	36.985000	-0.044481
	36.990000	-0.153009
	36.995000	-0.057636
	37.000000	0.044314
	37.005000	-0.064213
	37.010000	-0.176030
	37.015000	-0.077368
	37.020000	0.031160
	37.025000	-0.074080
	37.030000	-0.185896
	37.035000	-0.090523
	37.040000	0.014716
	37.045000	-0.090523
	37.050000	-0.199051
	37.055000	-0.100389
	37.060000	0.004850
	37.065000	-0.106967
	37.070000	-0.222072
	37.075000	-0.116833
	37.080000	-0.011594
	37.085000	-0.113544
	37.090000	-0.235227
	37.095000	-0.129988
	37.100000	-0.028037
	37.105000	-0.126699
	37.110000	-0.241804
	37.115000	-0.133277
	37.120000	-0.024749
	37.125000	-0.139854
	37.130000	-0.251671
	37.135000	-0.143143
	37.140000	-0.041192
	37.145000	-0.153009
	37.150000	-0.261537
	37.155000	-0.156298
	37.160000	-0.044481
	37.165000	-0.159586
	37.170000	-0.271403
	37.175000	-0.159586
	37.180000	-0.057636
	37.185000	-0.169453
	37.190000	-0.281269
	37.195000	-0.172741
	37.200000	-0.067502
	37.205000	-0.182607
	37.210000	-0.291135
	37.215000	-0.176030
	37.220000	-0.077368
	37.225000	-0.185896
	37.230000	-0.294424
	37.235000	-0.185896
	37.240000	-0.083946
	37.245000	-0.199051
	37.250000	-0.304290
	37.255000	-0.189185
	37.260000	-0.083946
	37.265000	-0.202340
	37.270000	-0.310868
	37.275000	-0.195762
	37.280000	-0.090523
	37.285000	-0.205628
	37.290000	-0.314156
	37.295000	-0.199051
	37.300000	-0.097101
	37.305000	-0.215495
	37.310000	-0.317445
	37.315000	-0.205628
	37.320000	-0.103678
	37.325000	-0.218783
	37.330000	-0.324023
	37.335000	-0.208917
	37.340000	-0.106967
	37.345000	-0.225361
	37.350000	-0.330600
	37.355000	-0.212206
	37.360000	-0.110256
	37.365000	-0.222072
	37.370000	-0.324023
	37.375000	-0.212206
	37.380000	-0.106967
	37.385000	-0.228650
	37.390000	-0.330600
	37.395000	-0.212206
	37.400000	-0.113544
	37.405000	-0.225361
	37.410000	-0.330600
	37.415000	-0.208917
	37.420000	-0.106967
	37.425000	-0.231938
	37.430000	-0.330600
	37.435000	-0.208917
	37.440000	-0.110256
	37.445000	-0.225361
	37.450000	-0.330600
	37.455000	-0.208917
	37.460000	-0.113544
	37.465000	-0.235227
	37.470000	-0.327311
	37.475000	-0.212206
	37.480000	-0.113544
	37.485000	-0.228650
	37.490000	-0.333889
	37.495000	-0.212206
	37.500000	-0.116833
	37.505000	-0.241804
	37.510000	-0.337177
	37.515000	-0.222072
	37.520000	-0.126699
	37.525000	-0.241804
	37.530000	-0.340466
	37.535000	-0.222072
	37.540000	-0.129988
	37.545000	-0.245093
	37.550000	-0.337177
	37.555000	-0.222072
	37.560000	-0.126699
	37.565000	-0.241804
	37.570000	-0.343755
	37.575000	-0.222072
	37.580000	-0.126699
	37.585000	-0.241804
	37.590000	-0.337177
	37.595000	-0.218783
	37.600000	-0.123410
	37.605000	-0.238516
	37.610000	-0.333889
	37.615000	-0.215495
	37.620000	-0.116833
	37.625000	-0.238516
	37.630000	-0.330600
	37.635000	-0.208917
	37.640000	-0.116833
	37.645000	-0.238516
	37.650000	-0.330600
	37.655000	-0.205628
	37.660000	-0.116833
	37.665000	-0.241804
	37.670000	-0.327311
	37.675000	-0.208917
	37.680000	-0.113544
	37.685000	-0.238516
	37.690000	-0.330600
	37.695000	-0.208917
	37.700000	-0.116833
	37.705000	-0.238516
	37.710000	-0.333889
	37.715000	-0.212206
	37.720000	-0.116833
	37.725000	-0.238516
	37.730000	-0.337177
	37.735000	-0.212206
	37.740000	-0.120122
	37.745000	-0.245093
	37.750000	-0.333889
	37.755000	-0.208917
	37.760000	-0.120122
	37.765000	-0.245093
	37.770000	-0.333889
	37.775000	-0.208917
	37.780000	-0.116833
	37.785000	-0.245093
	37.790000	-0.337177
	37.795000	-0.208917
	37.800000	-0.120122
	37.805000	-0.245093
	37.810000	-0.340466
	37.815000	-0.208917
	37.820000	-0.120122
	37.825000	-0.248382
	37.830000	-0.333889
	37.835000	-0.208917
	37.840000	-0.120122
	37.845000	-0.248382
	37.850000	-0.330600
	37.855000	-0.208917
	37.860000	-0.120122
	37.865000	-0.248382
	37.870000	-0.333889
	37.875000	-0.208917
	37.880000	-0.120122
	37.885000	-0.248382
	37.890000	-0.337177
	37.895000	-0.212206
	37.900000	-0.120122
	37.905000	-0.248382
	37.910000	-0.333889
	37.915000	-0.205628
	37.920000	-0.120122
	37.925000	-0.251671
	37.930000	-0.337177
	37.935000	-0.208917
	37.940000	-0.123410
	37.945000	-0.251671
	37.950000	-0.337177
	37.955000	-0.205628
	37.960000	-0.123410
	37.965000	-0.251671
	37.970000	-0.340466
	37.975000	-0.208917
	37.980000	-0.123410
	37.985000	-0.251671
	37.990000	-0.333889
	37.995000	-0.205628
	38.000000	-0.123410
	38.005000	-0.248382
	38.010000	-0.333889
	38.015000	-0.208917
	38.020000	-0.120122
	38.025000	-0.251671
	38.030000	-0.337177
	38.035000	-0.205628
	38.040000	-0.123410
	38.045000	-0.258248
	38.050000	-0.333889
	38.055000	-0.205628
	38.060000	-0.120122
	38.065000	-0.251671
	38.070000	-0.337177
	38.075000	-0.202340
	38.080000	-0.123410
	38.085000	-0.251671
	38.090000	-0.337177
	38.095000	-0.205628
	38.100000	-0.120122
	38.105000	-0.258248
	38.110000	-0.330600
	38.115000	-0.205628
	38.120000	-0.123410
	38.125000	-0.254959
	38.130000	-0.330600
	38.135000	-0.202340
	38.140000	-0.120122
	38.145000	-0.251671
	38.150000	-0.330600
	38.155000	-0.202340
	38.160000	-0.120122
	38.165000	-0.254959
	38.170000	-0.330600
	38.175000	-0.202340
	38.180000	-0.126699
	38.185000	-0.258248
	38.190000	-0.337177
	38.195000	-0.199051
	38.200000	-0.123410
	38.205000	-0.258248
	38.210000	-0.337177
	38.215000	-0.202340
	38.220000	-0.123410
	38.225000	-0.258248
	38.230000	-0.333889
	38.235000	-0.195762
	38.240000	-0.123410
	38.245000	-0.258248
	38.250000	-0.333889
	38.255000	-0.199051
	38.260000	-0.123410
	38.265000	-0.254959
	38.270000	-0.333889
	38.275000	-0.199051
	38.280000	-0.126699
	38.285000	-0.264826
	38.290000	-0.330600
	38.295000	-0.199051
	38.300000	-0.123410
	38.305000	-0.261537
	38.310000	-0.337177
	38.315000	-0.199051
	38.320000	-0.129988
	38.325000	-0.261537
	38.330000	-0.337177
	38.335000	-0.202340
	38.340000	-0.126699
	38.345000	-0.264826
	38.350000	-0.337177
	38.355000	-0.205628
	38.360000	-0.129988
	38.365000	-0.264826
	38.370000	-0.340466
	38.375000	-0.199051
	38.380000	-0.126699
	38.385000	-0.268114
	38.390000	-0.337177
	38.395000	-0.202340
	38.400000	-0.133277
	38.405000	-0.264826
	38.410000	-0.340466
	38.415000	-0.199051
	38.420000	-0.129988
	38.425000	-0.264826
	38.430000	-0.340466
	38.435000	-0.205628
	38.440000	-0.129988
	38.445000	-0.268114
	38.450000	-0.337177
	38.455000	-0.205628
	38.460000	-0.139854
	38.465000	-0.271403
	38.470000	-0.343755
	38.475000	-0.202340
	38.480000	-0.133277
	38.485000	-0.274692
	38.490000	-0.347044
	38.495000	-0.202340
	38.500000	-0.133277
	38.505000	-0.271403
	38.510000	-0.340466
	38.515000	-0.195762
	38.520000	-0.133277
	38.525000	-0.274692
	38.530000	-0.340466
	38.535000	-0.199051
	38.540000	-0.136565
	38.545000	-0.271403
	38.550000	-0.337177
	38.555000	-0.199051
	38.560000	-0.129988
	38.565000	-0.274692
	38.570000	-0.337177
	38.575000	-0.199051
	38.580000	-0.133277
	38.585000	-0.271403
	38.590000	-0.340466
	38.595000	-0.189185
	38.600000	-0.129988
	38.605000	-0.274692
	38.610000	-0.337177
	38.615000	-0.195762
	38.620000	-0.133277
	38.625000	-0.274692
	38.630000	-0.333889
	38.635000	-0.192474
	38.640000	-0.129988
	38.645000	-0.274692
	38.650000	-0.333889
	38.655000	-0.192474
	38.660000	-0.129988
	38.665000	-0.271403
	38.670000	-0.337177
	38.675000	-0.192474
	38.680000	-0.129988
	38.685000	-0.268114
	38.690000	-0.333889
	38.695000	-0.189185
	38.700000	-0.126699
	38.705000	-0.271403
	38.710000	-0.333889
	38.715000	-0.189185
	38.720000	-0.129988
	38.725000	-0.271403
	38.730000	-0.324023
	38.735000	-0.182607
	38.740000	-0.116833
	38.745000	-0.264826
	38.750000	-0.324023
	38.755000	-0.182607
	38.760000	-0.116833
	38.765000	-0.264826
	38.770000	-0.320734
	38.775000	-0.176030
	38.780000	-0.116833
	38.785000	-0.258248
	38.790000	-0.314156
	38.795000	-0.176030
	38.800000	-0.110256
	38.805000	-0.258248
	38.810000	-0.314156
	38.815000	-0.176030
	38.820000	-0.110256
	38.825000	-0.251671
	38.830000	-0.317445
	38.835000	-0.172741
	38.840000	-0.113544
	38.845000	-0.261537
	38.850000	-0.317445
	38.855000	-0.172741
	38.860000	-0.116833
	38.865000	-0.261537
	38.870000	-0.324023
	38.875000	-0.179319
	38.880000	-0.123410
	38.885000	-0.274692
	38.890000	-0.327311
	38.895000	-0.179319
	38.900000	-0.126699
	38.905000	-0.274692
	38.910000	-0.330600
	38.915000	-0.189185
	38.920000	-0.129988
	38.925000	-0.274692
	38.930000	-0.327311
	38.935000	-0.185896
	38.940000	-0.133277
	38.945000	-0.274692
	38.950000	-0.330600
	38.955000	-0.185896
	38.960000	-0.133277
	38.965000	-0.277980
	38.970000	-0.330600
	38.975000	-0.185896
	38.980000	-0.129988
	38.985000	-0.284558
	38.990000	-0.330600
	38.995000	-0.185896
	39.000000	-0.129988
	39.005000	-0.277980
	39.010000	-0.333889
	39.015000	-0.185896
	39.020000	-0.136565
	39.025000	-0.284558
	39.030000	-0.330600
	39.035000	-0.185896
	39.040000	-0.133277
	39.045000	-0.287847
	39.050000	-0.330600
	39.055000	-0.182607
	39.060000	-0.133277
	39.065000	-0.281269
	39.070000	-0.330600
	39.075000	-0.182607
	39.080000	-0.136565
	39.085000	-0.284558
	39.090000	-0.330600
	39.095000	-0.182607
	39.100000	-0.133277
	39.105000	-0.277980
	39.110000	-0.327311
	39.115000	-0.179319
	39.120000	-0.136565
	39.125000	-0.281269
	39.130000	-0.327311
	39.135000	-0.179319
	39.140000	-0.126699
	39.145000	-0.281269
	39.150000	-0.324023
	39.155000	-0.179319
	39.160000	-0.129988
	39.165000	-0.274692
	39.170000	-0.327311
	39.175000	-0.176030
	39.180000	-0.126699
	39.185000	-0.274692
	39.190000	-0.324023
	39.195000	-0.172741
	39.200000	-0.129988
	39.205000	-0.277980
	39.210000	-0.320734
	39.215000	-0.172741
	39.220000	-0.129988
	39.225000	-0.271403
	39.230000	-0.320734
	39.235000	-0.172741
	39.240000	-0.126699
	39.245000	-0.271403
	39.250000	-0.320734
	39.255000	-0.166164
	39.260000	-0.126699
	39.265000	-0.277980
	39.270000	-0.317445
	39.275000	-0.169453
	39.280000	-0.123410
	39.285000	-0.274692
	39.290000	-0.314156
	39.295000	-0.169453
	39.300000	-0.126699
	39.305000	-0.277980
	39.310000	-0.317445
	39.315000	-0.172741
	39.320000	-0.129988
	39.325000	-0.271403
	39.330000	-0.310868
	39.335000	-0.166164
	39.340000	-0.126699
	39.345000	-0.271403
	39.350000	-0.310868
	39.355000	-0.166164
	39.360000	-0.116833
	39.365000	-0.261537
	39.370000	-0.297713
	39.375000	-0.139854
	39.380000	-0.097101
	39.385000	-0.235227
	39.390000	-0.271403
	39.395000	-0.120122
	39.400000	-0.080657
	39.405000	-0.218783
	39.410000	-0.254959
	39.415000	-0.106967
	39.420000	-0.067502
	39.425000	-0.212206
	39.430000	-0.251671
	39.435000	-0.113544
	39.440000	-0.080657
	39.445000	-0.225361
	39.450000	-0.268114
	39.455000	-0.136565
	39.460000	-0.110256
	39.465000	-0.251671
	39.470000	-0.307579
	39.475000	-0.192474
	39.480000	-0.182607
	39.485000	-0.340466
	39.490000	-0.416107
	39.495000	-0.320734
	39.500000	-0.333889
	39.505000	-0.514768
	39.510000	-0.603564
	39.515000	-0.524635
	39.520000	-0.537790
	39.525000	-0.705514
	39.530000	-0.774578
	39.535000	-0.675916
	39.540000	-0.662761
	39.545000	-0.827197
	39.550000	-0.919281
	39.555000	-0.860084
	39.560000	-0.863373
	39.565000	-1.011366
	39.570000	-1.050830
	39.575000	-0.925859
	39.580000	-0.883105
	39.585000	-0.981767
	39.590000	-1.004788
	39.595000	-0.866662
	39.600000	-0.810754
	39.605000	-0.902838
	39.610000	-0.919281
	39.615000	-0.781155
	39.620000	-0.725247
	39.625000	-0.817331
	39.630000	-0.827197
	39.635000	-0.689071
	39.640000	-0.633162
	39.645000	-0.721958
	39.650000	-0.728535
	39.655000	-0.593698
	39.660000	-0.534501
	39.665000	-0.629874
	39.670000	-0.643029
	39.675000	-0.508191
	39.680000	-0.462149
	39.685000	-0.557522
	39.690000	-0.573965
	39.695000	-0.442417
	39.700000	-0.402952
	39.705000	-0.501614
	39.710000	-0.521346
	39.715000	-0.389797
	39.720000	-0.343755
	39.725000	-0.448994
	39.730000	-0.465438
	39.735000	-0.330600
	39.740000	-0.284558
	39.745000	-0.379931
	39.750000	-0.393086
	39.755000	-0.254959
	39.760000	-0.205628
	39.765000	-0.301001
	39.770000	-0.301001
	39.775000	-0.149720
	39.780000	-0.090523
	39.785000	-0.172741
	39.790000	-0.172741
	39.795000	-0.034615
	39.800000	0.008138
	39.805000	-0.100389
	39.810000	-0.110256
	39.815000	0.021293
	39.820000	0.050892
	39.825000	-0.077368
	39.830000	-0.110256
	39.835000	0.011427
	39.840000	0.021293
	39.845000	-0.110256
	39.850000	-0.133277
	39.855000	-0.011594
	39.860000	0.004850
	39.865000	-0.123410
	39.870000	-0.153009
	39.875000	-0.034615
	39.880000	-0.018171
	39.885000	-0.153009
	39.890000	-0.176030
	39.895000	-0.051059
	39.900000	-0.034615
	39.905000	-0.166164
	39.910000	-0.189185
	39.915000	-0.060925
	39.920000	-0.041192
	39.925000	-0.179319
	39.930000	-0.192474
	39.935000	-0.067502
	39.940000	-0.047770
	39.945000	-0.179319
	39.950000	-0.202340
	39.955000	-0.070791
	39.960000	-0.051059
	39.965000	-0.185896
	39.970000	-0.205628
	39.975000	-0.070791
	39.980000	-0.051059
	39.985000	-0.189185
	39.990000	-0.202340
	39.995000	-0.064213
	40.000000	-0.037904
	40.005000	-0.172741
	40.010000	-0.189185
	40.015000	-0.041192
	40.020000	-0.021460
	40.025000	-0.153009
	40.030000	-0.166164
	40.035000	-0.021460
	40.040000	-0.008305
	40.045000	-0.153009
	40.050000	-0.176030
	40.055000	-0.034615
	40.060000	-0.018171
	40.065000	-0.166164
	40.070000	-0.185896
	40.075000	-0.047770
	40.080000	-0.028037
	40.085000	-0.179319
	40.090000	-0.199051
	40.095000	-0.057636
	40.100000	-0.047770
	40.105000	-0.195762
	40.110000	-0.215495
	40.115000	-0.067502
	40.120000	-0.060925
	40.125000	-0.208917
	40.130000	-0.225361
	40.135000	-0.080657
	40.140000	-0.074080
	40.145000	-0.225361
	40.150000	-0.245093
	40.155000	-0.097101
	40.160000	-0.087234
	40.165000	-0.238516
	40.170000	-0.251671
	40.175000	-0.106967
	40.180000	-0.097101
	40.185000	-0.245093
	40.190000	-0.258248
	40.195000	-0.116833
	40.200000	-0.103678
	40.205000	-0.254959
	40.210000	-0.264826
	40.215000	-0.116833
	40.220000	-0.106967
	40.225000	-0.258248
	40.230000	-0.264826
	40.235000	-0.120122
	40.240000	-0.106967
	40.245000	-0.258248
	40.250000	-0.274692
	40.255000	-0.120122
	40.260000	-0.113544
	40.265000	-0.264826
	40.270000	-0.274692
	40.275000	-0.123410
	40.280000	-0.113544
	40.285000	-0.264826
	40.290000	-0.274692
	40.295000	-0.123410
	40.300000	-0.110256
	40.305000	-0.261537
	40.310000	-0.268114
	40.315000	-0.116833
	40.320000	-0.116833
	40.325000	-0.264826
	40.330000	-0.271403
	40.335000	-0.120122
	40.340000	-0.116833
	40.345000	-0.264826
	40.350000	-0.274692
	40.355000	-0.126699
	40.360000	-0.120122
	40.365000	-0.268114
	40.370000	-0.277980
	40.375000	-0.126699
	40.380000	-0.120122
	40.385000	-0.271403
	40.390000	-0.281269
	40.395000	-0.126699
	40.400000	-0.123410
	40.405000	-0.277980
	40.410000	-0.284558
	40.415000	-0.129988
	40.420000	-0.123410
	40.425000	-0.277980
	40.430000	-0.277980
	40.435000	-0.129988
	40.440000	-0.129988
	40.445000	-0.277980
	40.450000	-0.284558
	40.455000	-0.133277
	40.460000	-0.129988
	40.465000	-0.281269
	40.470000	-0.281269
	40.475000	-0.133277
	40.480000	-0.129988
	40.485000	-0.281269
	40.490000	-0.281269
	40.495000	-0.129988
	40.500000	-0.129988
	40.505000	-0.277980
	40.510000	-0.281269
	40.515000	-0.129988
	40.520000	-0.129988
	40.525000	-0.281269
	40.530000	-0.277980
	40.535000	-0.129988
	40.540000	-0.126699
	40.545000	-0.281269
	40.550000	-0.274692
	40.555000	-0.129988
	40.560000	-0.129988
	40.565000	-0.284558
	40.570000	-0.281269
	40.575000	-0.129988
	40.580000	-0.133277
	40.585000	-0.277980
	40.590000	-0.277980
	40.595000	-0.126699
	40.600000	-0.133277
	40.605000	-0.277980
	40.610000	-0.277980
	40.615000	-0.126699
	40.620000	-0.129988
	40.625000	-0.281269
	40.630000	-0.274692
	40.635000	-0.120122
	40.640000	-0.133277
	40.645000	-0.277980
	40.650000	-0.277980
	40.655000	-0.126699
	40.660000	-0.129988
	40.665000	-0.284558
	40.670000	-0.271403
	40.675000	-0.120122
	40.680000	-0.126699
	40.685000	-0.284558
	40.690000	-0.274692
	40.695000	-0.126699
	40.700000	-0.133277
	40.705000	-0.281269
	40.710000	-0.281269
	40.715000	-0.123410
	40.720000	-0.129988
	40.725000	-0.284558
	40.730000	-0.277980
	40.735000	-0.126699
	40.740000	-0.133277
	40.745000	-0.284558
	40.750000	-0.277980
	40.755000	-0.126699
	40.760000	-0.136565
	40.765000	-0.287847
	40.770000	-0.281269
	40.775000	-0.126699
	40.780000	-0.136565
	40.785000	-0.284558
	40.790000	-0.281269
	40.795000	-0.129988
	40.800000	-0.139854
	40.805000	-0.294424
	40.810000	-0.277980
	40.815000	-0.129988
	40.820000	-0.139854
	40.825000	-0.291135
	40.830000	-0.281269
	40.835000	-0.129988
	40.840000	-0.139854
	40.845000	-0.291135
	40.850000	-0.281269
	40.855000	-0.129988
	40.860000	-0.143143
	40.865000	-0.297713
	40.870000	-0.284558
	40.875000	-0.129988
	40.880000	-0.143143
	40.885000	-0.297713
	40.890000	-0.284558
	40.895000	-0.129988
	40.900000	-0.143143
	40.905000	-0.297713
	40.910000	-0.277980
	40.915000	-0.129988
	40.920000	-0.143143
	40.925000	-0.294424
	40.930000	-0.277980
	40.935000	-0.126699
	40.940000	-0.143143
	40.945000	-0.297713
	40.950000	-0.281269
	40.955000	-0.129988
	40.960000	-0.143143
	40.965000	-0.294424
	40.970000	-0.277980
	40.975000	-0.126699
	40.980000	-0.143143
	40.985000	-0.297713
	40.990000	-0.281269
	40.995000	-0.129988
	41.000000	-0.139854
	41.005000	-0.294424
	41.010000	-0.277980
	41.015000	-0.120122
	41.020000	-0.143143
	41.025000	-0.297713
	41.030000	-0.274692
	41.035000	-0.129988
	41.040000	-0.139854
	41.045000	-0.301001
	41.050000	-0.277980
	41.055000	-0.126699
	41.060000	-0.143143
	41.065000	-0.297713
	41.070000	-0.271403
	41.075000	-0.123410
	41.080000	-0.143143
	41.085000	-0.294424
	41.090000	-0.271403
	41.095000	-0.116833
	41.100000	-0.139854
	41.105000	-0.294424
	41.110000	-0.271403
	41.115000	-0.116833
	41.120000	-0.136565
	41.125000	-0.291135
	41.130000	-0.268114
	41.135000	-0.110256
	41.140000	-0.133277
	41.145000	-0.281269
	41.150000	-0.264826
	41.155000	-0.116833
	41.160000	-0.139854
	41.165000	-0.291135
	41.170000	-0.264826
	41.175000	-0.116833
	41.180000	-0.129988
	41.185000	-0.287847
	41.190000	-0.268114
	41.195000	-0.113544
	41.200000	-0.139854
	41.205000	-0.291135
	41.210000	-0.268114
	41.215000	-0.113544
	41.220000	-0.139854
	41.225000	-0.291135
	41.230000	-0.271403
	41.235000	-0.120122
	41.240000	-0.139854
	41.245000	-0.301001
	41.250000	-0.274692
	41.255000	-0.113544
	41.260000	-0.146431
	41.265000	-0.297713
	41.270000	-0.274692
	41.275000	-0.120122
	41.280000	-0.146431
	41.285000	-0.301001
	41.290000	-0.274692
	41.295000	-0.129988
	41.300000	-0.153009
	41.305000	-0.304290
	41.310000	-0.277980
	41.315000	-0.129988
	41.320000	-0.159586
	41.325000	-0.310868
	41.330000	-0.284558
	41.335000	-0.129988
	41.340000	-0.156298
	41.345000	-0.307579
	41.350000	-0.287847
	41.355000	-0.126699
	41.360000	-0.156298
	41.365000	-0.301001
	41.370000	-0.281269
	41.375000	-0.129988
	41.380000	-0.162875
	41.385000	-0.307579
	41.390000	-0.277980
	41.395000	-0.129988
	41.400000	-0.159586
	41.405000	-0.310868
	41.410000	-0.277980
	41.415000	-0.126699
	41.420000	-0.156298
	41.425000	-0.310868
	41.430000	-0.281269
	41.435000	-0.126699
	41.440000	-0.153009
	41.445000	-0.304290
	41.450000	-0.281269
	41.455000	-0.126699
	41.460000	-0.153009
	41.465000	-0.310868
	41.470000	-0.281269
	41.475000	-0.126699
	41.480000	-0.159586
	41.485000	-0.307579
	41.490000	-0.277980
	41.495000	-0.123410
	41.500000	-0.153009
	41.505000	-0.307579
	41.510000	-0.271403
	41.515000	-0.120122
	41.520000	-0.156298
	41.525000	-0.301001
	41.530000	-0.274692
	41.535000	-0.123410
	41.540000	-0.156298
	41.545000	-0.301001
	41.550000	-0.274692
	41.555000	-0.123410
	41.560000	-0.156298
	41.565000	-0.310868
	41.570000	-0.271403
	41.575000	-0.123410
	41.580000	-0.159586
	41.585000	-0.314156
	41.590000	-0.277980
	41.595000	-0.129988
	41.600000	-0.159586
	41.605000	-0.307579
	41.610000	-0.274692
	41.615000	-0.123410
	41.620000	-0.162875
	41.625000	-0.310868
	41.630000	-0.274692
	41.635000	-0.116833
	41.640000	-0.159586
	41.645000	-0.307579
	41.650000	-0.274692
	41.655000	-0.123410
	41.660000	-0.159586
	41.665000	-0.314156
	41.670000	-0.271403
	41.675000	-0.123410
	41.680000	-0.156298
	41.685000	-0.307579
	41.690000	-0.264826
	41.695000	-0.123410
	41.700000	-0.156298
	41.705000	-0.307579
	41.710000	-0.271403
	41.715000	-0.120122
	41.720000	-0.159586
	41.725000	-0.310868
	41.730000	-0.268114
	41.735000	-0.120122
	41.740000	-0.159586
	41.745000	-0.307579
	41.750000	-0.268114
	41.755000	-0.120122
	41.760000	-0.159586
	41.765000	-0.310868
	41.770000	-0.268114
	41.775000	-0.120122
	41.780000	-0.159586
	41.785000	-0.310868
	41.790000	-0.264826
	41.795000	-0.116833
	41.800000	-0.159586
	41.805000	-0.304290
	41.810000	-0.268114
	41.815000	-0.120122
	41.820000	-0.159586
	41.825000	-0.307579
	41.830000	-0.264826
	41.835000	-0.116833
	41.840000	-0.162875
	41.845000	-0.304290
	41.850000	-0.268114
	41.855000	-0.116833
	41.860000	-0.159586
	41.865000	-0.304290
	41.870000	-0.258248
	41.875000	-0.113544
	41.880000	-0.156298
	41.885000	-0.301001
	41.890000	-0.258248
	41.895000	-0.116833
	41.900000	-0.166164
	41.905000	-0.304290
	41.910000	-0.258248
	41.915000	-0.113544
	41.920000	-0.156298
	41.925000	-0.304290
	41.930000	-0.258248
	41.935000	-0.106967
	41.940000	-0.159586
	41.945000	-0.301001
	41.950000	-0.254959
	41.955000	-0.113544
	41.960000	-0.159586
	41.965000	-0.301001
	41.970000	-0.254959
	41.975000	-0.113544
	41.980000	-0.156298
	41.985000	-0.301001
	41.990000	-0.258248
	41.995000	-0.110256
	42.000000	-0.156298
	42.005000	-0.297713
	42.010000	-0.251671
	42.015000	-0.106967
	42.020000	-0.159586
	42.025000	-0.304290
	42.030000	-0.248382
	42.035000	-0.103678
	42.040000	-0.159586
	42.045000	-0.301001
	42.050000	-0.248382
	42.055000	-0.103678
	42.060000	-0.156298
	42.065000	-0.297713
	42.070000	-0.248382
	42.075000	-0.106967
	42.080000	-0.156298
	42.085000	-0.297713
	42.090000	-0.248382
	42.095000	-0.103678
	42.100000	-0.149720
	42.105000	-0.297713
	42.110000	-0.248382
	42.115000	-0.103678
	42.120000	-0.159586
	42.125000	-0.294424
	42.130000	-0.248382
	42.135000	-0.110256
	42.140000	-0.156298
	42.145000	-0.294424
	42.150000	-0.245093
	42.155000	-0.106967
	42.160000	-0.159586
	42.165000	-0.297713
	42.170000	-0.248382
	42.175000	-0.110256
	42.180000	-0.156298
	42.185000	-0.297713
	42.190000	-0.235227
	42.195000	-0.097101
	42.200000	-0.146431
	42.205000	-0.287847
	42.210000	-0.228650
	42.215000	-0.090523
	42.220000	-0.143143
	42.225000	-0.277980
	42.230000	-0.225361
	42.235000	-0.080657
	42.240000	-0.133277
	42.245000	-0.268114
	42.250000	-0.212206
	42.255000	-0.074080
	42.260000	-0.123410
	42.265000	-0.258248
	42.270000	-0.202340
	42.275000	-0.067502
	42.280000	-0.116833
	42.285000	-0.251671
	42.290000	-0.199051
	42.295000	-0.060925
	42.300000	-0.120122
	42.305000	-0.251671
	42.310000	-0.199051
	42.315000	-0.064213
	42.320000	-0.120122
	42.325000	-0.251671
	42.330000	-0.192474
	42.335000	-0.064213
	42.340000	-0.113544
	42.345000	-0.248382
	42.350000	-0.195762
	42.355000	-0.057636
	42.360000	-0.110256
	42.365000	-0.245093
	42.370000	-0.195762
	42.375000	-0.060925
	42.380000	-0.116833
	42.385000	-0.241804
	42.390000	-0.192474
	42.395000	-0.064213
	42.400000	-0.113544
	42.405000	-0.238516
	42.410000	-0.185896
	42.415000	-0.060925
	42.420000	-0.106967
	42.425000	-0.238516
	42.430000	-0.182607
	42.435000	-0.057636
	42.440000	-0.103678
	42.445000	-0.225361
	42.450000	-0.172741
	42.455000	-0.047770
	42.460000	-0.093812
	42.465000	-0.212206
	42.470000	-0.162875
	42.475000	-0.037904
	42.480000	-0.087234
	42.485000	-0.205628
	42.490000	-0.153009
	42.495000	-0.034615
	42.500000	-0.077368
	42.505000	-0.192474
	42.510000	-0.139854
	42.515000	-0.018171
	42.520000	-0.064213
	42.525000	-0.179319
	42.530000	-0.129988
	42.535000	-0.008305
	42.540000	-0.051059
	42.545000	-0.166164
	42.550000	-0.113544
	42.555000	0.004850
	42.560000	-0.041192
	42.565000	-0.159586
	42.570000	-0.103678
	42.575000	0.014716
	42.580000	-0.041192
	42.585000	-0.159586
	42.590000	-0.113544
	42.595000	-0.001728
	42.600000	-0.054347
	42.605000	-0.179319
	42.610000	-0.133277
	42.615000	-0.024749
	42.620000	-0.080657
	42.625000	-0.205628
	42.630000	-0.153009
	42.635000	-0.037904
	42.640000	-0.093812
	42.645000	-0.218783
	42.650000	-0.169453
	42.655000	-0.060925
	42.660000	-0.116833
	42.665000	-0.238516
	42.670000	-0.189185
	42.675000	-0.074080
	42.680000	-0.136565
	42.685000	-0.258248
	42.690000	-0.202340
	42.695000	-0.090523
	42.700000	-0.153009
	42.705000	-0.281269
	42.710000	-0.228650
	42.715000	-0.106967
	42.720000	-0.176030
	42.725000	-0.297713
	42.730000	-0.245093
	42.735000	-0.126699
	42.740000	-0.195762
	42.745000	-0.320734
	42.750000	-0.261537
	42.755000	-0.136565
	42.760000	-0.202340
	42.765000	-0.330600
	42.770000	-0.264826
	42.775000	-0.133277
	42.780000	-0.208917
	42.785000	-0.330600
	42.790000	-0.264826
	42.795000	-0.139854
	42.800000	-0.212206
	42.805000	-0.340466
	42.810000	-0.264826
	42.815000	-0.136565
	42.820000	-0.205628
	42.825000	-0.330600
	42.830000	-0.264826
	42.835000	-0.136565
	42.840000	-0.202340
	42.845000	-0.327311
	42.850000	-0.264826
	42.855000	-0.133277
	42.860000	-0.208917
	42.865000	-0.333889
	42.870000	-0.261537
	42.875000	-0.139854
	42.880000	-0.205628
	42.885000	-0.330600
	42.890000	-0.258248
	42.895000	-0.136565
	42.900000	-0.202340
	42.905000	-0.324023
	42.910000	-0.258248
	42.915000	-0.129988
	42.920000	-0.199051
	42.925000	-0.327311
	42.930000	-0.258248
	42.935000	-0.126699
	42.940000	-0.205628
	42.945000	-0.330600
	42.950000	-0.251671
	42.955000	-0.123410
	42.960000	-0.199051
	42.965000	-0.324023
	42.970000	-0.248382
	42.975000	-0.123410
	42.980000	-0.195762
	42.985000	-0.320734
	42.990000	-0.251671
	42.995000	-0.120122
	43.000000	-0.199051
	43.005000	-0.320734
	43.010000	-0.245093
	43.015000	-0.120122
	43.020000	-0.199051
	43.025000	-0.320734
	43.030000	-0.245093
	43.035000	-0.116833
	43.040000	-0.202340
	43.045000	-0.320734
	43.050000	-0.245093
	43.055000	-0.116833
	43.060000	-0.192474
	43.065000	-0.320734
	43.070000	-0.241804
	43.075000	-0.116833
	43.080000	-0.195762
	43.085000	-0.317445
	43.090000	-0.238516
	43.095000	-0.116833
	43.100000	-0.192474
	43.105000	-0.310868
	43.110000	-0.241804
	43.115000	-0.110256
	43.120000	-0.189185
	43.125000	-0.314156
	43.130000	-0.228650
	43.135000	-0.103678
	43.140000	-0.192474
	43.145000	-0.310868
	43.150000	-0.228650
	43.155000	-0.106967
	43.160000	-0.189185
	43.165000	-0.310868
	43.170000	-0.228650
	43.175000	-0.106967
	43.180000	-0.189185
	43.185000	-0.310868
	43.190000	-0.231938
	43.195000	-0.103678
	43.200000	-0.185896
	43.205000	-0.310868
	43.210000	-0.225361
	43.215000	-0.106967
	43.220000	-0.189185
	43.225000	-0.310868
	43.230000	-0.225361
	43.235000	-0.106967
	43.240000	-0.185896
	43.245000	-0.314156
	43.250000	-0.228650
	43.255000	-0.103678
	43.260000	-0.185896
	43.265000	-0.307579
	43.270000	-0.222072
	43.275000	-0.106967
	43.280000	-0.189185
	43.285000	-0.310868
	43.290000	-0.228650
	43.295000	-0.106967
	43.300000	-0.192474
	43.305000	-0.310868
	43.310000	-0.225361
	43.315000	-0.106967
	43.320000	-0.192474
	43.325000	-0.307579
	43.330000	-0.225361
	43.335000	-0.103678
	43.340000	-0.185896
	43.345000	-0.307579
	43.350000	-0.222072
	43.355000	-0.100389
	43.360000	-0.195762
	43.365000	-0.310868
	43.370000	-0.225361
	43.375000	-0.100389
	43.380000	-0.185896
	43.385000	-0.307579
	43.390000	-0.215495
	43.395000	-0.097101
	43.400000	-0.189185
	43.405000	-0.301001
	43.410000	-0.215495
	43.415000	-0.097101
	43.420000	-0.189185
	43.425000	-0.301001
	43.430000	-0.215495
	43.435000	-0.093812
	43.440000	-0.189185
	43.445000	-0.307579
	43.450000	-0.212206
	43.455000	-0.103678
	43.460000	-0.189185
	43.465000	-0.307579
	43.470000	-0.218783
	43.475000	-0.097101
	43.480000	-0.185896
	43.485000	-0.304290
	43.490000	-0.215495
	43.495000	-0.100389
	43.500000	-0.185896
	43.505000	-0.304290
	43.510000	-0.212206
	43.515000	-0.100389
	43.520000	-0.192474
	43.525000	-0.301001
	43.530000	-0.215495
	43.535000	-0.100389
	43.540000	-0.192474
	43.545000	-0.307579
	43.550000	-0.212206
	43.555000	-0.103678
	43.560000	-0.192474
	43.565000	-0.307579
	43.570000	-0.215495
	43.575000	-0.093812
	43.580000	-0.195762
	43.585000	-0.310868
	43.590000	-0.215495
	43.595000	-0.100389
	43.600000	-0.195762
	43.605000	-0.307579
	43.610000	-0.218783
	43.615000	-0.100389
	43.620000	-0.192474
	43.625000	-0.310868
	43.630000	-0.212206
	43.635000	-0.103678
	43.640000	-0.199051
	43.645000	-0.314156
	43.650000	-0.215495
	43.655000	-0.103678
	43.660000	-0.195762
	43.665000	-0.314156
	43.670000	-0.218783
	43.675000	-0.097101
	43.680000	-0.199051
	43.685000	-0.310868
	43.690000	-0.212206
	43.695000	-0.100389
	43.700000	-0.202340
	43.705000	-0.310868
	43.710000	-0.208917
	43.715000	-0.097101
	43.720000	-0.195762
	43.725000	-0.310868
	43.730000	-0.215495
	43.735000	-0.097101
	43.740000	-0.199051
	43.745000	-0.310868
	43.750000	-0.212206
	43.755000	-0.097101
	43.760000	-0.199051
	43.765000	-0.310868
	43.770000	-0.212206
	43.775000	-0.097101
	43.780000	-0.199051
	43.785000	-0.310868
	43.790000	-0.205628
	43.795000	-0.097101
	43.800000	-0.202340
	43.805000	-0.310868
	43.810000	-0.208917
	43.815000	-0.097101
	43.820000	-0.199051
	43.825000	-0.310868
	43.830000	-0.208917
	43.835000	-0.097101
	43.840000	-0.199051
	43.845000	-0.304290
	43.850000	-0.205628
	43.855000	-0.097101
	43.860000	-0.199051
	43.865000	-0.304290
	43.870000	-0.202340
	43.875000	-0.090523
	43.880000	-0.199051
	43.885000	-0.307579
	43.890000	-0.202340
	43.895000	-0.090523
	43.900000	-0.199051
	43.905000	-0.304290
	43.910000	-0.202340
	43.915000	-0.093812
	43.920000	-0.195762
	43.925000	-0.307579
	43.930000	-0.199051
	43.935000	-0.093812
	43.940000	-0.202340
	43.945000	-0.307579
	43.950000	-0.199051
	43.955000	-0.093812
	43.960000	-0.199051
	43.965000	-0.304290
	43.970000	-0.195762
	43.975000	-0.093812
	43.980000	-0.199051
	43.985000	-0.304290
	43.990000	-0.202340
	43.995000	-0.097101
	44.000000	-0.199051
	44.005000	-0.304290
	44.010000	-0.202340
	44.015000	-0.090523
	44.020000	-0.199051
	44.025000	-0.304290
	44.030000	-0.195762
	44.035000	-0.090523
	44.040000	-0.199051
	44.045000	-0.304290
	44.050000	-0.199051
	44.055000	-0.093812
	44.060000	-0.202340
	44.065000	-0.310868
	44.070000	-0.202340
	44.075000	-0.093812
	44.080000	-0.205628
	44.085000	-0.307579
	44.090000	-0.195762
	44.095000	-0.093812
	44.100000	-0.199051
	44.105000	-0.307579
	44.110000	-0.192474
	44.115000	-0.090523
	44.120000	-0.202340
	44.125000	-0.307579
	44.130000	-0.192474
	44.135000	-0.090523
	44.140000	-0.199051
	44.145000	-0.301001
	44.150000	-0.189185
	44.155000	-0.090523
	44.160000	-0.202340
	44.165000	-0.304290
	44.170000	-0.189185
	44.175000	-0.090523
	44.180000	-0.202340
	44.185000	-0.304290
	44.190000	-0.192474
	44.195000	-0.087234
	44.200000	-0.202340
	44.205000	-0.301001
	44.210000	-0.189185
	44.215000	-0.087234
	44.220000	-0.202340
	44.225000	-0.297713
	44.230000	-0.185896
	44.235000	-0.083946
	44.240000	-0.199051
	44.245000	-0.301001
	44.250000	-0.182607
	44.255000	-0.087234
	44.260000	-0.199051
	44.265000	-0.301001
	44.270000	-0.179319
	44.275000	-0.080657
	44.280000	-0.192474
	44.285000	-0.291135
	44.290000	-0.176030
	44.295000	-0.080657
	44.300000	-0.195762
	44.305000	-0.291135
	44.310000	-0.179319
	44.315000	-0.080657
	44.320000	-0.192474
	44.325000	-0.287847
	44.330000	-0.172741
	44.335000	-0.077368
	44.340000	-0.185896
	44.345000	-0.287847
	44.350000	-0.172741
	44.355000	-0.074080
	44.360000	-0.189185
	44.365000	-0.284558
	44.370000	-0.169453
	44.375000	-0.074080
	44.380000	-0.189185
	44.385000	-0.284558
	44.390000	-0.172741
	44.395000	-0.074080
	44.400000	-0.189185
	44.405000	-0.281269
	44.410000	-0.169453
	44.415000	-0.074080
	44.420000	-0.189185
	44.425000	-0.287847
	44.430000	-0.169453
	44.435000	-0.070791
	44.440000	-0.185896
	44.445000	-0.287847
	44.450000	-0.172741
	44.455000	-0.074080
	44.460000	-0.195762
	44.465000	-0.287847
	44.470000	-0.166164
	44.475000	-0.074080
	44.480000	-0.199051
	44.485000	-0.287847
	44.490000	-0.166164
	44.495000	-0.077368
	44.500000	-0.195762
	44.505000	-0.291135
	44.510000	-0.169453
	44.515000	-0.077368
	44.520000	-0.205628
	44.525000	-0.294424
	44.530000	-0.176030
	44.535000	-0.083946
	44.540000	-0.212206
	44.545000	-0.297713
	44.550000	-0.179319
	44.555000	-0.090523
	44.560000	-0.212206
	44.565000	-0.301001
	44.570000	-0.182607
	44.575000	-0.087234
	44.580000	-0.208917
	44.585000	-0.301001
	44.590000	-0.182607
	44.595000	-0.087234
	44.600000	-0.208917
	44.605000	-0.301001
	44.610000	-0.169453
	44.615000	-0.087234
	44.620000	-0.202340
	44.625000	-0.294424
	44.630000	-0.172741
	44.635000	-0.080657
	44.640000	-0.202340
	44.645000	-0.294424
	44.650000	-0.172741
	44.655000	-0.087234
	44.660000	-0.205628
	44.665000	-0.294424
	44.670000	-0.172741
	44.675000	-0.087234
	44.680000	-0.205628
	44.685000	-0.297713
	44.690000	-0.176030
	44.695000	-0.097101
	44.700000	-0.215495
	44.705000	-0.301001
	44.710000	-0.179319
	44.715000	-0.093812
	44.720000	-0.212206
	44.725000	-0.301001
	44.730000	-0.179319
	44.735000	-0.087234
	44.740000	-0.208917
	44.745000	-0.291135
	44.750000	-0.176030
	44.755000	-0.093812
	44.760000	-0.205628
	44.765000	-0.287847
	44.770000	-0.169453
	44.775000	-0.087234
	44.780000	-0.202340
	44.785000	-0.284558
	44.790000	-0.166164
	44.795000	-0.087234
	44.800000	-0.202340
	44.805000	-0.277980
	44.810000	-0.166164
	44.815000	-0.083946
	44.820000	-0.202340
	44.825000	-0.291135
	44.830000	-0.189185
	44.835000	-0.120122
	44.840000	-0.245093
	44.845000	-0.337177
	44.850000	-0.245093
	44.855000	-0.182607
	44.860000	-0.314156
	44.865000	-0.409529
	44.870000	-0.317445
	44.875000	-0.258248
	44.880000	-0.383220
	44.885000	-0.475304
	44.890000	-0.376642
	44.895000	-0.310868
	44.900000	-0.429262
	44.905000	-0.518057
	44.910000	-0.422684
	44.915000	-0.363487
	44.920000	-0.472015
	44.925000	-0.547656
	44.930000	-0.442417
	44.935000	-0.366776
	44.940000	-0.458860
	44.945000	-0.521346
	44.950000	-0.412818
	44.955000	-0.333889
	44.960000	-0.422684
	44.965000	-0.485170
	44.970000	-0.376642
	44.975000	-0.294424
	44.980000	-0.386508
	44.985000	-0.442417
	44.990000	-0.333889
	44.995000	-0.251671
	45.000000	-0.343755
	45.005000	-0.399663
	45.010000	-0.291135
	45.015000	-0.212206
	45.020000	-0.304290
	45.025000	-0.360198
	45.030000	-0.251671
	45.035000	-0.172741
	45.040000	-0.258248
	45.045000	-0.317445
	45.050000	-0.199051
	45.055000	-0.126699
	45.060000	-0.208917
	45.065000	-0.264826
	45.070000	-0.156298
	45.075000	-0.077368
	45.080000	-0.162875
	45.085000	-0.218783
	45.090000	-0.093812
	45.095000	-0.008305
	45.100000	-0.077368
	45.105000	-0.116833
	45.110000	0.011427
	45.115000	0.103511
	45.120000	0.014716
	45.125000	-0.037904
	45.130000	0.077202
	45.135000	0.149554
	45.140000	0.047603
	45.145000	-0.021460
	45.150000	0.080490
	45.155000	0.139687
	45.160000	0.031160
	45.165000	-0.034615
	45.170000	0.070624
	45.175000	0.126533
	45.180000	0.014716
	45.185000	-0.057636
	45.190000	0.044314
	45.195000	0.100223
	45.200000	-0.011594
	45.205000	-0.087234
	45.210000	0.021293
	45.215000	0.077202
	45.220000	-0.041192
	45.225000	-0.120122
	45.230000	-0.011594
	45.235000	0.044314
	45.240000	-0.074080
	45.245000	-0.149720
	45.250000	-0.041192
	45.255000	0.018005
	45.260000	-0.110256
	45.265000	-0.179319
	45.270000	-0.070791
	45.275000	-0.008305
	45.280000	-0.136565
	45.285000	-0.205628
	45.290000	-0.093812
	45.295000	-0.028037
	45.300000	-0.156298
	45.305000	-0.222072
	45.310000	-0.103678
	45.315000	-0.047770
	45.320000	-0.176030
	45.325000	-0.238516
	45.330000	-0.126699
	45.335000	-0.064213
	45.340000	-0.192474
	45.345000	-0.258248
	45.350000	-0.139854
	45.355000	-0.074080
	45.360000	-0.205628
	45.365000	-0.268114
	45.370000	-0.146431
	45.375000	-0.083946
	45.380000	-0.205628
	45.385000	-0.277980
	45.390000	-0.146431
	45.395000	-0.080657
	45.400000	-0.208917
	45.405000	-0.274692
	45.410000	-0.143143
	45.415000	-0.080657
	45.420000	-0.208917
	45.425000	-0.268114
	45.430000	-0.139854
	45.435000	-0.077368
	45.440000	-0.208917
	45.445000	-0.268114
	45.450000	-0.133277
	45.455000	-0.080657
	45.460000	-0.205628
	45.465000	-0.264826
	45.470000	-0.136565
	45.475000	-0.077368
	45.480000	-0.208917
	45.485000	-0.271403
	45.490000	-0.143143
	45.495000	-0.080657
	45.500000	-0.212206
	45.505000	-0.277980
	45.510000	-0.143143
	45.515000	-0.080657
	45.520000	-0.208917
	45.525000	-0.277980
	45.530000	-0.143143
	45.535000	-0.083946
	45.540000	-0.218783
	45.545000	-0.281269
	45.550000	-0.143143
	45.555000	-0.087234
	45.560000	-0.215495
	45.565000	-0.277980
	45.570000	-0.143143
	45.575000	-0.083946
	45.580000	-0.218783
	45.585000	-0.274692
	45.590000	-0.143143
	45.595000	-0.080657
	45.600000	-0.215495
	45.605000	-0.277980
	45.610000	-0.139854
	45.615000	-0.080657
	45.620000	-0.218783
	45.625000	-0.274692
	45.630000	-0.136565
	45.635000	-0.080657
	45.640000	-0.222072
	45.645000	-0.274692
	45.650000	-0.139854
	45.655000	-0.083946
	45.660000	-0.218783
	45.665000	-0.277980
	45.670000	-0.139854
	45.675000	-0.080657
	45.680000	-0.215495
	45.685000	-0.271403
	45.690000	-0.136565
	45.695000	-0.077368
	45.700000	-0.218783
	45.705000	-0.268114
	45.710000	-0.133277
	45.715000	-0.077368
	45.720000	-0.215495
	45.725000	-0.274692
	45.730000	-0.129988
	45.735000	-0.077368
	45.740000	-0.222072
	45.745000	-0.274692
	45.750000	-0.129988
	45.755000	-0.080657
	45.760000	-0.222072
	45.765000	-0.277980
	45.770000	-0.133277
	45.775000	-0.077368
	45.780000	-0.222072
	45.785000	-0.268114
	45.790000	-0.133277
	45.795000	-0.074080
	45.800000	-0.218783
	45.805000	-0.271403
	45.810000	-0.133277
	45.815000	-0.080657
	45.820000	-0.218783
	45.825000	-0.271403
	45.830000	-0.129988
	45.835000	-0.077368
	45.840000	-0.222072
	45.845000	-0.274692
	45.850000	-0.126699
	45.855000	-0.080657
	45.860000	-0.218783
	45.865000	-0.268114
	45.870000	-0.126699
	45.875000	-0.077368
	45.880000	-0.218783
	45.885000	-0.264826
	45.890000	-0.123410
	45.895000	-0.080657
	45.900000	-0.215495
	45.905000	-0.268114
	45.910000	-0.126699
	45.915000	-0.074080
	45.920000	-0.218783
	45.925000	-0.268114
	45.930000	-0.126699
	45.935000	-0.077368
	45.940000	-0.218783
	45.945000	-0.274692
	45.950000	-0.120122
	45.955000	-0.080657
	45.960000	-0.222072
	45.965000	-0.268114
	45.970000	-0.123410
	45.975000	-0.077368
	45.980000	-0.222072
	45.985000	-0.268114
	45.990000	-0.126699
	45.995000	-0.074080
	46.000000	-0.215495
	46.005000	-0.264826
	46.010000	-0.116833
	46.015000	-0.070791
	46.020000	-0.222072
	46.025000	-0.264826
	46.030000	-0.113544
	46.035000	-0.074080
	46.040000	-0.218783
	46.045000	-0.261537
	46.050000	-0.116833
	46.055000	-0.070791
	46.060000	-0.218783
	46.065000	-0.261537
	46.070000	-0.110256
	46.075000	-0.070791
	46.080000	-0.215495
	46.085000	-0.258248
	46.090000	-0.113544
	46.095000	-0.070791
	46.100000	-0.218783
	46.105000	-0.264826
	46.110000	-0.120122
	46.115000	-0.074080
	46.120000	-0.215495
	46.125000	-0.261537
	46.130000	-0.113544
	46.135000	-0.074080
	46.140000	-0.218783
	46.145000	-0.261537
	46.150000	-0.113544
	46.155000	-0.070791
	46.160000	-0.218783
	46.165000	-0.258248
	46.170000	-0.120122
	46.175000	-0.077368
	46.180000	-0.218783
	46.185000	-0.258248
	46.190000	-0.120122
	46.195000	-0.074080
	46.200000	-0.218783
	46.205000	-0.264826
	46.210000	-0.116833
	46.215000	-0.074080
	46.220000	-0.228650
	46.225000	-0.261537
	46.230000	-0.116833
	46.235000	-0.070791
	46.240000	-0.222072
	46.245000	-0.264826
	46.250000	-0.120122
	46.255000	-0.077368
	46.260000	-0.222072
	46.265000	-0.261537
	46.270000	-0.116833
	46.275000	-0.080657
	46.280000	-0.225361
	46.285000	-0.264826
	46.290000	-0.116833
	46.295000	-0.077368
	46.300000	-0.228650
	46.305000	-0.264826
	46.310000	-0.120122
	46.315000	-0.080657
	46.320000	-0.231938
	46.325000	-0.264826
	46.330000	-0.120122
	46.335000	-0.077368
	46.340000	-0.228650
	46.345000	-0.264826
	46.350000	-0.113544
	46.355000	-0.077368
	46.360000	-0.228650
	46.365000	-0.264826
	46.370000	-0.120122
	46.375000	-0.083946
	46.380000	-0.231938
	46.385000	-0.261537
	46.390000	-0.110256
	46.395000	-0.083946
	46.400000	-0.231938
	46.405000	-0.264826
	46.410000	-0.116833
	46.415000	-0.083946
	46.420000	-0.231938
	46.425000	-0.261537
	46.430000	-0.120122
	46.435000	-0.083946
	46.440000	-0.231938
	46.445000	-0.261537
	46.450000	-0.120122
	46.455000	-0.077368
	46.460000	-0.235227
	46.465000	-0.264826
	46.470000	-0.116833
	46.475000	-0.083946
	46.480000	-0.235227
	46.485000	-0.258248
	46.490000	-0.116833
	46.495000	-0.083946
	46.500000	-0.235227
	46.505000	-0.264826
	46.510000	-0.113544
	46.515000	-0.083946
	46.520000	-0.238516
	46.525000	-0.264826
	46.530000	-0.116833
	46.535000	-0.087234
	46.540000	-0.231938
	46.545000	-0.268114
	46.550000	-0.113544
	46.555000	-0.087234
	46.560000	-0.235227
	46.565000	-0.264826
	46.570000	-0.113544
	46.575000	-0.083946
	46.580000	-0.241804
	46.585000	-0.264826
	46.590000	-0.120122
	46.595000	-0.090523
	46.600000	-0.241804
	46.605000	-0.261537
	46.610000	-0.110256
	46.615000	-0.087234
	46.620000	-0.241804
	46.625000	-0.268114
	46.630000	-0.120122
	46.635000	-0.093812
	46.640000	-0.245093
	46.645000	-0.268114
	46.650000	-0.120122
	46.655000	-0.093812
	46.660000	-0.245093
	46.665000	-0.268114
	46.670000	-0.116833
	46.675000	-0.090523
	46.680000	-0.245093
	46.685000	-0.268114
	46.690000	-0.116833
	46.695000	-0.090523
	46.700000	-0.245093
	46.705000	-0.268114
	46.710000	-0.116833
	46.715000	-0.097101
	46.720000	-0.248382
	46.725000	-0.264826
	46.730000	-0.113544
	46.735000	-0.093812
	46.740000	-0.248382
	46.745000	-0.271403
	46.750000	-0.120122
	46.755000	-0.093812
	46.760000	-0.251671
	46.765000	-0.271403
	46.770000	-0.120122
	46.775000	-0.090523
	46.780000	-0.248382
	46.785000	-0.268114
	46.790000	-0.116833
	46.795000	-0.093812
	46.800000	-0.241804
	46.805000	-0.264826
	46.810000	-0.113544
	46.815000	-0.093812
	46.820000	-0.245093
	46.825000	-0.268114
	46.830000	-0.113544
	46.835000	-0.093812
	46.840000	-0.245093
	46.845000	-0.264826
	46.850000	-0.110256
	46.855000	-0.093812
	46.860000	-0.241804
	46.865000	-0.258248
	46.870000	-0.110256
	46.875000	-0.093812
	46.880000	-0.241804
	46.885000	-0.261537
	46.890000	-0.113544
	46.895000	-0.090523
	46.900000	-0.241804
	46.905000	-0.258248
	46.910000	-0.106967
	46.915000	-0.083946
	46.920000	-0.238516
	46.925000	-0.261537
	46.930000	-0.103678
	46.935000	-0.090523
	46.940000	-0.235227
	46.945000	-0.254959
	46.950000	-0.106967
	46.955000	-0.090523
	46.960000	-0.245093
	46.965000	-0.251671
	46.970000	-0.100389
	46.975000	-0.090523
	46.980000	-0.238516
	46.985000	-0.258248
	46.990000	-0.097101
	46.995000	-0.087234
	47.000000	-0.241804
	47.005000	-0.254959
	47.010000	-0.103678
	47.015000	-0.087234
	47.020000	-0.241804
	47.025000	-0.254959
	47.030000	-0.100389
	47.035000	-0.093812
	47.040000	-0.241804
	47.045000	-0.251671
	47.050000	-0.103678
	47.055000	-0.087234
	47.060000	-0.245093
	47.065000	-0.251671
	47.070000	-0.103678
	47.075000	-0.087234
	47.080000	-0.238516
	47.085000	-0.251671
	47.090000	-0.100389
	47.095000	-0.087234
	47.100000	-0.241804
	47.105000	-0.241804
	47.110000	-0.093812
	47.115000	-0.087234
	47.120000	-0.231938
	47.125000	-0.241804
	47.130000	-0.100389
	47.135000	-0.090523
	47.140000	-0.238516
	47.145000	-0.248382
	47.150000	-0.093812
	47.155000	-0.077368
	47.160000	-0.235227
	47.165000	-0.245093
	47.170000	-0.090523
	47.175000	-0.080657
	47.180000	-0.235227
	47.185000	-0.248382
	47.190000	-0.093812
	47.195000	-0.083946
	47.200000	-0.238516
	47.205000	-0.245093
	47.210000	-0.087234
	47.215000	-0.087234
	47.220000	-0.238516
	47.225000	-0.245093
	47.230000	-0.093812
	47.235000	-0.083946
	47.240000	-0.238516
	47.245000	-0.241804
	47.250000	-0.093812
	47.255000	-0.083946
	47.260000	-0.241804
	47.265000	-0.245093
	47.270000	-0.087234
	47.275000	-0.090523
	47.280000	-0.241804
	47.285000	-0.248382
	47.290000	-0.087234
	47.295000	-0.080657
	47.300000	-0.235227
	47.305000	-0.241804
	47.310000	-0.090523
	47.315000	-0.083946
	47.320000	-0.235227
	47.325000	-0.241804
	47.330000	-0.087234
	47.335000	-0.080657
	47.340000	-0.235227
	47.345000	-0.241804
	47.350000	-0.080657
	47.355000	-0.080657
	47.360000	-0.231938
	47.365000	-0.238516
	47.370000	-0.080657
	47.375000	-0.080657
	47.380000	-0.238516
	47.385000	-0.235227
	47.390000	-0.080657
	47.395000	-0.080657
	47.400000	-0.231938
	47.405000	-0.235227
	47.410000	-0.083946
	47.415000	-0.080657
	47.420000	-0.238516
	47.425000	-0.241804
	47.430000	-0.083946
	47.435000	-0.087234
	47.440000	-0.245093
	47.445000	-0.245093
	47.450000	-0.090523
	47.455000	-0.090523
	47.460000	-0.245093
	47.465000	-0.245093
	47.470000	-0.093812
	47.475000	-0.090523
	47.480000	-0.245093
	47.485000	-0.241804
	47.490000	-0.090523
	47.495000	-0.093812
	47.500000	-0.248382
	47.505000	-0.245093
	47.510000	-0.093812
	47.515000	-0.093812
	47.520000	-0.251671
	47.525000	-0.251671
	47.530000	-0.090523
	47.535000	-0.093812
	47.540000	-0.251671
	47.545000	-0.245093
	47.550000	-0.093812
	47.555000	-0.097101
	47.560000	-0.248382
	47.565000	-0.245093
	47.570000	-0.093812
	47.575000	-0.103678
	47.580000	-0.251671
	47.585000	-0.248382
	47.590000	-0.093812
	47.595000	-0.100389
	47.600000	-0.254959
	47.605000	-0.251671
	47.610000	-0.100389
	47.615000	-0.100389
	47.620000	-0.258248
	47.625000	-0.251671
	47.630000	-0.093812
	47.635000	-0.103678
	47.640000	-0.258248
	47.645000	-0.248382
	47.650000	-0.097101
	47.655000	-0.103678
	47.660000	-0.254959
	47.665000	-0.245093
	47.670000	-0.093812
	47.675000	-0.103678
	47.680000	-0.254959
	47.685000	-0.245093
	47.690000	-0.093812
	47.695000	-0.103678
	47.700000	-0.258248
	47.705000	-0.241804
