2024/7/26 	 22:14:30 
 This file comes from Vt only measurement 	 1.000000E-1 
 Voltage Sensitivity 	 0.000000E+0 
 Sampling rate 	 200 
 Number of samples per channel 	 -1 
 No filter from Labview 	 	 	 
 	 
 ***End_of_Header*** 
 	 Time 	  Voltage 	 Filtered Voltage 	 
	0.000000	0.281102
	0.005000	0.110089
	0.010000	0.054181
	0.015000	0.221905
	0.020000	0.277814
	0.025000	0.116666
	0.030000	0.057469
	0.035000	0.218617
	0.040000	0.281102
	0.045000	0.110089
	0.050000	0.057469
	0.055000	0.218617
	0.060000	0.284391
	0.065000	0.110089
	0.070000	0.054181
	0.075000	0.215328
	0.080000	0.274525
	0.085000	0.116666
	0.090000	0.054181
	0.095000	0.221905
	0.100000	0.274525
	0.105000	0.110089
	0.110000	0.054181
	0.115000	0.218617
	0.120000	0.281102
	0.125000	0.116666
	0.130000	0.050892
	0.135000	0.218617
	0.140000	0.277814
	0.145000	0.116666
	0.150000	0.057469
	0.155000	0.218617
	0.160000	0.284391
	0.165000	0.113378
	0.170000	0.057469
	0.175000	0.218617
	0.180000	0.281102
	0.185000	0.119955
	0.190000	0.050892
	0.195000	0.218617
	0.200000	0.274525
	0.205000	0.119955
	0.210000	0.050892
	0.215000	0.215328
	0.220000	0.281102
	0.225000	0.113378
	0.230000	0.050892
	0.235000	0.215328
	0.240000	0.281102
	0.245000	0.116666
	0.250000	0.050892
	0.255000	0.218617
	0.260000	0.281102
	0.265000	0.113378
	0.270000	0.054181
	0.275000	0.218617
	0.280000	0.281102
	0.285000	0.116666
	0.290000	0.054181
	0.295000	0.215328
	0.300000	0.281102
	0.305000	0.123244
	0.310000	0.054181
	0.315000	0.212039
	0.320000	0.281102
	0.325000	0.119955
	0.330000	0.054181
	0.335000	0.215328
	0.340000	0.277814
	0.345000	0.126533
	0.350000	0.054181
	0.355000	0.215328
	0.360000	0.277814
	0.365000	0.116666
	0.370000	0.054181
	0.375000	0.215328
	0.380000	0.284391
	0.385000	0.123244
	0.390000	0.054181
	0.395000	0.215328
	0.400000	0.277814
	0.405000	0.126533
	0.410000	0.054181
	0.415000	0.212039
	0.420000	0.281102
	0.425000	0.123244
	0.430000	0.054181
	0.435000	0.215328
	0.440000	0.281102
	0.445000	0.123244
	0.450000	0.054181
	0.455000	0.215328
	0.460000	0.281102
	0.465000	0.123244
	0.470000	0.054181
	0.475000	0.208751
	0.480000	0.287680
	0.485000	0.126533
	0.490000	0.050892
	0.495000	0.215328
	0.500000	0.281102
	0.505000	0.123244
	0.510000	0.054181
	0.515000	0.212039
	0.520000	0.287680
	0.525000	0.126533
	0.530000	0.054181
	0.535000	0.215328
	0.540000	0.284391
	0.545000	0.129821
	0.550000	0.054181
	0.555000	0.212039
	0.560000	0.290969
	0.565000	0.129821
	0.570000	0.057469
	0.575000	0.212039
	0.580000	0.290969
	0.585000	0.129821
	0.590000	0.054181
	0.595000	0.212039
	0.600000	0.284391
	0.605000	0.129821
	0.610000	0.057469
	0.615000	0.212039
	0.620000	0.287680
	0.625000	0.129821
	0.630000	0.050892
	0.635000	0.218617
	0.640000	0.284391
	0.645000	0.129821
	0.650000	0.054181
	0.655000	0.215328
	0.660000	0.287680
	0.665000	0.126533
	0.670000	0.057469
	0.675000	0.212039
	0.680000	0.287680
	0.685000	0.129821
	0.690000	0.050892
	0.695000	0.212039
	0.700000	0.290969
	0.705000	0.133110
	0.710000	0.057469
	0.715000	0.212039
	0.720000	0.287680
	0.725000	0.129821
	0.730000	0.050892
	0.735000	0.212039
	0.740000	0.287680
	0.745000	0.133110
	0.750000	0.054181
	0.755000	0.212039
	0.760000	0.287680
	0.765000	0.136399
	0.770000	0.057469
	0.775000	0.212039
	0.780000	0.281102
	0.785000	0.129821
	0.790000	0.050892
	0.795000	0.212039
	0.800000	0.287680
	0.805000	0.136399
	0.810000	0.054181
	0.815000	0.208751
	0.820000	0.287680
	0.825000	0.133110
	0.830000	0.057469
	0.835000	0.212039
	0.840000	0.287680
	0.845000	0.133110
	0.850000	0.054181
	0.855000	0.208751
	0.860000	0.287680
	0.865000	0.136399
	0.870000	0.050892
	0.875000	0.202173
	0.880000	0.287680
	0.885000	0.133110
	0.890000	0.054181
	0.895000	0.202173
	0.900000	0.284391
	0.905000	0.129821
	0.910000	0.047603
	0.915000	0.212039
	0.920000	0.287680
	0.925000	0.133110
	0.930000	0.054181
	0.935000	0.205462
	0.940000	0.287680
	0.945000	0.133110
	0.950000	0.057469
	0.955000	0.202173
	0.960000	0.281102
	0.965000	0.136399
	0.970000	0.054181
	0.975000	0.205462
	0.980000	0.284391
	0.985000	0.133110
	0.990000	0.047603
	0.995000	0.198884
	1.000000	0.290969
	1.005000	0.129821
	1.010000	0.047603
	1.015000	0.205462
	1.020000	0.284391
	1.025000	0.133110
	1.030000	0.047603
	1.035000	0.205462
	1.040000	0.284391
	1.045000	0.133110
	1.050000	0.047603
	1.055000	0.202173
	1.060000	0.290969
	1.065000	0.139687
	1.070000	0.050892
	1.075000	0.205462
	1.080000	0.290969
	1.085000	0.136399
	1.090000	0.050892
	1.095000	0.198884
	1.100000	0.290969
	1.105000	0.139687
	1.110000	0.050892
	1.115000	0.205462
	1.120000	0.287680
	1.125000	0.139687
	1.130000	0.050892
	1.135000	0.202173
	1.140000	0.287680
	1.145000	0.136399
	1.150000	0.047603
	1.155000	0.202173
	1.160000	0.290969
	1.165000	0.133110
	1.170000	0.050892
	1.175000	0.202173
	1.180000	0.287680
	1.185000	0.139687
	1.190000	0.047603
	1.195000	0.198884
	1.200000	0.287680
	1.205000	0.139687
	1.210000	0.047603
	1.215000	0.198884
	1.220000	0.287680
	1.225000	0.136399
	1.230000	0.054181
	1.235000	0.202173
	1.240000	0.290969
	1.245000	0.133110
	1.250000	0.044314
	1.255000	0.198884
	1.260000	0.290969
	1.265000	0.136399
	1.270000	0.050892
	1.275000	0.198884
	1.280000	0.287680
	1.285000	0.139687
	1.290000	0.047603
	1.295000	0.202173
	1.300000	0.287680
	1.305000	0.139687
	1.310000	0.047603
	1.315000	0.195596
	1.320000	0.294257
	1.325000	0.142976
	1.330000	0.050892
	1.335000	0.195596
	1.340000	0.287680
	1.345000	0.142976
	1.350000	0.050892
	1.355000	0.195596
	1.360000	0.290969
	1.365000	0.149554
	1.370000	0.044314
	1.375000	0.202173
	1.380000	0.290969
	1.385000	0.146265
	1.390000	0.050892
	1.395000	0.202173
	1.400000	0.290969
	1.405000	0.142976
	1.410000	0.054181
	1.415000	0.195596
	1.420000	0.294257
	1.425000	0.149554
	1.430000	0.054181
	1.435000	0.198884
	1.440000	0.297546
	1.445000	0.149554
	1.450000	0.050892
	1.455000	0.205462
	1.460000	0.297546
	1.465000	0.142976
	1.470000	0.050892
	1.475000	0.202173
	1.480000	0.294257
	1.485000	0.146265
	1.490000	0.054181
	1.495000	0.202173
	1.500000	0.297546
	1.505000	0.149554
	1.510000	0.050892
	1.515000	0.202173
	1.520000	0.300835
	1.525000	0.152842
	1.530000	0.054181
	1.535000	0.208751
	1.540000	0.310701
	1.545000	0.156131
	1.550000	0.064047
	1.555000	0.212039
	1.560000	0.323856
	1.565000	0.179152
	1.570000	0.083779
	1.575000	0.248215
	1.580000	0.360032
	1.585000	0.231772
	1.590000	0.156131
	1.595000	0.327145
	1.600000	0.452116
	1.605000	0.330433
	1.610000	0.248215
	1.615000	0.422518
	1.620000	0.547489
	1.625000	0.412651
	1.630000	0.333722
	1.635000	0.494869
	1.640000	0.603397
	1.645000	0.461982
	1.650000	0.363321
	1.655000	0.508024
	1.660000	0.613263
	1.665000	0.461982
	1.670000	0.360032
	1.675000	0.504736
	1.680000	0.606686
	1.685000	0.455405
	1.690000	0.350166
	1.695000	0.488292
	1.700000	0.590242
	1.705000	0.442250
	1.710000	0.333722
	1.715000	0.478426
	1.720000	0.583665
	1.725000	0.432384
	1.730000	0.323856
	1.735000	0.465271
	1.740000	0.563933
	1.745000	0.415940
	1.750000	0.307412
	1.755000	0.452116
	1.760000	0.547489
	1.765000	0.402785
	1.770000	0.294257
	1.775000	0.435672
	1.780000	0.540912
	1.785000	0.392919
	1.790000	0.281102
	1.795000	0.422518
	1.800000	0.527757
	1.805000	0.379764
	1.810000	0.267948
	1.815000	0.409363
	1.820000	0.514602
	1.825000	0.373187
	1.830000	0.258081
	1.835000	0.399496
	1.840000	0.504736
	1.845000	0.356743
	1.850000	0.244927
	1.855000	0.389630
	1.860000	0.498158
	1.865000	0.346877
	1.870000	0.238349
	1.875000	0.383053
	1.880000	0.488292
	1.885000	0.343588
	1.890000	0.228483
	1.895000	0.366609
	1.900000	0.478426
	1.905000	0.333722
	1.910000	0.225194
	1.915000	0.369898
	1.920000	0.475137
	1.925000	0.330433
	1.930000	0.221905
	1.935000	0.360032
	1.940000	0.468560
	1.945000	0.320567
	1.950000	0.212039
	1.955000	0.356743
	1.960000	0.458694
	1.965000	0.320567
	1.970000	0.202173
	1.975000	0.343588
	1.980000	0.455405
	1.985000	0.317278
	1.990000	0.205462
	1.995000	0.343588
	2.000000	0.452116
	2.005000	0.310701
	2.010000	0.195596
	2.015000	0.337011
	2.020000	0.445539
	2.025000	0.304124
	2.030000	0.185730
	2.035000	0.323856
	2.040000	0.435672
	2.045000	0.294257
	2.050000	0.172575
	2.055000	0.310701
	2.060000	0.419229
	2.065000	0.274525
	2.070000	0.156131
	2.075000	0.297546
	2.080000	0.402785
	2.085000	0.258081
	2.090000	0.142976
	2.095000	0.274525
	2.100000	0.383053
	2.105000	0.244927
	2.110000	0.113378
	2.115000	0.241638
	2.120000	0.343588
	2.125000	0.195596
	2.130000	0.073913
	2.135000	0.198884
	2.140000	0.300835
	2.145000	0.156131
	2.150000	0.031160
	2.155000	0.162708
	2.160000	0.264659
	2.165000	0.119955
	2.170000	-0.001728
	2.175000	0.126533
	2.180000	0.228483
	2.185000	0.083779
	2.190000	-0.037904
	2.195000	0.083779
	2.200000	0.182441
	2.205000	0.034448
	2.210000	-0.097101
	2.215000	0.024582
	2.220000	0.113378
	2.225000	-0.041192
	2.230000	-0.189185
	2.235000	-0.080657
	2.240000	0.008138
	2.245000	-0.143143
	2.250000	-0.274692
	2.255000	-0.149720
	2.260000	-0.047770
	2.265000	-0.182607
	2.270000	-0.297713
	2.275000	-0.166164
	2.280000	-0.054347
	2.285000	-0.185896
	2.290000	-0.301001
	2.295000	-0.162875
	2.300000	-0.047770
	2.305000	-0.169453
	2.310000	-0.284558
	2.315000	-0.153009
	2.320000	-0.031326
	2.325000	-0.159586
	2.330000	-0.264826
	2.335000	-0.139854
	2.340000	-0.018171
	2.345000	-0.146431
	2.350000	-0.258248
	2.355000	-0.129988
	2.360000	-0.005016
	2.365000	-0.133277
	2.370000	-0.245093
	2.375000	-0.113544
	2.380000	0.001561
	2.385000	-0.120122
	2.390000	-0.231938
	2.395000	-0.106967
	2.400000	0.018005
	2.405000	-0.106967
	2.410000	-0.218783
	2.415000	-0.087234
	2.420000	0.031160
	2.425000	-0.097101
	2.430000	-0.208917
	2.435000	-0.080657
	2.440000	0.041026
	2.445000	-0.087234
	2.450000	-0.199051
	2.455000	-0.070791
	2.460000	0.044314
	2.465000	-0.077368
	2.470000	-0.195762
	2.475000	-0.060925
	2.480000	0.054181
	2.485000	-0.067502
	2.490000	-0.185896
	2.495000	-0.060925
	2.500000	0.064047
	2.505000	-0.060925
	2.510000	-0.176030
	2.515000	-0.051059
	2.520000	0.067335
	2.525000	-0.051059
	2.530000	-0.172741
	2.535000	-0.041192
	2.540000	0.073913
	2.545000	-0.047770
	2.550000	-0.162875
	2.555000	-0.037904
	2.560000	0.083779
	2.565000	-0.041192
	2.570000	-0.162875
	2.575000	-0.034615
	2.580000	0.090357
	2.585000	-0.037904
	2.590000	-0.159586
	2.595000	-0.034615
	2.600000	0.087068
	2.605000	-0.031326
	2.610000	-0.153009
	2.615000	-0.024749
	2.620000	0.090357
	2.625000	-0.031326
	2.630000	-0.153009
	2.635000	-0.028037
	2.640000	0.090357
	2.645000	-0.028037
	2.650000	-0.149720
	2.655000	-0.028037
	2.660000	0.100223
	2.665000	-0.028037
	2.670000	-0.153009
	2.675000	-0.024749
	2.680000	0.100223
	2.685000	-0.018171
	2.690000	-0.146431
	2.695000	-0.021460
	2.700000	0.106800
	2.705000	-0.018171
	2.710000	-0.139854
	2.715000	-0.014883
	2.720000	0.110089
	2.725000	-0.014883
	2.730000	-0.139854
	2.735000	-0.014883
	2.740000	0.110089
	2.745000	-0.008305
	2.750000	-0.136565
	2.755000	-0.008305
	2.760000	0.113378
	2.765000	-0.005016
	2.770000	-0.129988
	2.775000	-0.014883
	2.780000	0.113378
	2.785000	-0.001728
	2.790000	-0.129988
	2.795000	-0.008305
	2.800000	0.116666
	2.805000	-0.005016
	2.810000	-0.129988
	2.815000	-0.005016
	2.820000	0.119955
	2.825000	0.001561
	2.830000	-0.133277
	2.835000	-0.005016
	2.840000	0.116666
	2.845000	-0.005016
	2.850000	-0.126699
	2.855000	-0.008305
	2.860000	0.116666
	2.865000	0.008138
	2.870000	-0.129988
	2.875000	-0.008305
	2.880000	0.119955
	2.885000	0.004850
	2.890000	-0.120122
	2.895000	-0.005016
	2.900000	0.123244
	2.905000	0.004850
	2.910000	-0.123410
	2.915000	-0.005016
	2.920000	0.126533
	2.925000	0.004850
	2.930000	-0.120122
	2.935000	-0.001728
	2.940000	0.123244
	2.945000	0.004850
	2.950000	-0.126699
	2.955000	-0.005016
	2.960000	0.126533
	2.965000	0.011427
	2.970000	-0.116833
	2.975000	-0.001728
	2.980000	0.129821
	2.985000	0.008138
	2.990000	-0.113544
	2.995000	0.001561
	3.000000	0.133110
	3.005000	0.014716
	3.010000	-0.110256
	3.015000	0.004850
	3.020000	0.133110
	3.025000	0.011427
	3.030000	-0.110256
	3.035000	0.004850
	3.040000	0.139687
	3.045000	0.018005
	3.050000	-0.110256
	3.055000	0.011427
	3.060000	0.133110
	3.065000	0.027871
	3.070000	-0.110256
	3.075000	0.008138
	3.080000	0.142976
	3.085000	0.024582
	3.090000	-0.103678
	3.095000	0.008138
	3.100000	0.139687
	3.105000	0.027871
	3.110000	-0.097101
	3.115000	0.014716
	3.120000	0.139687
	3.125000	0.031160
	3.130000	-0.100389
	3.135000	0.014716
	3.140000	0.146265
	3.145000	0.034448
	3.150000	-0.100389
	3.155000	0.014716
	3.160000	0.142976
	3.165000	0.031160
	3.170000	-0.097101
	3.175000	0.018005
	3.180000	0.146265
	3.185000	0.034448
	3.190000	-0.093812
	3.195000	0.018005
	3.200000	0.152842
	3.205000	0.041026
	3.210000	-0.090523
	3.215000	0.018005
	3.220000	0.152842
	3.225000	0.041026
	3.230000	-0.090523
	3.235000	0.021293
	3.240000	0.152842
	3.245000	0.044314
	3.250000	-0.090523
	3.255000	0.018005
	3.260000	0.156131
	3.265000	0.044314
	3.270000	-0.090523
	3.275000	0.021293
	3.280000	0.156131
	3.285000	0.041026
	3.290000	-0.087234
	3.295000	0.018005
	3.300000	0.149554
	3.305000	0.044314
	3.310000	-0.090523
	3.315000	0.021293
	3.320000	0.156131
	3.325000	0.044314
	3.330000	-0.087234
	3.335000	0.024582
	3.340000	0.156131
	3.345000	0.047603
	3.350000	-0.083946
	3.355000	0.018005
	3.360000	0.159420
	3.365000	0.050892
	3.370000	-0.083946
	3.375000	0.027871
	3.380000	0.169286
	3.385000	0.057469
	3.390000	-0.087234
	3.395000	0.027871
	3.400000	0.165997
	3.405000	0.054181
	3.410000	-0.080657
	3.415000	0.031160
	3.420000	0.169286
	3.425000	0.060758
	3.430000	-0.077368
	3.435000	0.031160
	3.440000	0.172575
	3.445000	0.060758
	3.450000	-0.067502
	3.455000	0.034448
	3.460000	0.175863
	3.465000	0.067335
	3.470000	-0.074080
	3.475000	0.037737
	3.480000	0.175863
	3.485000	0.070624
	3.490000	-0.067502
	3.495000	0.041026
	3.500000	0.185730
	3.505000	0.077202
	3.510000	-0.060925
	3.515000	0.050892
	3.520000	0.189018
	3.525000	0.083779
	3.530000	-0.057636
	3.535000	0.057469
	3.540000	0.205462
	3.545000	0.096934
	3.550000	-0.041192
	3.555000	0.077202
	3.560000	0.228483
	3.565000	0.136399
	3.570000	0.011427
	3.575000	0.136399
	3.580000	0.310701
	3.585000	0.225194
	3.590000	0.110089
	3.595000	0.241638
	3.600000	0.412651
	3.605000	0.337011
	3.610000	0.221905
	3.615000	0.350166
	3.620000	0.511313
	3.625000	0.422518
	3.630000	0.284391
	3.635000	0.399496
	3.640000	0.540912
	3.645000	0.442250
	3.650000	0.294257
	3.655000	0.399496
	3.660000	0.547489
	3.665000	0.445539
	3.670000	0.294257
	3.675000	0.399496
	3.680000	0.544200
	3.685000	0.432384
	3.690000	0.281102
	3.695000	0.386342
	3.700000	0.527757
	3.705000	0.425806
	3.710000	0.274525
	3.715000	0.369898
	3.720000	0.514602
	3.725000	0.406074
	3.730000	0.258081
	3.735000	0.360032
	3.740000	0.504736
	3.745000	0.396208
	3.750000	0.241638
	3.755000	0.343588
	3.760000	0.491581
	3.765000	0.389630
	3.770000	0.235060
	3.775000	0.337011
	3.780000	0.485003
	3.785000	0.373187
	3.790000	0.228483
	3.795000	0.327145
	3.800000	0.468560
	3.805000	0.369898
	3.810000	0.215328
	3.815000	0.313990
	3.820000	0.461982
	3.825000	0.363321
	3.830000	0.212039
	3.835000	0.304124
	3.840000	0.455405
	3.845000	0.350166
	3.850000	0.195596
	3.855000	0.294257
	3.860000	0.442250
	3.865000	0.340299
	3.870000	0.189018
	3.875000	0.287680
	3.880000	0.438961
	3.885000	0.333722
	3.890000	0.179152
	3.895000	0.277814
	3.900000	0.429095
	3.905000	0.323856
	3.910000	0.165997
	3.915000	0.267948
	3.920000	0.419229
	3.925000	0.313990
	3.930000	0.156131
	3.935000	0.254793
	3.940000	0.402785
	3.945000	0.300835
	3.950000	0.149554
	3.955000	0.241638
	3.960000	0.389630
	3.965000	0.290969
	3.970000	0.129821
	3.975000	0.228483
	3.980000	0.373187
	3.985000	0.267948
	3.990000	0.113378
	3.995000	0.205462
	4.000000	0.346877
	4.005000	0.244927
	4.010000	0.083779
	4.015000	0.172575
	4.020000	0.313990
	4.025000	0.208751
	4.030000	0.044314
	4.035000	0.136399
	4.040000	0.274525
	4.045000	0.172575
	4.050000	0.011427
	4.055000	0.096934
	4.060000	0.231772
	4.065000	0.129821
	4.070000	-0.031326
	4.075000	0.044314
	4.080000	0.179152
	4.085000	0.073913
	4.090000	-0.097101
	4.095000	-0.024749
	4.100000	0.100223
	4.105000	-0.024749
	4.110000	-0.208917
	4.115000	-0.153009
	4.120000	-0.028037
	4.125000	-0.139854
	4.130000	-0.314156
	4.135000	-0.235227
	4.140000	-0.087234
	4.145000	-0.189185
	4.150000	-0.343755
	4.155000	-0.254959
	4.160000	-0.100389
	4.165000	-0.195762
	4.170000	-0.337177
	4.175000	-0.245093
	4.180000	-0.100389
	4.185000	-0.182607
	4.190000	-0.330600
	4.195000	-0.231938
	4.200000	-0.080657
	4.205000	-0.166164
	4.210000	-0.314156
	4.215000	-0.218783
	4.220000	-0.067502
	4.225000	-0.153009
	4.230000	-0.297713
	4.235000	-0.208917
	4.240000	-0.054347
	4.245000	-0.136565
	4.250000	-0.284558
	4.255000	-0.192474
	4.260000	-0.037904
	4.265000	-0.123410
	4.270000	-0.268114
	4.275000	-0.179319
	4.280000	-0.024749
	4.285000	-0.110256
	4.290000	-0.251671
	4.295000	-0.162875
	4.300000	-0.008305
	4.305000	-0.093812
	4.310000	-0.238516
	4.315000	-0.146431
	4.320000	0.001561
	4.325000	-0.077368
	4.330000	-0.231938
	4.335000	-0.136565
	4.340000	0.014716
	4.345000	-0.070791
	4.350000	-0.215495
	4.355000	-0.129988
	4.360000	0.021293
	4.365000	-0.057636
	4.370000	-0.208917
	4.375000	-0.116833
	4.380000	0.027871
	4.385000	-0.054347
	4.390000	-0.199051
	4.395000	-0.113544
	4.400000	0.037737
	4.405000	-0.041192
	4.410000	-0.189185
	4.415000	-0.103678
	4.420000	0.047603
	4.425000	-0.034615
	4.430000	-0.182607
	4.435000	-0.093812
	4.440000	0.054181
	4.445000	-0.028037
	4.450000	-0.176030
	4.455000	-0.090523
	4.460000	0.060758
	4.465000	-0.018171
	4.470000	-0.166164
	4.475000	-0.080657
	4.480000	0.064047
	4.485000	-0.011594
	4.490000	-0.166164
	4.495000	-0.080657
	4.500000	0.070624
	4.505000	-0.005016
	4.510000	-0.156298
	4.515000	-0.077368
	4.520000	0.080490
	4.525000	-0.005016
	4.530000	-0.156298
	4.535000	-0.067502
	4.540000	0.083779
	4.545000	0.004850
	4.550000	-0.149720
	4.555000	-0.064213
	4.560000	0.093645
	4.565000	0.004850
	4.570000	-0.143143
	4.575000	-0.064213
	4.580000	0.093645
	4.585000	0.011427
	4.590000	-0.139854
	4.595000	-0.060925
	4.600000	0.090357
	4.605000	0.011427
	4.610000	-0.139854
	4.615000	-0.060925
	4.620000	0.093645
	4.625000	0.014716
	4.630000	-0.136565
	4.635000	-0.057636
	4.640000	0.096934
	4.645000	0.011427
	4.650000	-0.133277
	4.655000	-0.054347
	4.660000	0.100223
	4.665000	0.014716
	4.670000	-0.133277
	4.675000	-0.054347
	4.680000	0.100223
	4.685000	0.021293
	4.690000	-0.133277
	4.695000	-0.054347
	4.700000	0.100223
	4.705000	0.018005
	4.710000	-0.133277
	4.715000	-0.051059
	4.720000	0.103511
	4.725000	0.018005
	4.730000	-0.129988
	4.735000	-0.054347
	4.740000	0.100223
	4.745000	0.024582
	4.750000	-0.129988
	4.755000	-0.051059
	4.760000	0.103511
	4.765000	0.024582
	4.770000	-0.129988
	4.775000	-0.054347
	4.780000	0.103511
	4.785000	0.027871
	4.790000	-0.129988
	4.795000	-0.051059
	4.800000	0.103511
	4.805000	0.031160
	4.810000	-0.123410
	4.815000	-0.051059
	4.820000	0.100223
	4.825000	0.027871
	4.830000	-0.123410
	4.835000	-0.051059
	4.840000	0.106800
	4.845000	0.027871
	4.850000	-0.123410
	4.855000	-0.047770
	4.860000	0.106800
	4.865000	0.034448
	4.870000	-0.123410
	4.875000	-0.044481
	4.880000	0.110089
	4.885000	0.041026
	4.890000	-0.116833
	4.895000	-0.037904
	4.900000	0.113378
	4.905000	0.041026
	4.910000	-0.116833
	4.915000	-0.041192
	4.920000	0.116666
	4.925000	0.041026
	4.930000	-0.110256
	4.935000	-0.034615
	4.940000	0.123244
	4.945000	0.044314
	4.950000	-0.110256
	4.955000	-0.034615
	4.960000	0.119955
	4.965000	0.047603
	4.970000	-0.110256
	4.975000	-0.034615
	4.980000	0.126533
	4.985000	0.057469
	4.990000	-0.103678
	4.995000	-0.031326
	5.000000	0.126533
	5.005000	0.057469
	5.010000	-0.106967
	5.015000	-0.024749
	5.020000	0.123244
	5.025000	0.054181
	5.030000	-0.103678
	5.035000	-0.024749
	5.040000	0.136399
	5.045000	0.054181
	5.050000	-0.100389
	5.055000	-0.024749
	5.060000	0.133110
	5.065000	0.057469
	5.070000	-0.097101
	5.075000	-0.024749
	5.080000	0.133110
	5.085000	0.060758
	5.090000	-0.097101
	5.095000	-0.028037
	5.100000	0.133110
	5.105000	0.064047
	5.110000	-0.093812
	5.115000	-0.018171
	5.120000	0.136399
	5.125000	0.064047
	5.130000	-0.093812
	5.135000	-0.021460
	5.140000	0.136399
	5.145000	0.067335
	5.150000	-0.087234
	5.155000	-0.018171
	5.160000	0.142976
	5.165000	0.064047
	5.170000	-0.090523
	5.175000	-0.018171
	5.180000	0.142976
	5.185000	0.067335
	5.190000	-0.090523
	5.195000	-0.024749
	5.200000	0.142976
	5.205000	0.070624
	5.210000	-0.087234
	5.215000	-0.018171
	5.220000	0.142976
	5.225000	0.073913
	5.230000	-0.087234
	5.235000	-0.014883
	5.240000	0.142976
	5.245000	0.077202
	5.250000	-0.087234
	5.255000	-0.014883
	5.260000	0.146265
	5.265000	0.073913
	5.270000	-0.077368
	5.275000	-0.014883
	5.280000	0.142976
	5.285000	0.073913
	5.290000	-0.083946
	5.295000	-0.014883
	5.300000	0.142976
	5.305000	0.073913
	5.310000	-0.080657
	5.315000	-0.011594
	5.320000	0.146265
	5.325000	0.080490
	5.330000	-0.077368
	5.335000	-0.008305
	5.340000	0.146265
	5.345000	0.087068
	5.350000	-0.080657
	5.355000	-0.011594
	5.360000	0.152842
	5.365000	0.083779
	5.370000	-0.077368
	5.375000	-0.008305
	5.380000	0.149554
	5.385000	0.087068
	5.390000	-0.074080
	5.395000	-0.008305
	5.400000	0.152842
	5.405000	0.087068
	5.410000	-0.077368
	5.415000	-0.008305
	5.420000	0.159420
	5.425000	0.090357
	5.430000	-0.070791
	5.435000	-0.001728
	5.440000	0.159420
	5.445000	0.093645
	5.450000	-0.070791
	5.455000	0.001561
	5.460000	0.162708
	5.465000	0.093645
	5.470000	-0.067502
	5.475000	-0.001728
	5.480000	0.169286
	5.485000	0.100223
	5.490000	-0.064213
	5.495000	-0.001728
	5.500000	0.165997
	5.505000	0.100223
	5.510000	-0.064213
	5.515000	0.001561
	5.520000	0.165997
	5.525000	0.103511
	5.530000	-0.060925
	5.535000	0.011427
	5.540000	0.175863
	5.545000	0.110089
	5.550000	-0.051059
	5.555000	0.014716
	5.560000	0.189018
	5.565000	0.123244
	5.570000	-0.034615
	5.575000	0.034448
	5.580000	0.208751
	5.585000	0.152842
	5.590000	0.004850
	5.595000	0.083779
	5.600000	0.274525
	5.605000	0.238349
	5.610000	0.096934
	5.615000	0.189018
	5.620000	0.373187
	5.625000	0.340299
	5.630000	0.195596
	5.635000	0.281102
	5.640000	0.475137
	5.645000	0.429095
	5.650000	0.274525
	5.655000	0.356743
	5.660000	0.531045
	5.665000	0.478426
	5.670000	0.310701
	5.675000	0.386342
	5.680000	0.554066
	5.685000	0.491581
	5.690000	0.320567
	5.695000	0.383053
	5.700000	0.550778
	5.705000	0.491581
	5.710000	0.317278
	5.715000	0.379764
	5.720000	0.537623
	5.725000	0.475137
	5.730000	0.304124
	5.735000	0.360032
	5.740000	0.527757
	5.745000	0.465271
	5.750000	0.290969
	5.755000	0.350166
	5.760000	0.517891
	5.765000	0.448827
	5.770000	0.274525
	5.775000	0.333722
	5.780000	0.504736
	5.785000	0.438961
	5.790000	0.264659
	5.795000	0.320567
	5.800000	0.494869
	5.805000	0.422518
	5.810000	0.251504
	5.815000	0.304124
	5.820000	0.471848
	5.825000	0.409363
	5.830000	0.235060
	5.835000	0.294257
	5.840000	0.461982
	5.845000	0.396208
	5.850000	0.225194
	5.855000	0.284391
	5.860000	0.455405
	5.865000	0.389630
	5.870000	0.212039
	5.875000	0.264659
	5.880000	0.445539
	5.885000	0.379764
	5.890000	0.202173
	5.895000	0.258081
	5.900000	0.429095
	5.905000	0.366609
	5.910000	0.192307
	5.915000	0.248215
	5.920000	0.422518
	5.925000	0.356743
	5.930000	0.182441
	5.935000	0.235060
	5.940000	0.412651
	5.945000	0.350166
	5.950000	0.175863
	5.955000	0.231772
	5.960000	0.402785
	5.965000	0.343588
	5.970000	0.172575
	5.975000	0.228483
	5.980000	0.399496
	5.985000	0.343588
	5.990000	0.159420
	5.995000	0.218617
	6.000000	0.392919
	6.005000	0.333722
	6.010000	0.159420
	6.015000	0.215328
	6.020000	0.386342
	6.025000	0.327145
	6.030000	0.156131
	6.035000	0.208751
	6.040000	0.386342
	6.045000	0.327145
	6.050000	0.149554
	6.055000	0.205462
	6.060000	0.379764
	6.065000	0.320567
	6.070000	0.149554
	6.075000	0.202173
	6.080000	0.376475
	6.085000	0.320567
	6.090000	0.142976
	6.095000	0.202173
	6.100000	0.373187
	6.105000	0.317278
	6.110000	0.139687
	6.115000	0.192307
	6.120000	0.366609
	6.125000	0.304124
	6.130000	0.133110
	6.135000	0.179152
	6.140000	0.350166
	6.145000	0.300835
	6.150000	0.113378
	6.155000	0.172575
	6.160000	0.337011
	6.165000	0.277814
	6.170000	0.100223
	6.175000	0.149554
	6.180000	0.323856
	6.185000	0.258081
	6.190000	0.083779
	6.195000	0.136399
	6.200000	0.300835
	6.205000	0.238349
	6.210000	0.057469
	6.215000	0.106800
	6.220000	0.271236
	6.225000	0.205462
	6.230000	0.027871
	6.235000	0.070624
	6.240000	0.228483
	6.245000	0.172575
	6.250000	-0.014883
	6.255000	0.024582
	6.260000	0.182441
	6.265000	0.126533
	6.270000	-0.054347
	6.275000	-0.024749
	6.280000	0.136399
	6.285000	0.070624
	6.290000	-0.116833
	6.295000	-0.080657
	6.300000	0.073913
	6.305000	0.001561
	6.310000	-0.195762
	6.315000	-0.179319
	6.320000	-0.047770
	6.325000	-0.133277
	6.330000	-0.330600
	6.335000	-0.301001
	6.340000	-0.156298
	6.345000	-0.215495
	6.350000	-0.389797
	6.355000	-0.350332
	6.360000	-0.179319
	6.365000	-0.222072
	6.370000	-0.389797
	6.375000	-0.333889
	6.380000	-0.162875
	6.385000	-0.208917
	6.390000	-0.373353
	6.395000	-0.324023
	6.400000	-0.153009
	6.405000	-0.189185
	6.410000	-0.350332
	6.415000	-0.301001
	6.420000	-0.129988
	6.425000	-0.169453
	6.430000	-0.333889
	6.435000	-0.281269
	6.440000	-0.113544
	6.445000	-0.156298
	6.450000	-0.314156
	6.455000	-0.264826
	6.460000	-0.093812
	6.465000	-0.139854
	6.470000	-0.301001
	6.475000	-0.251671
	6.480000	-0.080657
	6.485000	-0.120122
	6.490000	-0.284558
	6.495000	-0.238516
	6.500000	-0.067502
	6.505000	-0.110256
	6.510000	-0.274692
	6.515000	-0.228650
	6.520000	-0.054347
	6.525000	-0.100389
	6.530000	-0.264826
	6.535000	-0.212206
	6.540000	-0.041192
	6.545000	-0.087234
	6.550000	-0.248382
	6.555000	-0.208917
	6.560000	-0.034615
	6.565000	-0.080657
	6.570000	-0.238516
	6.575000	-0.192474
	6.580000	-0.028037
	6.585000	-0.064213
	6.590000	-0.228650
	6.595000	-0.185896
	6.600000	-0.011594
	6.605000	-0.054347
	6.610000	-0.218783
	6.615000	-0.176030
	6.620000	-0.008305
	6.625000	-0.044481
	6.630000	-0.208917
	6.635000	-0.159586
	6.640000	0.004850
	6.645000	-0.037904
	6.650000	-0.199051
	6.655000	-0.153009
	6.660000	0.014716
	6.665000	-0.024749
	6.670000	-0.192474
	6.675000	-0.143143
	6.680000	0.024582
	6.685000	-0.014883
	6.690000	-0.182607
	6.695000	-0.133277
	6.700000	0.037737
	6.705000	-0.005016
	6.710000	-0.172741
	6.715000	-0.126699
	6.720000	0.044314
	6.725000	0.004850
	6.730000	-0.162875
	6.735000	-0.116833
	6.740000	0.054181
	6.745000	0.011427
	6.750000	-0.156298
	6.755000	-0.113544
	6.760000	0.057469
	6.765000	0.014716
	6.770000	-0.153009
	6.775000	-0.106967
	6.780000	0.057469
	6.785000	0.024582
	6.790000	-0.146431
	6.795000	-0.106967
	6.800000	0.070624
	6.805000	0.024582
	6.810000	-0.143143
	6.815000	-0.100389
	6.820000	0.067335
	6.825000	0.024582
	6.830000	-0.139854
	6.835000	-0.093812
	6.840000	0.067335
	6.845000	0.034448
	6.850000	-0.136565
	6.855000	-0.097101
	6.860000	0.077202
	6.865000	0.034448
	6.870000	-0.133277
	6.875000	-0.090523
	6.880000	0.077202
	6.885000	0.037737
	6.890000	-0.129988
	6.895000	-0.097101
	6.900000	0.080490
	6.905000	0.041026
	6.910000	-0.129988
	6.915000	-0.087234
	6.920000	0.080490
	6.925000	0.041026
	6.930000	-0.126699
	6.935000	-0.083946
	6.940000	0.080490
	6.945000	0.044314
	6.950000	-0.126699
	6.955000	-0.083946
	6.960000	0.083779
	6.965000	0.044314
	6.970000	-0.120122
	6.975000	-0.080657
	6.980000	0.083779
	6.985000	0.050892
	6.990000	-0.120122
	6.995000	-0.080657
	7.000000	0.090357
	7.005000	0.054181
	7.010000	-0.116833
	7.015000	-0.080657
	7.020000	0.090357
	7.025000	0.054181
	7.030000	-0.113544
	7.035000	-0.077368
	7.040000	0.093645
	7.045000	0.054181
	7.050000	-0.113544
	7.055000	-0.080657
	7.060000	0.100223
	7.065000	0.060758
	7.070000	-0.103678
	7.075000	-0.070791
	7.080000	0.096934
	7.085000	0.060758
	7.090000	-0.100389
	7.095000	-0.070791
	7.100000	0.106800
	7.105000	0.064047
	7.110000	-0.100389
	7.115000	-0.064213
	7.120000	0.106800
	7.125000	0.070624
	7.130000	-0.097101
	7.135000	-0.064213
	7.140000	0.106800
	7.145000	0.077202
	7.150000	-0.097101
	7.155000	-0.060925
	7.160000	0.110089
	7.165000	0.080490
	7.170000	-0.090523
	7.175000	-0.057636
	7.180000	0.110089
	7.185000	0.080490
	7.190000	-0.090523
	7.195000	-0.054347
	7.200000	0.116666
	7.205000	0.083779
	7.210000	-0.083946
	7.215000	-0.054347
	7.220000	0.119955
	7.225000	0.087068
	7.230000	-0.080657
	7.235000	-0.051059
	7.240000	0.119955
	7.245000	0.093645
	7.250000	-0.083946
	7.255000	-0.044481
	7.260000	0.126533
	7.265000	0.090357
	7.270000	-0.077368
	7.275000	-0.047770
	7.280000	0.129821
	7.285000	0.093645
	7.290000	-0.070791
	7.295000	-0.041192
	7.300000	0.129821
	7.305000	0.093645
	7.310000	-0.070791
	7.315000	-0.041192
	7.320000	0.129821
	7.325000	0.096934
	7.330000	-0.074080
	7.335000	-0.037904
	7.340000	0.133110
	7.345000	0.103511
	7.350000	-0.067502
	7.355000	-0.037904
	7.360000	0.129821
	7.365000	0.103511
	7.370000	-0.070791
	7.375000	-0.034615
	7.380000	0.136399
	7.385000	0.106800
	7.390000	-0.060925
	7.395000	-0.028037
	7.400000	0.136399
	7.405000	0.106800
	7.410000	-0.064213
	7.415000	-0.031326
	7.420000	0.133110
	7.425000	0.103511
	7.430000	-0.067502
	7.435000	-0.028037
	7.440000	0.136399
	7.445000	0.106800
	7.450000	-0.067502
	7.455000	-0.031326
	7.460000	0.136399
	7.465000	0.106800
	7.470000	-0.060925
	7.475000	-0.031326
	7.480000	0.136399
	7.485000	0.110089
	7.490000	-0.060925
	7.495000	-0.031326
	7.500000	0.139687
	7.505000	0.113378
	7.510000	-0.060925
	7.515000	-0.031326
	7.520000	0.142976
	7.525000	0.116666
	7.530000	-0.060925
	7.535000	-0.024749
	7.540000	0.142976
	7.545000	0.116666
	7.550000	-0.060925
	7.555000	-0.024749
	7.560000	0.149554
	7.565000	0.123244
	7.570000	-0.051059
	7.575000	-0.018171
	7.580000	0.152842
	7.585000	0.123244
	7.590000	-0.047770
	7.595000	-0.014883
	7.600000	0.159420
	7.605000	0.139687
	7.610000	-0.034615
	7.615000	-0.005016
	7.620000	0.175863
	7.625000	0.152842
	7.630000	-0.018171
	7.635000	0.021293
	7.640000	0.205462
	7.645000	0.195596
	7.650000	0.034448
	7.655000	0.090357
	7.660000	0.277814
	7.665000	0.287680
	7.670000	0.142976
	7.675000	0.198884
	7.680000	0.415940
	7.685000	0.422518
	7.690000	0.274525
	7.695000	0.323856
	7.700000	0.517891
	7.705000	0.508024
	7.710000	0.333722
	7.715000	0.369898
	7.720000	0.550778
	7.725000	0.531045
	7.730000	0.350166
	7.735000	0.376475
	7.740000	0.550778
	7.745000	0.524468
	7.750000	0.343588
	7.755000	0.363321
	7.760000	0.537623
	7.765000	0.514602
	7.770000	0.327145
	7.775000	0.346877
	7.780000	0.514602
	7.785000	0.488292
	7.790000	0.300835
	7.795000	0.320567
	7.800000	0.501447
	7.805000	0.468560
	7.810000	0.284391
	7.815000	0.304124
	7.820000	0.481715
	7.825000	0.452116
	7.830000	0.271236
	7.835000	0.290969
	7.840000	0.468560
	7.845000	0.435672
	7.850000	0.258081
	7.855000	0.271236
	7.860000	0.448827
	7.865000	0.425806
	7.870000	0.238349
	7.875000	0.258081
	7.880000	0.432384
	7.885000	0.409363
	7.890000	0.225194
	7.895000	0.241638
	7.900000	0.422518
	7.905000	0.402785
	7.910000	0.208751
	7.915000	0.228483
	7.920000	0.409363
	7.925000	0.386342
	7.930000	0.205462
	7.935000	0.221905
	7.940000	0.409363
	7.945000	0.383053
	7.950000	0.198884
	7.955000	0.218617
	7.960000	0.399496
	7.965000	0.379764
	7.970000	0.195596
	7.975000	0.212039
	7.980000	0.399496
	7.985000	0.373187
	7.990000	0.192307
	7.995000	0.208751
	8.000000	0.389630
	8.005000	0.373187
	8.010000	0.182441
	8.015000	0.205462
	8.020000	0.383053
	8.025000	0.366609
	8.030000	0.182441
	8.035000	0.195596
	8.040000	0.376475
	8.045000	0.356743
	8.050000	0.169286
	8.055000	0.192307
	8.060000	0.369898
	8.065000	0.350166
	8.070000	0.169286
	8.075000	0.179152
	8.080000	0.363321
	8.085000	0.343588
	8.090000	0.162708
	8.095000	0.172575
	8.100000	0.356743
	8.105000	0.340299
	8.110000	0.156131
	8.115000	0.169286
	8.120000	0.353454
	8.125000	0.330433
	8.130000	0.149554
	8.135000	0.169286
	8.140000	0.346877
	8.145000	0.333722
	8.150000	0.149554
	8.155000	0.169286
	8.160000	0.350166
	8.165000	0.333722
	8.170000	0.149554
	8.175000	0.169286
	8.180000	0.350166
	8.185000	0.333722
	8.190000	0.146265
	8.195000	0.169286
	8.200000	0.346877
	8.205000	0.330433
	8.210000	0.146265
	8.215000	0.156131
	8.220000	0.340299
	8.225000	0.320567
	8.230000	0.133110
	8.235000	0.152842
	8.240000	0.327145
	8.245000	0.313990
	8.250000	0.129821
	8.255000	0.142976
	8.260000	0.317278
	8.265000	0.300835
	8.270000	0.116666
	8.275000	0.133110
	8.280000	0.310701
	8.285000	0.290969
	8.290000	0.100223
	8.295000	0.116666
	8.300000	0.294257
	8.305000	0.274525
	8.310000	0.083779
	8.315000	0.096934
	8.320000	0.267948
	8.325000	0.244927
	8.330000	0.064047
	8.335000	0.067335
	8.340000	0.241638
	8.345000	0.215328
	8.350000	0.024582
	8.355000	0.031160
	8.360000	0.198884
	8.365000	0.169286
	8.370000	-0.021460
	8.375000	-0.021460
	8.380000	0.142976
	8.385000	0.113378
	8.390000	-0.080657
	8.395000	-0.077368
	8.400000	0.073913
	8.405000	0.034448
	8.410000	-0.176030
	8.415000	-0.202340
	8.420000	-0.067502
	8.425000	-0.129988
	8.430000	-0.356910
	8.435000	-0.386508
	8.440000	-0.241804
	8.445000	-0.277980
	8.450000	-0.465438
	8.455000	-0.465438
	8.460000	-0.297713
	8.465000	-0.310868
	8.470000	-0.475304
	8.475000	-0.462149
	8.480000	-0.284558
	8.485000	-0.287847
	8.490000	-0.458860
	8.495000	-0.442417
	8.500000	-0.264826
	8.505000	-0.268114
	8.510000	-0.432550
	8.515000	-0.422684
	8.520000	-0.245093
	8.525000	-0.248382
	8.530000	-0.419395
	8.535000	-0.402952
	8.540000	-0.225361
	8.545000	-0.235227
	8.550000	-0.399663
	8.555000	-0.386508
	8.560000	-0.205628
	8.565000	-0.212206
	8.570000	-0.379931
	8.575000	-0.363487
	8.580000	-0.189185
	8.585000	-0.192474
	8.590000	-0.356910
	8.595000	-0.343755
	8.600000	-0.169453
	8.605000	-0.166164
	8.610000	-0.343755
	8.615000	-0.324023
	8.620000	-0.149720
	8.625000	-0.156298
	8.630000	-0.324023
	8.635000	-0.310868
	8.640000	-0.136565
	8.645000	-0.136565
	8.650000	-0.304290
	8.655000	-0.297713
	8.660000	-0.116833
	8.665000	-0.116833
	8.670000	-0.287847
	8.675000	-0.274692
	8.680000	-0.100389
	8.685000	-0.110256
	8.690000	-0.271403
	8.695000	-0.264826
	8.700000	-0.087234
	8.705000	-0.093812
	8.710000	-0.261537
	8.715000	-0.248382
	8.720000	-0.077368
	8.725000	-0.077368
	8.730000	-0.248382
	8.735000	-0.235227
	8.740000	-0.064213
	8.745000	-0.067502
	8.750000	-0.235227
	8.755000	-0.231938
	8.760000	-0.047770
	8.765000	-0.057636
	8.770000	-0.222072
	8.775000	-0.215495
	8.780000	-0.034615
	8.785000	-0.044481
	8.790000	-0.208917
	8.795000	-0.205628
	8.800000	-0.024749
	8.805000	-0.031326
	8.810000	-0.205628
	8.815000	-0.192474
	8.820000	-0.024749
	8.825000	-0.024749
	8.830000	-0.195762
	8.835000	-0.189185
	8.840000	-0.014883
	8.845000	-0.014883
	8.850000	-0.185896
	8.855000	-0.179319
	8.860000	-0.005016
	8.865000	-0.008305
	8.870000	-0.179319
	8.875000	-0.179319
	8.880000	-0.001728
	8.885000	-0.001728
	8.890000	-0.176030
	8.895000	-0.169453
	8.900000	-0.001728
	8.905000	-0.005016
	8.910000	-0.176030
	8.915000	-0.169453
	8.920000	0.008138
	8.925000	-0.001728
	8.930000	-0.176030
	8.935000	-0.166164
	8.940000	0.008138
	8.945000	0.001561
	8.950000	-0.169453
	8.955000	-0.162875
	8.960000	0.011427
	8.965000	0.001561
	8.970000	-0.159586
	8.975000	-0.156298
	8.980000	0.018005
	8.985000	0.011427
	8.990000	-0.162875
	8.995000	-0.153009
	9.000000	0.018005
	9.005000	0.014716
	9.010000	-0.156298
	9.015000	-0.159586
	9.020000	0.021293
	9.025000	0.014716
	9.030000	-0.156298
	9.035000	-0.149720
	9.040000	0.024582
	9.045000	0.021293
	9.050000	-0.153009
	9.055000	-0.149720
	9.060000	0.021293
	9.065000	0.027871
	9.070000	-0.153009
	9.075000	-0.143143
	9.080000	0.027871
	9.085000	0.024582
	9.090000	-0.146431
	9.095000	-0.146431
	9.100000	0.031160
	9.105000	0.027871
	9.110000	-0.146431
	9.115000	-0.139854
	9.120000	0.031160
	9.125000	0.037737
	9.130000	-0.143143
	9.135000	-0.136565
	9.140000	0.037737
	9.145000	0.037737
	9.150000	-0.139854
	9.155000	-0.136565
	9.160000	0.041026
	9.165000	0.041026
	9.170000	-0.129988
	9.175000	-0.133277
	9.180000	0.044314
	9.185000	0.047603
	9.190000	-0.126699
	9.195000	-0.126699
	9.200000	0.044314
	9.205000	0.050892
	9.210000	-0.126699
	9.215000	-0.126699
	9.220000	0.050892
	9.225000	0.050892
	9.230000	-0.120122
	9.235000	-0.116833
	9.240000	0.054181
	9.245000	0.054181
	9.250000	-0.113544
	9.255000	-0.113544
	9.260000	0.057469
	9.265000	0.060758
	9.270000	-0.116833
	9.275000	-0.110256
	9.280000	0.064047
	9.285000	0.064047
	9.290000	-0.110256
	9.295000	-0.106967
	9.300000	0.067335
	9.305000	0.070624
	9.310000	-0.103678
	9.315000	-0.103678
	9.320000	0.073913
	9.325000	0.073913
	9.330000	-0.100389
	9.335000	-0.100389
	9.340000	0.077202
	9.345000	0.070624
	9.350000	-0.100389
	9.355000	-0.093812
	9.360000	0.083779
	9.365000	0.080490
	9.370000	-0.093812
	9.375000	-0.090523
	9.380000	0.083779
	9.385000	0.080490
	9.390000	-0.087234
	9.395000	-0.090523
	9.400000	0.083779
	9.405000	0.083779
	9.410000	-0.090523
	9.415000	-0.083946
	9.420000	0.090357
	9.425000	0.083779
	9.430000	-0.080657
	9.435000	-0.083946
	9.440000	0.090357
	9.445000	0.093645
	9.450000	-0.083946
	9.455000	-0.083946
	9.460000	0.093645
	9.465000	0.096934
	9.470000	-0.083946
	9.475000	-0.080657
	9.480000	0.090357
	9.485000	0.096934
	9.490000	-0.080657
	9.495000	-0.080657
	9.500000	0.096934
	9.505000	0.090357
	9.510000	-0.077368
	9.515000	-0.080657
	9.520000	0.093645
	9.525000	0.096934
	9.530000	-0.077368
	9.535000	-0.080657
	9.540000	0.093645
	9.545000	0.096934
	9.550000	-0.080657
	9.555000	-0.080657
	9.560000	0.093645
	9.565000	0.096934
	9.570000	-0.080657
	9.575000	-0.077368
	9.580000	0.096934
	9.585000	0.093645
	9.590000	-0.077368
	9.595000	-0.080657
	9.600000	0.093645
	9.605000	0.096934
	9.610000	-0.080657
	9.615000	-0.077368
	9.620000	0.096934
	9.625000	0.093645
	9.630000	-0.077368
	9.635000	-0.080657
	9.640000	0.093645
	9.645000	0.096934
	9.650000	-0.077368
	9.655000	-0.077368
	9.660000	0.093645
	9.665000	0.100223
	9.670000	-0.077368
	9.675000	-0.080657
	9.680000	0.090357
	9.685000	0.100223
	9.690000	-0.080657
	9.695000	-0.080657
	9.700000	0.093645
	9.705000	0.093645
	9.710000	-0.074080
	9.715000	-0.080657
	9.720000	0.093645
	9.725000	0.096934
	9.730000	-0.077368
	9.735000	-0.077368
	9.740000	0.096934
	9.745000	0.103511
	9.750000	-0.070791
	9.755000	-0.067502
	9.760000	0.100223
	9.765000	0.103511
	9.770000	-0.064213
	9.775000	-0.067502
	9.780000	0.110089
	9.785000	0.123244
	9.790000	-0.057636
	9.795000	-0.057636
	9.800000	0.119955
	9.805000	0.129821
	9.810000	-0.044481
	9.815000	-0.037904
	9.820000	0.136399
	9.825000	0.152842
	9.830000	-0.018171
	9.835000	-0.018171
	9.840000	0.172575
	9.845000	0.182441
	9.850000	0.021293
	9.855000	0.027871
	9.860000	0.221905
	9.865000	0.238349
	9.870000	0.067335
	9.875000	0.077202
	9.880000	0.274525
	9.885000	0.297546
	9.890000	0.133110
	9.895000	0.146265
	9.900000	0.340299
	9.905000	0.366609
	9.910000	0.202173
	9.915000	0.208751
	9.920000	0.402785
	9.925000	0.419229
	9.930000	0.254793
	9.935000	0.248215
	9.940000	0.438961
	9.945000	0.442250
	9.950000	0.271236
	9.955000	0.267948
	9.960000	0.452116
	9.965000	0.455405
	9.970000	0.284391
	9.975000	0.274525
	9.980000	0.452116
	9.985000	0.461982
	9.990000	0.290969
	9.995000	0.284391
	10.000000	0.458694
	10.005000	0.468560
	10.010000	0.290969
	10.015000	0.281102
	10.020000	0.465271
	10.025000	0.471848
	10.030000	0.294257
	10.035000	0.290969
	10.040000	0.468560
	10.045000	0.485003
	10.050000	0.297546
	10.055000	0.290969
	10.060000	0.471848
	10.065000	0.481715
	10.070000	0.294257
	10.075000	0.290969
	10.080000	0.471848
	10.085000	0.475137
	10.090000	0.294257
	10.095000	0.290969
	10.100000	0.465271
	10.105000	0.475137
	10.110000	0.290969
	10.115000	0.284391
	10.120000	0.458694
	10.125000	0.461982
	10.130000	0.281102
	10.135000	0.267948
	10.140000	0.442250
	10.145000	0.452116
	10.150000	0.264659
	10.155000	0.254793
	10.160000	0.432384
	10.165000	0.435672
	10.170000	0.254793
	10.175000	0.241638
	10.180000	0.422518
	10.185000	0.425806
	10.190000	0.238349
	10.195000	0.231772
	10.200000	0.409363
	10.205000	0.419229
	10.210000	0.228483
	10.215000	0.218617
	10.220000	0.402785
	10.225000	0.406074
	10.230000	0.221905
	10.235000	0.218617
	10.240000	0.389630
	10.245000	0.402785
	10.250000	0.208751
	10.255000	0.205462
	10.260000	0.379764
	10.265000	0.392919
	10.270000	0.208751
	10.275000	0.192307
	10.280000	0.373187
	10.285000	0.386342
	10.290000	0.202173
	10.295000	0.189018
	10.300000	0.369898
	10.305000	0.379764
	10.310000	0.195596
	10.315000	0.185730
	10.320000	0.363321
	10.325000	0.373187
	10.330000	0.189018
	10.335000	0.175863
	10.340000	0.360032
	10.345000	0.369898
	10.350000	0.185730
	10.355000	0.172575
	10.360000	0.353454
	10.365000	0.366609
	10.370000	0.182441
	10.375000	0.169286
	10.380000	0.346877
	10.385000	0.360032
	10.390000	0.175863
	10.395000	0.162708
	10.400000	0.346877
	10.405000	0.353454
	10.410000	0.169286
	10.415000	0.156131
	10.420000	0.337011
	10.425000	0.350166
	10.430000	0.162708
	10.435000	0.149554
	10.440000	0.330433
	10.445000	0.346877
	10.450000	0.162708
	10.455000	0.149554
	10.460000	0.327145
	10.465000	0.340299
	10.470000	0.156131
	10.475000	0.142976
	10.480000	0.327145
	10.485000	0.340299
	10.490000	0.149554
	10.495000	0.136399
	10.500000	0.320567
	10.505000	0.330433
	10.510000	0.146265
	10.515000	0.133110
	10.520000	0.313990
	10.525000	0.323856
	10.530000	0.139687
	10.535000	0.129821
	10.540000	0.304124
	10.545000	0.317278
	10.550000	0.129821
	10.555000	0.113378
	10.560000	0.287680
	10.565000	0.300835
	10.570000	0.116666
	10.575000	0.096934
	10.580000	0.274525
	10.585000	0.281102
	10.590000	0.093645
	10.595000	0.077202
	10.600000	0.248215
	10.605000	0.248215
	10.610000	0.067335
	10.615000	0.044314
	10.620000	0.212039
	10.625000	0.212039
	10.630000	0.034448
	10.635000	0.008138
	10.640000	0.175863
	10.645000	0.175863
	10.650000	-0.011594
	10.655000	-0.028037
	10.660000	0.142976
	10.665000	0.139687
	10.670000	-0.047770
	10.675000	-0.067502
	10.680000	0.090357
	10.685000	0.080490
	10.690000	-0.120122
	10.695000	-0.159586
	10.700000	-0.011594
	10.705000	-0.021460
	10.710000	-0.228650
	10.715000	-0.261537
	10.720000	-0.110256
	10.725000	-0.123410
	10.730000	-0.314156
	10.735000	-0.350332
	10.740000	-0.195762
	10.745000	-0.192474
	10.750000	-0.379931
	10.755000	-0.406241
	10.760000	-0.241804
	10.765000	-0.235227
	10.770000	-0.412818
	10.775000	-0.432550
	10.780000	-0.258248
	10.785000	-0.248382
	10.790000	-0.422684
	10.795000	-0.435839
	10.800000	-0.261537
	10.805000	-0.245093
	10.810000	-0.416107
	10.815000	-0.425973
	10.820000	-0.251671
	10.825000	-0.231938
	10.830000	-0.399663
	10.835000	-0.406241
	10.840000	-0.231938
	10.845000	-0.215495
	10.850000	-0.383220
	10.855000	-0.393086
	10.860000	-0.212206
	10.865000	-0.195762
	10.870000	-0.363487
	10.875000	-0.376642
	10.880000	-0.199051
	10.885000	-0.182607
	10.890000	-0.350332
	10.895000	-0.360198
	10.900000	-0.185896
	10.905000	-0.169453
	10.910000	-0.337177
	10.915000	-0.343755
	10.920000	-0.176030
	10.925000	-0.153009
	10.930000	-0.314156
	10.935000	-0.327311
	10.940000	-0.153009
	10.945000	-0.136565
	10.950000	-0.301001
	10.955000	-0.314156
	10.960000	-0.139854
	10.965000	-0.116833
	10.970000	-0.287847
	10.975000	-0.297713
	10.980000	-0.113544
	10.985000	-0.103678
	10.990000	-0.271403
	10.995000	-0.284558
	11.000000	-0.103678
	11.005000	-0.090523
	11.010000	-0.254959
	11.015000	-0.268114
	11.020000	-0.097101
	11.025000	-0.074080
	11.030000	-0.245093
	11.035000	-0.251671
	11.040000	-0.080657
	11.045000	-0.060925
	11.050000	-0.225361
	11.055000	-0.241804
	11.060000	-0.067502
	11.065000	-0.047770
	11.070000	-0.222072
	11.075000	-0.228650
	11.080000	-0.054347
	11.085000	-0.037904
	11.090000	-0.208917
	11.095000	-0.218783
	11.100000	-0.047770
	11.105000	-0.028037
	11.110000	-0.199051
	11.115000	-0.208917
	11.120000	-0.034615
	11.125000	-0.018171
	11.130000	-0.189185
	11.135000	-0.205628
	11.140000	-0.028037
	11.145000	-0.008305
	11.150000	-0.182607
	11.155000	-0.192474
	11.160000	-0.021460
	11.165000	-0.005016
	11.170000	-0.172741
	11.175000	-0.189185
	11.180000	-0.014883
	11.185000	-0.001728
	11.190000	-0.169453
	11.195000	-0.185896
	11.200000	-0.011594
	11.205000	0.004850
	11.210000	-0.169453
	11.215000	-0.185896
	11.220000	-0.011594
	11.225000	0.011427
	11.230000	-0.166164
	11.235000	-0.182607
	11.240000	-0.008305
	11.245000	0.011427
	11.250000	-0.162875
	11.255000	-0.179319
	11.260000	-0.005016
	11.265000	0.014716
	11.270000	-0.162875
	11.275000	-0.172741
	11.280000	0.001561
	11.285000	0.018005
	11.290000	-0.156298
	11.295000	-0.172741
	11.300000	0.001561
	11.305000	0.021293
	11.310000	-0.153009
	11.315000	-0.166164
	11.320000	0.001561
	11.325000	0.018005
	11.330000	-0.149720
	11.335000	-0.169453
	11.340000	0.011427
	11.345000	0.027871
	11.350000	-0.149720
	11.355000	-0.159586
	11.360000	0.008138
	11.365000	0.024582
	11.370000	-0.146431
	11.375000	-0.159586
	11.380000	0.014716
	11.385000	0.034448
	11.390000	-0.143143
	11.395000	-0.162875
	11.400000	0.014716
	11.405000	0.027871
	11.410000	-0.143143
	11.415000	-0.153009
	11.420000	0.014716
	11.425000	0.031160
	11.430000	-0.143143
	11.435000	-0.156298
	11.440000	0.021293
	11.445000	0.034448
	11.450000	-0.139854
	11.455000	-0.159586
	11.460000	0.018005
	11.465000	0.031160
	11.470000	-0.139854
	11.475000	-0.149720
	11.480000	0.021293
	11.485000	0.037737
	11.490000	-0.133277
	11.495000	-0.153009
	11.500000	0.018005
	11.505000	0.037737
	11.510000	-0.133277
	11.515000	-0.153009
	11.520000	0.027871
	11.525000	0.044314
	11.530000	-0.133277
	11.535000	-0.149720
	11.540000	0.024582
	11.545000	0.044314
	11.550000	-0.129988
	11.555000	-0.146431
	11.560000	0.027871
	11.565000	0.050892
	11.570000	-0.120122
	11.575000	-0.139854
	11.580000	0.031160
	11.585000	0.050892
	11.590000	-0.120122
	11.595000	-0.139854
	11.600000	0.034448
	11.605000	0.057469
	11.610000	-0.116833
	11.615000	-0.133277
	11.620000	0.041026
	11.625000	0.054181
	11.630000	-0.116833
	11.635000	-0.133277
	11.640000	0.047603
	11.645000	0.057469
	11.650000	-0.113544
	11.655000	-0.126699
	11.660000	0.047603
	11.665000	0.057469
	11.670000	-0.110256
	11.675000	-0.120122
	11.680000	0.047603
	11.685000	0.070624
	11.690000	-0.103678
	11.695000	-0.116833
	11.700000	0.054181
	11.705000	0.073913
	11.710000	-0.097101
	11.715000	-0.116833
	11.720000	0.057469
	11.725000	0.080490
	11.730000	-0.093812
	11.735000	-0.113544
	11.740000	0.064047
	11.745000	0.087068
	11.750000	-0.087234
	11.755000	-0.110256
	11.760000	0.067335
	11.765000	0.083779
	11.770000	-0.090523
	11.775000	-0.100389
	11.780000	0.070624
	11.785000	0.090357
	11.790000	-0.087234
	11.795000	-0.100389
	11.800000	0.070624
	11.805000	0.087068
	11.810000	-0.077368
	11.815000	-0.097101
	11.820000	0.073913
	11.825000	0.090357
	11.830000	-0.080657
	11.835000	-0.100389
	11.840000	0.073913
	11.845000	0.093645
	11.850000	-0.080657
	11.855000	-0.100389
	11.860000	0.077202
	11.865000	0.096934
	11.870000	-0.080657
	11.875000	-0.093812
	11.880000	0.080490
	11.885000	0.096934
	11.890000	-0.077368
	11.895000	-0.093812
	11.900000	0.080490
	11.905000	0.096934
	11.910000	-0.077368
	11.915000	-0.097101
	11.920000	0.083779
	11.925000	0.093645
	11.930000	-0.074080
	11.935000	-0.097101
	11.940000	0.077202
	11.945000	0.096934
	11.950000	-0.077368
	11.955000	-0.090523
	11.960000	0.080490
	11.965000	0.093645
	11.970000	-0.077368
	11.975000	-0.093812
	11.980000	0.077202
	11.985000	0.090357
	11.990000	-0.077368
	11.995000	-0.093812
	12.000000	0.077202
	12.005000	0.100223
	12.010000	-0.077368
	12.015000	-0.093812
	12.020000	0.080490
	12.025000	0.100223
	12.030000	-0.077368
	12.035000	-0.090523
	12.040000	0.083779
	12.045000	0.103511
	12.050000	-0.070791
	12.055000	-0.090523
	12.060000	0.080490
	12.065000	0.100223
	12.070000	-0.070791
	12.075000	-0.093812
	12.080000	0.083779
	12.085000	0.100223
	12.090000	-0.070791
	12.095000	-0.090523
	12.100000	0.083779
	12.105000	0.103511
	12.110000	-0.070791
	12.115000	-0.087234
	12.120000	0.083779
	12.125000	0.100223
	12.130000	-0.067502
	12.135000	-0.083946
	12.140000	0.090357
	12.145000	0.106800
	12.150000	-0.067502
	12.155000	-0.083946
	12.160000	0.090357
	12.165000	0.110089
	12.170000	-0.060925
	12.175000	-0.087234
	12.180000	0.090357
	12.185000	0.110089
	12.190000	-0.060925
	12.195000	-0.080657
	12.200000	0.090357
	12.205000	0.113378
	12.210000	-0.057636
	12.215000	-0.074080
	12.220000	0.096934
	12.225000	0.116666
	12.230000	-0.054347
	12.235000	-0.070791
	12.240000	0.103511
	12.245000	0.119955
	12.250000	-0.051059
	12.255000	-0.067502
	12.260000	0.110089
	12.265000	0.129821
	12.270000	-0.041192
	12.275000	-0.060925
	12.280000	0.116666
	12.285000	0.136399
	12.290000	-0.037904
	12.295000	-0.051059
	12.300000	0.126533
	12.305000	0.146265
	12.310000	-0.028037
	12.315000	-0.037904
	12.320000	0.142976
	12.325000	0.162708
	12.330000	-0.001728
	12.335000	-0.018171
	12.340000	0.162708
	12.345000	0.192307
	12.350000	0.031160
	12.355000	0.024582
	12.360000	0.215328
	12.365000	0.248215
	12.370000	0.087068
	12.375000	0.090357
	12.380000	0.294257
	12.385000	0.330433
	12.390000	0.185730
	12.395000	0.195596
	12.400000	0.389630
	12.405000	0.438961
	12.410000	0.281102
	12.415000	0.281102
	12.420000	0.471848
	12.425000	0.504736
	12.430000	0.333722
	12.435000	0.323856
	12.440000	0.504736
	12.445000	0.534334
	12.450000	0.363321
	12.455000	0.343588
	12.460000	0.524468
	12.465000	0.547489
	12.470000	0.376475
	12.475000	0.350166
	12.480000	0.527757
	12.485000	0.547489
	12.490000	0.366609
	12.495000	0.343588
	12.500000	0.521179
	12.505000	0.537623
	12.510000	0.353454
	12.515000	0.333722
	12.520000	0.504736
	12.525000	0.524468
	12.530000	0.337011
	12.535000	0.320567
	12.540000	0.498158
	12.545000	0.514602
	12.550000	0.330433
	12.555000	0.310701
	12.560000	0.478426
	12.565000	0.501447
	12.570000	0.320567
	12.575000	0.290969
	12.580000	0.465271
	12.585000	0.488292
	12.590000	0.304124
	12.595000	0.277814
	12.600000	0.455405
	12.605000	0.468560
	12.610000	0.287680
	12.615000	0.264659
	12.620000	0.438961
	12.625000	0.455405
	12.630000	0.281102
	12.635000	0.248215
	12.640000	0.422518
	12.645000	0.445539
	12.650000	0.264659
	12.655000	0.238349
	12.660000	0.415940
	12.665000	0.435672
	12.670000	0.248215
	12.675000	0.225194
	12.680000	0.402785
	12.685000	0.422518
	12.690000	0.241638
	12.695000	0.215328
	12.700000	0.392919
	12.705000	0.415940
	12.710000	0.235060
	12.715000	0.208751
	12.720000	0.389630
	12.725000	0.409363
	12.730000	0.228483
	12.735000	0.202173
	12.740000	0.379764
	12.745000	0.406074
	12.750000	0.221905
	12.755000	0.198884
	12.760000	0.379764
	12.765000	0.399496
	12.770000	0.215328
	12.775000	0.195596
	12.780000	0.369898
	12.785000	0.399496
	12.790000	0.212039
	12.795000	0.189018
	12.800000	0.369898
	12.805000	0.389630
	12.810000	0.202173
	12.815000	0.182441
	12.820000	0.366609
	12.825000	0.389630
	12.830000	0.202173
	12.835000	0.175863
	12.840000	0.363321
	12.845000	0.376475
	12.850000	0.195596
	12.855000	0.169286
	12.860000	0.346877
	12.865000	0.373187
	12.870000	0.189018
	12.875000	0.165997
	12.880000	0.343588
	12.885000	0.363321
	12.890000	0.182441
	12.895000	0.159420
	12.900000	0.340299
	12.905000	0.360032
	12.910000	0.175863
	12.915000	0.152842
	12.920000	0.330433
	12.925000	0.353454
	12.930000	0.169286
	12.935000	0.146265
	12.940000	0.320567
	12.945000	0.340299
	12.950000	0.159420
	12.955000	0.133110
	12.960000	0.310701
	12.965000	0.327145
	12.970000	0.142976
	12.975000	0.106800
	12.980000	0.277814
	12.985000	0.290969
	12.990000	0.100223
	12.995000	0.070624
	13.000000	0.228483
	13.005000	0.231772
	13.010000	0.037737
	13.015000	0.001561
	13.020000	0.159420
	13.025000	0.162708
	13.030000	-0.034615
	13.035000	-0.077368
	13.040000	0.077202
	13.045000	0.070624
	13.050000	-0.146431
	13.055000	-0.208917
	13.060000	-0.087234
	13.065000	-0.120122
	13.070000	-0.343755
	13.075000	-0.406241
	13.080000	-0.268114
	13.085000	-0.264826
	13.090000	-0.452283
	13.095000	-0.488459
	13.100000	-0.324023
	13.105000	-0.304290
	13.110000	-0.475304
	13.115000	-0.498325
	13.120000	-0.314156
	13.125000	-0.291135
	13.130000	-0.462149
	13.135000	-0.478592
	13.140000	-0.304290
	13.145000	-0.274692
	13.150000	-0.439128
	13.155000	-0.452283
	13.160000	-0.268114
	13.165000	-0.248382
	13.170000	-0.409529
	13.175000	-0.435839
	13.180000	-0.251671
	13.185000	-0.222072
	13.190000	-0.386508
	13.195000	-0.406241
	13.200000	-0.231938
	13.205000	-0.208917
	13.210000	-0.373353
	13.215000	-0.389797
	13.220000	-0.215495
	13.225000	-0.192474
	13.230000	-0.356910
	13.235000	-0.376642
	13.240000	-0.199051
	13.245000	-0.179319
	13.250000	-0.337177
	13.255000	-0.360198
	13.260000	-0.182607
	13.265000	-0.159586
	13.270000	-0.324023
	13.275000	-0.343755
	13.280000	-0.169453
	13.285000	-0.139854
	13.290000	-0.307579
	13.295000	-0.327311
	13.300000	-0.149720
	13.305000	-0.129988
	13.310000	-0.297713
	13.315000	-0.317445
	13.320000	-0.139854
	13.325000	-0.116833
	13.330000	-0.284558
	13.335000	-0.301001
	13.340000	-0.123410
	13.345000	-0.100389
	13.350000	-0.268114
	13.355000	-0.287847
	13.360000	-0.113544
	13.365000	-0.087234
	13.370000	-0.251671
	13.375000	-0.271403
	13.380000	-0.093812
	13.385000	-0.074080
	13.390000	-0.241804
	13.395000	-0.254959
	13.400000	-0.077368
	13.405000	-0.064213
	13.410000	-0.225361
	13.415000	-0.248382
	13.420000	-0.074080
	13.425000	-0.051059
	13.430000	-0.218783
	13.435000	-0.231938
	13.440000	-0.060925
	13.445000	-0.034615
	13.450000	-0.202340
	13.455000	-0.222072
	13.460000	-0.047770
	13.465000	-0.021460
	13.470000	-0.192474
	13.475000	-0.212206
	13.480000	-0.034615
	13.485000	-0.011594
	13.490000	-0.182607
	13.495000	-0.199051
	13.500000	-0.024749
	13.505000	-0.001728
	13.510000	-0.172741
	13.515000	-0.192474
	13.520000	-0.014883
	13.525000	0.004850
	13.530000	-0.169453
	13.535000	-0.182607
	13.540000	-0.014883
	13.545000	0.004850
	13.550000	-0.162875
	13.555000	-0.179319
	13.560000	-0.005016
	13.565000	0.014716
	13.570000	-0.153009
	13.575000	-0.176030
	13.580000	0.001561
	13.585000	0.024582
	13.590000	-0.149720
	13.595000	-0.166164
	13.600000	0.011427
	13.605000	0.031160
	13.610000	-0.146431
	13.615000	-0.162875
	13.620000	0.014716
	13.625000	0.024582
	13.630000	-0.139854
	13.635000	-0.156298
	13.640000	0.021293
	13.645000	0.034448
	13.650000	-0.139854
	13.655000	-0.153009
	13.660000	0.021293
	13.665000	0.037737
	13.670000	-0.129988
	13.675000	-0.153009
	13.680000	0.021293
	13.685000	0.037737
	13.690000	-0.133277
	13.695000	-0.146431
	13.700000	0.024582
	13.705000	0.041026
	13.710000	-0.133277
	13.715000	-0.146431
	13.720000	0.024582
	13.725000	0.041026
	13.730000	-0.133277
	13.735000	-0.146431
	13.740000	0.021293
	13.745000	0.044314
	13.750000	-0.129988
	13.755000	-0.146431
	13.760000	0.024582
	13.765000	0.041026
	13.770000	-0.126699
	13.775000	-0.146431
	13.780000	0.024582
	13.785000	0.044314
	13.790000	-0.126699
	13.795000	-0.139854
	13.800000	0.027871
	13.805000	0.047603
	13.810000	-0.126699
	13.815000	-0.136565
	13.820000	0.034448
	13.825000	0.047603
	13.830000	-0.123410
	13.835000	-0.136565
	13.840000	0.034448
	13.845000	0.057469
	13.850000	-0.116833
	13.855000	-0.133277
	13.860000	0.037737
	13.865000	0.057469
	13.870000	-0.110256
	13.875000	-0.133277
	13.880000	0.041026
	13.885000	0.060758
	13.890000	-0.110256
	13.895000	-0.133277
	13.900000	0.041026
	13.905000	0.067335
	13.910000	-0.110256
	13.915000	-0.123410
	13.920000	0.047603
	13.925000	0.064047
	13.930000	-0.110256
	13.935000	-0.120122
	13.940000	0.050892
	13.945000	0.067335
	13.950000	-0.100389
	13.955000	-0.120122
	13.960000	0.057469
	13.965000	0.070624
	13.970000	-0.097101
	13.975000	-0.113544
	13.980000	0.054181
	13.985000	0.070624
	13.990000	-0.097101
	13.995000	-0.113544
	14.000000	0.054181
	14.005000	0.080490
	14.010000	-0.093812
	14.015000	-0.106967
	14.020000	0.064047
	14.025000	0.080490
	14.030000	-0.090523
	14.035000	-0.110256
	14.040000	0.064047
	14.045000	0.087068
	14.050000	-0.083946
	14.055000	-0.103678
	14.060000	0.070624
	14.065000	0.083779
	14.070000	-0.087234
	14.075000	-0.100389
	14.080000	0.077202
	14.085000	0.093645
	14.090000	-0.080657
	14.095000	-0.097101
	14.100000	0.077202
	14.105000	0.093645
	14.110000	-0.077368
	14.115000	-0.090523
	14.120000	0.080490
	14.125000	0.096934
	14.130000	-0.074080
	14.135000	-0.093812
	14.140000	0.080490
	14.145000	0.103511
	14.150000	-0.074080
	14.155000	-0.090523
	14.160000	0.087068
	14.165000	0.103511
	14.170000	-0.070791
	14.175000	-0.083946
	14.180000	0.087068
	14.185000	0.103511
	14.190000	-0.070791
	14.195000	-0.087234
	14.200000	0.090357
	14.205000	0.103511
	14.210000	-0.064213
	14.215000	-0.087234
	14.220000	0.090357
	14.225000	0.106800
	14.230000	-0.064213
	14.235000	-0.080657
	14.240000	0.090357
	14.245000	0.110089
	14.250000	-0.067502
	14.255000	-0.080657
	14.260000	0.090357
	14.265000	0.110089
	14.270000	-0.064213
	14.275000	-0.080657
	14.280000	0.090357
	14.285000	0.106800
	14.290000	-0.067502
	14.295000	-0.080657
	14.300000	0.093645
	14.305000	0.106800
	14.310000	-0.067502
	14.315000	-0.080657
	14.320000	0.090357
	14.325000	0.106800
	14.330000	-0.070791
	14.335000	-0.083946
	14.340000	0.087068
	14.345000	0.100223
	14.350000	-0.064213
	14.355000	-0.080657
	14.360000	0.090357
	14.365000	0.106800
	14.370000	-0.067502
	14.375000	-0.080657
	14.380000	0.090357
	14.385000	0.106800
	14.390000	-0.067502
	14.395000	-0.080657
	14.400000	0.090357
	14.405000	0.106800
	14.410000	-0.067502
	14.415000	-0.087234
	14.420000	0.083779
	14.425000	0.106800
	14.430000	-0.064213
	14.435000	-0.080657
	14.440000	0.090357
	14.445000	0.110089
	14.450000	-0.064213
	14.455000	-0.083946
	14.460000	0.087068
	14.465000	0.103511
	14.470000	-0.064213
	14.475000	-0.083946
	14.480000	0.090357
	14.485000	0.106800
	14.490000	-0.064213
	14.495000	-0.080657
	14.500000	0.093645
	14.505000	0.110089
	14.510000	-0.060925
	14.515000	-0.080657
	14.520000	0.096934
	14.525000	0.110089
	14.530000	-0.064213
	14.535000	-0.083946
	14.540000	0.093645
	14.545000	0.113378
	14.550000	-0.064213
	14.555000	-0.074080
	14.560000	0.100223
	14.565000	0.116666
	14.570000	-0.060925
	14.575000	-0.077368
	14.580000	0.103511
	14.585000	0.116666
	14.590000	-0.057636
	14.595000	-0.074080
	14.600000	0.100223
	14.605000	0.116666
	14.610000	-0.054347
	14.615000	-0.070791
	14.620000	0.103511
	14.625000	0.116666
	14.630000	-0.047770
	14.635000	-0.074080
	14.640000	0.103511
	14.645000	0.119955
	14.650000	-0.051059
	14.655000	-0.067502
	14.660000	0.110089
	14.665000	0.126533
	14.670000	-0.047770
	14.675000	-0.060925
	14.680000	0.113378
	14.685000	0.133110
	14.690000	-0.041192
	14.695000	-0.054347
	14.700000	0.123244
	14.705000	0.136399
	14.710000	-0.037904
	14.715000	-0.047770
	14.720000	0.129821
	14.725000	0.152842
	14.730000	-0.028037
	14.735000	-0.034615
	14.740000	0.139687
	14.745000	0.159420
	14.750000	-0.011594
	14.755000	-0.024749
	14.760000	0.152842
	14.765000	0.175863
	14.770000	0.001561
	14.775000	-0.001728
	14.780000	0.179152
	14.785000	0.198884
	14.790000	0.031160
	14.795000	0.024582
	14.800000	0.208751
	14.805000	0.235060
	14.810000	0.073913
	14.815000	0.073913
	14.820000	0.251504
	14.825000	0.284391
	14.830000	0.119955
	14.835000	0.110089
	14.840000	0.300835
	14.845000	0.323856
	14.850000	0.162708
	14.855000	0.149554
	14.860000	0.337011
	14.865000	0.356743
	14.870000	0.189018
	14.875000	0.182441
	14.880000	0.366609
	14.885000	0.386342
	14.890000	0.221905
	14.895000	0.218617
	14.900000	0.406074
	14.905000	0.432384
	14.910000	0.258081
	14.915000	0.254793
	14.920000	0.445539
	14.925000	0.471848
	14.930000	0.304124
	14.935000	0.297546
	14.940000	0.485003
	14.945000	0.511313
	14.950000	0.333722
	14.955000	0.327145
	14.960000	0.517891
	14.965000	0.531045
	14.970000	0.360032
	14.975000	0.350166
	14.980000	0.531045
	14.985000	0.554066
	14.990000	0.379764
	14.995000	0.366609
	15.000000	0.540912
	15.005000	0.557355
	15.010000	0.376475
	15.015000	0.360032
	15.020000	0.540912
	15.025000	0.547489
	15.030000	0.369898
	15.035000	0.350166
	15.040000	0.527757
	15.045000	0.544200
	15.050000	0.353454
	15.055000	0.337011
	15.060000	0.514602
	15.065000	0.534334
	15.070000	0.343588
	15.075000	0.330433
	15.080000	0.501447
	15.085000	0.504736
	15.090000	0.333722
	15.095000	0.310701
	15.100000	0.491581
	15.105000	0.508024
	15.110000	0.313990
	15.115000	0.297546
	15.120000	0.475137
	15.125000	0.491581
	15.130000	0.307412
	15.135000	0.287680
	15.140000	0.465271
	15.145000	0.475137
	15.150000	0.290969
	15.155000	0.274525
	15.160000	0.455405
	15.165000	0.471848
	15.170000	0.287680
	15.175000	0.267948
	15.180000	0.442250
	15.185000	0.455405
	15.190000	0.274525
	15.195000	0.258081
	15.200000	0.438961
	15.205000	0.452116
	15.210000	0.264659
	15.215000	0.251504
	15.220000	0.435672
	15.225000	0.445539
	15.230000	0.261370
	15.235000	0.248215
	15.240000	0.429095
	15.245000	0.438961
	15.250000	0.261370
	15.255000	0.241638
	15.260000	0.429095
	15.265000	0.438961
	15.270000	0.254793
	15.275000	0.241638
	15.280000	0.419229
	15.285000	0.432384
	15.290000	0.248215
	15.295000	0.235060
	15.300000	0.415940
	15.305000	0.432384
	15.310000	0.244927
	15.315000	0.228483
	15.320000	0.409363
	15.325000	0.422518
	15.330000	0.231772
	15.335000	0.221905
	15.340000	0.396208
	15.345000	0.409363
	15.350000	0.221905
	15.355000	0.208751
	15.360000	0.386342
	15.365000	0.399496
	15.370000	0.212039
	15.375000	0.198884
	15.380000	0.373187
	15.385000	0.386342
	15.390000	0.198884
	15.395000	0.182441
	15.400000	0.360032
	15.405000	0.369898
	15.410000	0.189018
	15.415000	0.172575
	15.420000	0.350166
	15.425000	0.356743
	15.430000	0.175863
	15.435000	0.156131
	15.440000	0.333722
	15.445000	0.343588
	15.450000	0.156131
	15.455000	0.139687
	15.460000	0.304124
	15.465000	0.310701
	15.470000	0.119955
	15.475000	0.100223
	15.480000	0.267948
	15.485000	0.264659
	15.490000	0.070624
	15.495000	0.050892
	15.500000	0.215328
	15.505000	0.212039
	15.510000	0.018005
	15.515000	-0.005016
	15.520000	0.152842
	15.525000	0.133110
	15.530000	-0.070791
	15.535000	-0.123410
	15.540000	0.011427
	15.545000	-0.021460
	15.550000	-0.258248
	15.555000	-0.314156
	15.560000	-0.182607
	15.565000	-0.195762
	15.570000	-0.389797
	15.575000	-0.416107
	15.580000	-0.248382
	15.585000	-0.235227
	15.590000	-0.416107
	15.595000	-0.425973
	15.600000	-0.251671
	15.605000	-0.235227
	15.610000	-0.406241
	15.615000	-0.409529
	15.620000	-0.235227
	15.625000	-0.222072
	15.630000	-0.383220
	15.635000	-0.393086
	15.640000	-0.208917
	15.645000	-0.199051
	15.650000	-0.363487
	15.655000	-0.373353
	15.660000	-0.192474
	15.665000	-0.179319
	15.670000	-0.347044
	15.675000	-0.353621
	15.680000	-0.179319
	15.685000	-0.162875
	15.690000	-0.330600
	15.695000	-0.340466
	15.700000	-0.166164
	15.705000	-0.146431
	15.710000	-0.317445
	15.715000	-0.327311
	15.720000	-0.149720
	15.725000	-0.139854
	15.730000	-0.304290
	15.735000	-0.310868
	15.740000	-0.139854
	15.745000	-0.120122
	15.750000	-0.294424
	15.755000	-0.294424
	15.760000	-0.116833
	15.765000	-0.106967
	15.770000	-0.274692
	15.775000	-0.284558
	15.780000	-0.106967
	15.785000	-0.093812
	15.790000	-0.261537
	15.795000	-0.271403
	15.800000	-0.090523
	15.805000	-0.080657
	15.810000	-0.245093
	15.815000	-0.251671
	15.820000	-0.077368
	15.825000	-0.067502
	15.830000	-0.231938
	15.835000	-0.241804
	15.840000	-0.064213
	15.845000	-0.047770
	15.850000	-0.215495
	15.855000	-0.222072
	15.860000	-0.047770
	15.865000	-0.037904
	15.870000	-0.208917
	15.875000	-0.212206
	15.880000	-0.037904
	15.885000	-0.028037
	15.890000	-0.192474
	15.895000	-0.205628
	15.900000	-0.028037
	15.905000	-0.018171
	15.910000	-0.179319
	15.915000	-0.189185
	15.920000	-0.018171
	15.925000	-0.005016
	15.930000	-0.172741
	15.935000	-0.182607
	15.940000	-0.001728
	15.945000	0.001561
	15.950000	-0.162875
	15.955000	-0.166164
	15.960000	0.004850
	15.965000	0.018005
	15.970000	-0.153009
	15.975000	-0.159586
	15.980000	0.018005
	15.985000	0.024582
	15.990000	-0.146431
	15.995000	-0.149720
	16.000000	0.021293
	16.005000	0.037737
	16.010000	-0.139854
	16.015000	-0.146431
	16.020000	0.034448
	16.025000	0.041026
	16.030000	-0.136565
	16.035000	-0.143143
	16.040000	0.031160
	16.045000	0.041026
	16.050000	-0.129988
	16.055000	-0.136565
	16.060000	0.041026
	16.065000	0.041026
	16.070000	-0.126699
	16.075000	-0.136565
	16.080000	0.044314
	16.085000	0.050892
	16.090000	-0.123410
	16.095000	-0.129988
	16.100000	0.044314
	16.105000	0.054181
	16.110000	-0.123410
	16.115000	-0.123410
	16.120000	0.047603
	16.125000	0.054181
	16.130000	-0.120122
	16.135000	-0.123410
	16.140000	0.047603
	16.145000	0.057469
	16.150000	-0.116833
	16.155000	-0.123410
	16.160000	0.054181
	16.165000	0.057469
	16.170000	-0.113544
	16.175000	-0.116833
	16.180000	0.057469
	16.185000	0.064047
	16.190000	-0.110256
	16.195000	-0.120122
	16.200000	0.060758
	16.205000	0.067335
	16.210000	-0.110256
	16.215000	-0.113544
	16.220000	0.064047
	16.225000	0.067335
	16.230000	-0.110256
	16.235000	-0.116833
	16.240000	0.060758
	16.245000	0.067335
	16.250000	-0.103678
	16.255000	-0.113544
	16.260000	0.064047
	16.265000	0.067335
	16.270000	-0.103678
	16.275000	-0.106967
	16.280000	0.067335
	16.285000	0.070624
	16.290000	-0.100389
	16.295000	-0.106967
	16.300000	0.067335
	16.305000	0.073913
	16.310000	-0.103678
	16.315000	-0.103678
	16.320000	0.060758
	16.325000	0.067335
	16.330000	-0.103678
	16.335000	-0.106967
	16.340000	0.064047
	16.345000	0.067335
	16.350000	-0.100389
	16.355000	-0.103678
	16.360000	0.073913
	16.365000	0.077202
	16.370000	-0.100389
	16.375000	-0.103678
	16.380000	0.073913
	16.385000	0.077202
	16.390000	-0.100389
	16.395000	-0.103678
	16.400000	0.070624
	16.405000	0.080490
	16.410000	-0.097101
	16.415000	-0.097101
	16.420000	0.077202
	16.425000	0.073913
	16.430000	-0.097101
	16.435000	-0.097101
	16.440000	0.077202
	16.445000	0.077202
	16.450000	-0.090523
	16.455000	-0.097101
	16.460000	0.083779
	16.465000	0.083779
	16.470000	-0.087234
	16.475000	-0.087234
	16.480000	0.083779
	16.485000	0.083779
	16.490000	-0.087234
	16.495000	-0.087234
	16.500000	0.087068
	16.505000	0.090357
	16.510000	-0.077368
	16.515000	-0.080657
	16.520000	0.090357
	16.525000	0.096934
	16.530000	-0.077368
	16.535000	-0.083946
	16.540000	0.096934
	16.545000	0.096934
	16.550000	-0.077368
	16.555000	-0.077368
	16.560000	0.103511
	16.565000	0.106800
	16.570000	-0.067502
	16.575000	-0.074080
	16.580000	0.106800
	16.585000	0.106800
	16.590000	-0.064213
	16.595000	-0.064213
	16.600000	0.110089
	16.605000	0.113378
	16.610000	-0.060925
	16.615000	-0.060925
	16.620000	0.113378
	16.625000	0.113378
	16.630000	-0.057636
	16.635000	-0.057636
	16.640000	0.116666
	16.645000	0.119955
	16.650000	-0.057636
	16.655000	-0.054347
	16.660000	0.116666
	16.665000	0.119955
	16.670000	-0.051059
	16.675000	-0.054347
	16.680000	0.119955
	16.685000	0.116666
	16.690000	-0.057636
	16.695000	-0.057636
	16.700000	0.110089
	16.705000	0.110089
	16.710000	-0.060925
	16.715000	-0.057636
	16.720000	0.113378
	16.725000	0.116666
	16.730000	-0.060925
	16.735000	-0.060925
	16.740000	0.106800
	16.745000	0.113378
	16.750000	-0.057636
	16.755000	-0.060925
	16.760000	0.110089
	16.765000	0.113378
	16.770000	-0.057636
	16.775000	-0.064213
	16.780000	0.119955
	16.785000	0.113378
	16.790000	-0.070791
	16.795000	-0.057636
	16.800000	0.113378
	16.805000	0.110089
	16.810000	-0.064213
	16.815000	-0.064213
	16.820000	0.110089
	16.825000	0.113378
	16.830000	-0.060925
	16.835000	-0.060925
	16.840000	0.113378
	16.845000	0.110089
	16.850000	-0.060925
	16.855000	-0.060925
	16.860000	0.110089
	16.865000	0.113378
	16.870000	-0.060925
	16.875000	-0.057636
	16.880000	0.110089
	16.885000	0.110089
	16.890000	-0.064213
	16.895000	-0.064213
	16.900000	0.116666
	16.905000	0.110089
	16.910000	-0.060925
	16.915000	-0.060925
	16.920000	0.116666
	16.925000	0.113378
	16.930000	-0.060925
	16.935000	-0.060925
	16.940000	0.116666
	16.945000	0.113378
	16.950000	-0.067502
	16.955000	-0.054347
	16.960000	0.119955
	16.965000	0.116666
	16.970000	-0.060925
	16.975000	-0.054347
	16.980000	0.119955
	16.985000	0.113378
	16.990000	-0.064213
	16.995000	-0.057636
	17.000000	0.116666
	17.005000	0.113378
	17.010000	-0.060925
	17.015000	-0.057636
	17.020000	0.113378
	17.025000	0.106800
	17.030000	-0.060925
	17.035000	-0.057636
	17.040000	0.119955
	17.045000	0.116666
	17.050000	-0.057636
	17.055000	-0.057636
	17.060000	0.119955
	17.065000	0.113378
	17.070000	-0.057636
	17.075000	-0.054347
	17.080000	0.116666
	17.085000	0.116666
	17.090000	-0.060925
	17.095000	-0.054347
	17.100000	0.116666
	17.105000	0.116666
	17.110000	-0.060925
	17.115000	-0.057636
	17.120000	0.116666
	17.125000	0.113378
	17.130000	-0.060925
	17.135000	-0.051059
	17.140000	0.119955
	17.145000	0.119955
	17.150000	-0.054347
	17.155000	-0.047770
	17.160000	0.126533
	17.165000	0.123244
	17.170000	-0.057636
	17.175000	-0.051059
	17.180000	0.123244
	17.185000	0.119955
	17.190000	-0.047770
	17.195000	-0.044481
	17.200000	0.129821
	17.205000	0.126533
	17.210000	-0.051059
	17.215000	-0.044481
	17.220000	0.129821
	17.225000	0.123244
	17.230000	-0.044481
	17.235000	-0.041192
	17.240000	0.133110
	17.245000	0.129821
	17.250000	-0.051059
	17.255000	-0.037904
	17.260000	0.136399
	17.265000	0.133110
	17.270000	-0.044481
	17.275000	-0.037904
	17.280000	0.139687
	17.285000	0.129821
	17.290000	-0.041192
	17.295000	-0.034615
	17.300000	0.142976
	17.305000	0.136399
	17.310000	-0.037904
	17.315000	-0.028037
	17.320000	0.149554
	17.325000	0.136399
	17.330000	-0.031326
	17.335000	-0.028037
	17.340000	0.146265
	17.345000	0.139687
	17.350000	-0.034615
	17.355000	-0.028037
	17.360000	0.149554
	17.365000	0.146265
	17.370000	-0.028037
	17.375000	-0.021460
	17.380000	0.156131
	17.385000	0.152842
	17.390000	-0.021460
	17.395000	-0.018171
	17.400000	0.159420
	17.405000	0.152842
	17.410000	-0.018171
	17.415000	-0.014883
	17.420000	0.165997
	17.425000	0.156131
	17.430000	-0.011594
	17.435000	-0.005016
	17.440000	0.172575
	17.445000	0.165997
	17.450000	-0.011594
	17.455000	0.004850
	17.460000	0.185730
	17.465000	0.182441
	17.470000	0.011427
	17.475000	0.018005
	17.480000	0.202173
	17.485000	0.195596
	17.490000	0.024582
	17.495000	0.041026
	17.500000	0.228483
	17.505000	0.228483
	17.510000	0.064047
	17.515000	0.093645
	17.520000	0.284391
	17.525000	0.294257
	17.530000	0.133110
	17.535000	0.165997
	17.540000	0.363321
	17.545000	0.379764
	17.550000	0.225194
	17.555000	0.264659
	17.560000	0.468560
	17.565000	0.485003
	17.570000	0.320567
	17.575000	0.353454
	17.580000	0.537623
	17.585000	0.544200
	17.590000	0.376475
	17.595000	0.396208
	17.600000	0.580376
	17.605000	0.573799
	17.610000	0.396208
	17.615000	0.409363
	17.620000	0.596820
	17.625000	0.580376
	17.630000	0.406074
	17.635000	0.415940
	17.640000	0.596820
	17.645000	0.577088
	17.650000	0.392919
	17.655000	0.402785
	17.660000	0.573799
	17.665000	0.560644
	17.670000	0.373187
	17.675000	0.383053
	17.680000	0.560644
	17.685000	0.547489
	17.690000	0.356743
	17.695000	0.366609
	17.700000	0.540912
	17.705000	0.534334
	17.710000	0.350166
	17.715000	0.356743
	17.720000	0.531045
	17.725000	0.514602
	17.730000	0.330433
	17.735000	0.343588
	17.740000	0.514602
	17.745000	0.501447
	17.750000	0.317278
	17.755000	0.327145
	17.760000	0.501447
	17.765000	0.491581
	17.770000	0.304124
	17.775000	0.313990
	17.780000	0.491581
	17.785000	0.478426
	17.790000	0.290969
	17.795000	0.304124
	17.800000	0.481715
	17.805000	0.461982
	17.810000	0.284391
	17.815000	0.290969
	17.820000	0.471848
	17.825000	0.458694
	17.830000	0.271236
	17.835000	0.284391
	17.840000	0.465271
	17.845000	0.442250
	17.850000	0.261370
	17.855000	0.274525
	17.860000	0.455405
	17.865000	0.438961
	17.870000	0.254793
	17.875000	0.264659
	17.880000	0.442250
	17.885000	0.425806
	17.890000	0.244927
	17.895000	0.254793
	17.900000	0.438961
	17.905000	0.419229
	17.910000	0.235060
	17.915000	0.248215
	17.920000	0.432384
	17.925000	0.415940
	17.930000	0.231772
	17.935000	0.241638
	17.940000	0.422518
	17.945000	0.406074
	17.950000	0.218617
	17.955000	0.231772
	17.960000	0.419229
	17.965000	0.396208
	17.970000	0.215328
	17.975000	0.228483
	17.980000	0.412651
	17.985000	0.392919
	17.990000	0.205462
	17.995000	0.221905
	18.000000	0.402785
	18.005000	0.389630
	18.010000	0.205462
	18.015000	0.221905
	18.020000	0.402785
	18.025000	0.383053
	18.030000	0.198884
	18.035000	0.212039
	18.040000	0.392919
	18.045000	0.369898
	18.050000	0.195596
	18.055000	0.205462
	18.060000	0.383053
	18.065000	0.363321
	18.070000	0.179152
	18.075000	0.195596
	18.080000	0.366609
	18.085000	0.346877
	18.090000	0.159420
	18.095000	0.182441
	18.100000	0.356743
	18.105000	0.330433
	18.110000	0.146265
	18.115000	0.162708
	18.120000	0.337011
	18.125000	0.310701
	18.130000	0.123244
	18.135000	0.142976
	18.140000	0.310701
	18.145000	0.284391
	18.150000	0.100223
	18.155000	0.113378
	18.160000	0.281102
	18.165000	0.254793
	18.170000	0.067335
	18.175000	0.077202
	18.180000	0.248215
	18.185000	0.218617
	18.190000	0.027871
	18.195000	0.047603
	18.200000	0.208751
	18.205000	0.182441
	18.210000	-0.011594
	18.215000	0.008138
	18.220000	0.172575
	18.225000	0.146265
	18.230000	-0.044481
	18.235000	-0.031326
	18.240000	0.136399
	18.245000	0.103511
	18.250000	-0.087234
	18.255000	-0.080657
	18.260000	0.083779
	18.265000	0.050892
	18.270000	-0.139854
	18.275000	-0.120122
	18.280000	0.037737
	18.285000	-0.001728
	18.290000	-0.189185
	18.295000	-0.182607
	18.300000	-0.028037
	18.305000	-0.067502
	18.310000	-0.271403
	18.315000	-0.274692
	18.320000	-0.123410
	18.325000	-0.159586
	18.330000	-0.350332
	18.335000	-0.340466
	18.340000	-0.182607
	18.345000	-0.212206
	18.350000	-0.393086
	18.355000	-0.379931
	18.360000	-0.205628
	18.365000	-0.231938
	18.370000	-0.409529
	18.375000	-0.386508
	18.380000	-0.215495
	18.385000	-0.238516
	18.390000	-0.406241
	18.395000	-0.376642
	18.400000	-0.205628
	18.405000	-0.222072
	18.410000	-0.393086
	18.415000	-0.363487
	18.420000	-0.189185
	18.425000	-0.205628
	18.430000	-0.370065
	18.435000	-0.347044
	18.440000	-0.169453
	18.445000	-0.185896
	18.450000	-0.350332
	18.455000	-0.327311
	18.460000	-0.146431
	18.465000	-0.162875
	18.470000	-0.330600
	18.475000	-0.307579
	18.480000	-0.129988
	18.485000	-0.153009
	18.490000	-0.314156
	18.495000	-0.287847
	18.500000	-0.110256
	18.505000	-0.133277
	18.510000	-0.297713
	18.515000	-0.264826
	18.520000	-0.093812
	18.525000	-0.113544
	18.530000	-0.277980
	18.535000	-0.251671
	18.540000	-0.070791
	18.545000	-0.093812
	18.550000	-0.261537
	18.555000	-0.231938
	18.560000	-0.060925
	18.565000	-0.080657
	18.570000	-0.245093
	18.575000	-0.215495
	18.580000	-0.044481
	18.585000	-0.064213
	18.590000	-0.228650
	18.595000	-0.202340
	18.600000	-0.021460
	18.605000	-0.051059
	18.610000	-0.218783
	18.615000	-0.192474
	18.620000	-0.014883
	18.625000	-0.037904
	18.630000	-0.208917
	18.635000	-0.179319
	18.640000	-0.005016
	18.645000	-0.031326
	18.650000	-0.195762
	18.655000	-0.162875
	18.660000	0.008138
	18.665000	-0.018171
	18.670000	-0.192474
	18.675000	-0.156298
	18.680000	0.008138
	18.685000	-0.014883
	18.690000	-0.182607
	18.695000	-0.153009
	18.700000	0.014716
	18.705000	-0.011594
	18.710000	-0.179319
	18.715000	-0.153009
	18.720000	0.014716
	18.725000	-0.011594
	18.730000	-0.182607
	18.735000	-0.153009
	18.740000	0.018005
	18.745000	-0.011594
	18.750000	-0.179319
	18.755000	-0.149720
	18.760000	0.018005
	18.765000	-0.008305
	18.770000	-0.172741
	18.775000	-0.153009
	18.780000	0.024582
	18.785000	-0.001728
	18.790000	-0.172741
	18.795000	-0.136565
	18.800000	0.024582
	18.805000	-0.001728
	18.810000	-0.169453
	18.815000	-0.136565
	18.820000	0.034448
	18.825000	0.004850
	18.830000	-0.162875
	18.835000	-0.129988
	18.840000	0.034448
	18.845000	0.001561
	18.850000	-0.162875
	18.855000	-0.129988
	18.860000	0.044314
	18.865000	0.011427
	18.870000	-0.159586
	18.875000	-0.123410
	18.880000	0.044314
	18.885000	0.014716
	18.890000	-0.153009
	18.895000	-0.123410
	18.900000	0.050892
	18.905000	0.011427
	18.910000	-0.149720
	18.915000	-0.116833
	18.920000	0.044314
	18.925000	0.018005
	18.930000	-0.153009
	18.935000	-0.116833
	18.940000	0.050892
	18.945000	0.014716
	18.950000	-0.149720
	18.955000	-0.116833
	18.960000	0.050892
	18.965000	0.021293
	18.970000	-0.139854
	18.975000	-0.110256
	18.980000	0.054181
	18.985000	0.021293
	18.990000	-0.139854
	18.995000	-0.106967
	19.000000	0.057469
	19.005000	0.024582
	19.010000	-0.139854
	19.015000	-0.103678
	19.020000	0.064047
	19.025000	0.027871
	19.030000	-0.136565
	19.035000	-0.100389
	19.040000	0.067335
	19.045000	0.027871
	19.050000	-0.129988
	19.055000	-0.097101
	19.060000	0.067335
	19.065000	0.037737
	19.070000	-0.133277
	19.075000	-0.097101
	19.080000	0.073913
	19.085000	0.041026
	19.090000	-0.126699
	19.095000	-0.093812
	19.100000	0.077202
	19.105000	0.037737
	19.110000	-0.126699
	19.115000	-0.090523
	19.120000	0.080490
	19.125000	0.041026
	19.130000	-0.126699
	19.135000	-0.087234
	19.140000	0.080490
	19.145000	0.041026
	19.150000	-0.123410
	19.155000	-0.080657
	19.160000	0.083779
	19.165000	0.050892
	19.170000	-0.113544
	19.175000	-0.077368
	19.180000	0.093645
	19.185000	0.054181
	19.190000	-0.106967
	19.195000	-0.070791
	19.200000	0.100223
	19.205000	0.060758
	19.210000	-0.103678
	19.215000	-0.064213
	19.220000	0.103511
	19.225000	0.064047
	19.230000	-0.100389
	19.235000	-0.064213
	19.240000	0.106800
	19.245000	0.073913
	19.250000	-0.097101
	19.255000	-0.060925
	19.260000	0.113378
	19.265000	0.070624
	19.270000	-0.093812
	19.275000	-0.054347
	19.280000	0.113378
	19.285000	0.077202
	19.290000	-0.090523
	19.295000	-0.051059
	19.300000	0.119955
	19.305000	0.080490
	19.310000	-0.087234
	19.315000	-0.047770
	19.320000	0.119955
	19.325000	0.080490
	19.330000	-0.087234
	19.335000	-0.044481
	19.340000	0.123244
	19.345000	0.080490
	19.350000	-0.087234
	19.355000	-0.041192
	19.360000	0.123244
	19.365000	0.083779
	19.370000	-0.083946
	19.375000	-0.041192
	19.380000	0.123244
	19.385000	0.083779
	19.390000	-0.080657
	19.395000	-0.041192
	19.400000	0.123244
	19.405000	0.083779
	19.410000	-0.080657
	19.415000	-0.034615
	19.420000	0.126533
	19.425000	0.083779
	19.430000	-0.080657
	19.435000	-0.041192
	19.440000	0.123244
	19.445000	0.083779
	19.450000	-0.083946
	19.455000	-0.041192
	19.460000	0.123244
	19.465000	0.083779
	19.470000	-0.080657
	19.475000	-0.037904
	19.480000	0.126533
	19.485000	0.080490
	19.490000	-0.083946
	19.495000	-0.037904
	19.500000	0.126533
	19.505000	0.080490
	19.510000	-0.087234
	19.515000	-0.041192
	19.520000	0.123244
	19.525000	0.080490
	19.530000	-0.083946
	19.535000	-0.041192
	19.540000	0.126533
	19.545000	0.077202
	19.550000	-0.087234
	19.555000	-0.044481
	19.560000	0.123244
	19.565000	0.080490
	19.570000	-0.080657
	19.575000	-0.044481
	19.580000	0.126533
	19.585000	0.077202
	19.590000	-0.090523
	19.595000	-0.041192
	19.600000	0.123244
	19.605000	0.077202
	19.610000	-0.087234
	19.615000	-0.044481
	19.620000	0.123244
	19.625000	0.083779
	19.630000	-0.083946
	19.635000	-0.041192
	19.640000	0.126533
	19.645000	0.077202
	19.650000	-0.087234
	19.655000	-0.037904
	19.660000	0.126533
	19.665000	0.083779
	19.670000	-0.080657
	19.675000	-0.041192
	19.680000	0.126533
	19.685000	0.077202
	19.690000	-0.083946
	19.695000	-0.041192
	19.700000	0.129821
	19.705000	0.080490
	19.710000	-0.087234
	19.715000	-0.034615
	19.720000	0.126533
	19.725000	0.083779
	19.730000	-0.080657
	19.735000	-0.028037
	19.740000	0.133110
	19.745000	0.083779
	19.750000	-0.077368
	19.755000	-0.031326
	19.760000	0.133110
	19.765000	0.090357
	19.770000	-0.080657
	19.775000	-0.021460
	19.780000	0.136399
	19.785000	0.087068
	19.790000	-0.077368
	19.795000	-0.024749
	19.800000	0.139687
	19.805000	0.087068
	19.810000	-0.070791
	19.815000	-0.024749
	19.820000	0.142976
	19.825000	0.093645
	19.830000	-0.074080
	19.835000	-0.021460
	19.840000	0.142976
	19.845000	0.096934
	19.850000	-0.074080
	19.855000	-0.018171
	19.860000	0.149554
	19.865000	0.100223
	19.870000	-0.064213
	19.875000	-0.018171
	19.880000	0.146265
	19.885000	0.100223
	19.890000	-0.067502
	19.895000	-0.014883
	19.900000	0.152842
	19.905000	0.096934
	19.910000	-0.067502
	19.915000	-0.008305
	19.920000	0.156131
	19.925000	0.100223
	19.930000	-0.060925
	19.935000	-0.011594
	19.940000	0.152842
	19.945000	0.103511
	19.950000	-0.067502
	19.955000	-0.008305
	19.960000	0.152842
	19.965000	0.103511
	19.970000	-0.060925
	19.975000	-0.011594
	19.980000	0.152842
	19.985000	0.110089
	19.990000	-0.057636
	19.995000	-0.005016
	20.000000	0.156131
	20.005000	0.106800
	20.010000	-0.057636
	20.015000	-0.001728
	20.020000	0.156131
	20.025000	0.103511
	20.030000	-0.057636
	20.035000	-0.008305
	20.040000	0.156131
	20.045000	0.106800
	20.050000	-0.057636
	20.055000	-0.001728
	20.060000	0.162708
	20.065000	0.103511
	20.070000	-0.057636
	20.075000	0.001561
	20.080000	0.162708
	20.085000	0.110089
	20.090000	-0.047770
	20.095000	0.004850
	20.100000	0.169286
	20.105000	0.116666
	20.110000	-0.041192
	20.115000	0.014716
	20.120000	0.185730
	20.125000	0.133110
	20.130000	-0.028037
	20.135000	0.034448
	20.140000	0.208751
	20.145000	0.165997
	20.150000	0.018005
	20.155000	0.096934
	20.160000	0.290969
	20.165000	0.264659
	20.170000	0.139687
	20.175000	0.228483
	20.180000	0.419229
	20.185000	0.399496
	20.190000	0.274525
	20.195000	0.353454
	20.200000	0.547489
	20.205000	0.508024
	20.210000	0.356743
	20.215000	0.419229
	20.220000	0.596820
	20.225000	0.537623
	20.230000	0.376475
	20.235000	0.432384
	20.240000	0.596820
	20.245000	0.540912
	20.250000	0.373187
	20.255000	0.435672
	20.260000	0.603397
	20.265000	0.537623
	20.270000	0.369898
	20.275000	0.419229
	20.280000	0.583665
	20.285000	0.521179
	20.290000	0.346877
	20.295000	0.402785
	20.300000	0.563933
	20.305000	0.494869
	20.310000	0.327145
	20.315000	0.383053
	20.320000	0.540912
	20.325000	0.481715
	20.330000	0.300835
	20.335000	0.360032
	20.340000	0.521179
	20.345000	0.465271
	20.350000	0.287680
	20.355000	0.346877
	20.360000	0.504736
	20.365000	0.442250
	20.370000	0.274525
	20.375000	0.330433
	20.380000	0.491581
	20.385000	0.429095
	20.390000	0.254793
	20.395000	0.313990
	20.400000	0.485003
	20.405000	0.412651
	20.410000	0.251504
	20.415000	0.307412
	20.420000	0.468560
	20.425000	0.406074
	20.430000	0.235060
	20.435000	0.297546
	20.440000	0.458694
	20.445000	0.396208
	20.450000	0.225194
	20.455000	0.284391
	20.460000	0.455405
	20.465000	0.386342
	20.470000	0.221905
	20.475000	0.274525
	20.480000	0.445539
	20.485000	0.373187
	20.490000	0.208751
	20.495000	0.267948
	20.500000	0.432384
	20.505000	0.366609
	20.510000	0.198884
	20.515000	0.261370
	20.520000	0.419229
	20.525000	0.360032
	20.530000	0.192307
	20.535000	0.251504
	20.540000	0.415940
	20.545000	0.353454
	20.550000	0.179152
	20.555000	0.248215
	20.560000	0.409363
	20.565000	0.343588
	20.570000	0.172575
	20.575000	0.238349
	20.580000	0.396208
	20.585000	0.333722
	20.590000	0.162708
	20.595000	0.228483
	20.600000	0.389630
	20.605000	0.320567
	20.610000	0.149554
	20.615000	0.215328
	20.620000	0.379764
	20.625000	0.310701
	20.630000	0.142976
	20.635000	0.205462
	20.640000	0.366609
	20.645000	0.294257
	20.650000	0.129821
	20.655000	0.192307
	20.660000	0.356743
	20.665000	0.287680
	20.670000	0.119955
	20.675000	0.182441
	20.680000	0.346877
	20.685000	0.281102
	20.690000	0.110089
	20.695000	0.175863
	20.700000	0.340299
	20.705000	0.264659
	20.710000	0.106800
	20.715000	0.169286
	20.720000	0.330433
	20.725000	0.258081
	20.730000	0.093645
	20.735000	0.159420
	20.740000	0.317278
	20.745000	0.248215
	20.750000	0.087068
	20.755000	0.149554
	20.760000	0.310701
	20.765000	0.231772
	20.770000	0.070624
	20.775000	0.133110
	20.780000	0.287680
	20.785000	0.208751
	20.790000	0.034448
	20.795000	0.096934
	20.800000	0.244927
	20.805000	0.162708
	20.810000	-0.011594
	20.815000	0.037737
	20.820000	0.185730
	20.825000	0.093645
	20.830000	-0.077368
	20.835000	-0.037904
	20.840000	0.093645
	20.845000	-0.014883
	20.850000	-0.222072
	20.855000	-0.215495
	20.860000	-0.113544
	20.865000	-0.235227
	20.870000	-0.429262
	20.875000	-0.383220
	20.880000	-0.245093
	20.885000	-0.317445
	20.890000	-0.481881
	20.895000	-0.409529
	20.900000	-0.245093
	20.905000	-0.310868
	20.910000	-0.465438
	20.915000	-0.389797
	20.920000	-0.228650
	20.925000	-0.287847
	20.930000	-0.442417
	20.935000	-0.370065
	20.940000	-0.208917
	20.945000	-0.268114
	20.950000	-0.419395
	20.955000	-0.340466
	20.960000	-0.182607
	20.965000	-0.245093
	20.970000	-0.402952
	20.975000	-0.324023
	20.980000	-0.162875
	20.985000	-0.228650
	20.990000	-0.383220
	20.995000	-0.304290
	21.000000	-0.153009
	21.005000	-0.215495
	21.010000	-0.363487
	21.015000	-0.287847
	21.020000	-0.133277
	21.025000	-0.202340
	21.030000	-0.350332
	21.035000	-0.274692
	21.040000	-0.120122
	21.045000	-0.189185
	21.050000	-0.330600
	21.055000	-0.258248
	21.060000	-0.106967
	21.065000	-0.169453
	21.070000	-0.317445
	21.075000	-0.245093
	21.080000	-0.083946
	21.085000	-0.153009
	21.090000	-0.301001
	21.095000	-0.222072
	21.100000	-0.067502
	21.105000	-0.133277
	21.110000	-0.287847
	21.115000	-0.202340
	21.120000	-0.054347
	21.125000	-0.116833
	21.130000	-0.268114
	21.135000	-0.189185
	21.140000	-0.037904
	21.145000	-0.106967
	21.150000	-0.251671
	21.155000	-0.172741
	21.160000	-0.024749
	21.165000	-0.090523
	21.170000	-0.238516
	21.175000	-0.159586
	21.180000	-0.008305
	21.185000	-0.074080
	21.190000	-0.218783
	21.195000	-0.143143
	21.200000	0.008138
	21.205000	-0.060925
	21.210000	-0.212206
	21.215000	-0.129988
	21.220000	0.021293
	21.225000	-0.054347
	21.230000	-0.199051
	21.235000	-0.123410
	21.240000	0.027871
	21.245000	-0.044481
	21.250000	-0.192474
	21.255000	-0.113544
	21.260000	0.041026
	21.265000	-0.037904
	21.270000	-0.189185
	21.275000	-0.106967
	21.280000	0.044314
	21.285000	-0.037904
	21.290000	-0.179319
	21.295000	-0.100389
	21.300000	0.044314
	21.305000	-0.034615
	21.310000	-0.172741
	21.315000	-0.097101
	21.320000	0.054181
	21.325000	-0.021460
	21.330000	-0.169453
	21.335000	-0.093812
	21.340000	0.057469
	21.345000	-0.021460
	21.350000	-0.169453
	21.355000	-0.090523
	21.360000	0.064047
	21.365000	-0.018171
	21.370000	-0.162875
	21.375000	-0.083946
	21.380000	0.067335
	21.385000	-0.011594
	21.390000	-0.156298
	21.395000	-0.077368
	21.400000	0.070624
	21.405000	-0.005016
	21.410000	-0.153009
	21.415000	-0.074080
	21.420000	0.077202
	21.425000	-0.001728
	21.430000	-0.153009
	21.435000	-0.067502
	21.440000	0.083779
	21.445000	0.004850
	21.450000	-0.146431
	21.455000	-0.064213
	21.460000	0.080490
	21.465000	0.001561
	21.470000	-0.143143
	21.475000	-0.060925
	21.480000	0.090357
	21.485000	0.004850
	21.490000	-0.143143
	21.495000	-0.054347
	21.500000	0.090357
	21.505000	0.008138
	21.510000	-0.139854
	21.515000	-0.054347
	21.520000	0.093645
	21.525000	0.008138
	21.530000	-0.136565
	21.535000	-0.057636
	21.540000	0.090357
	21.545000	0.011427
	21.550000	-0.136565
	21.555000	-0.051059
	21.560000	0.093645
	21.565000	0.011427
	21.570000	-0.133277
	21.575000	-0.044481
	21.580000	0.096934
	21.585000	0.011427
	21.590000	-0.133277
	21.595000	-0.051059
	21.600000	0.096934
	21.605000	0.011427
	21.610000	-0.136565
	21.615000	-0.051059
	21.620000	0.100223
	21.625000	0.014716
	21.630000	-0.133277
	21.635000	-0.041192
	21.640000	0.103511
	21.645000	0.018005
	21.650000	-0.133277
	21.655000	-0.041192
	21.660000	0.103511
	21.665000	0.024582
	21.670000	-0.129988
	21.675000	-0.037904
	21.680000	0.106800
	21.685000	0.018005
	21.690000	-0.126699
	21.695000	-0.031326
	21.700000	0.106800
	21.705000	0.021293
	21.710000	-0.123410
	21.715000	-0.034615
	21.720000	0.110089
	21.725000	0.027871
	21.730000	-0.116833
	21.735000	-0.028037
	21.740000	0.116666
	21.745000	0.031160
	21.750000	-0.116833
	21.755000	-0.024749
	21.760000	0.119955
	21.765000	0.031160
	21.770000	-0.113544
	21.775000	-0.021460
	21.780000	0.123244
	21.785000	0.034448
	21.790000	-0.110256
	21.795000	-0.021460
	21.800000	0.126533
	21.805000	0.037737
	21.810000	-0.103678
	21.815000	-0.018171
	21.820000	0.133110
	21.825000	0.044314
	21.830000	-0.103678
	21.835000	-0.014883
	21.840000	0.133110
	21.845000	0.050892
	21.850000	-0.100389
	21.855000	-0.008305
	21.860000	0.136399
	21.865000	0.044314
	21.870000	-0.097101
	21.875000	-0.005016
	21.880000	0.139687
	21.885000	0.047603
	21.890000	-0.093812
	21.895000	-0.001728
	21.900000	0.139687
	21.905000	0.050892
	21.910000	-0.093812
	21.915000	-0.001728
	21.920000	0.139687
	21.925000	0.054181
	21.930000	-0.090523
	21.935000	0.004850
	21.940000	0.142976
	21.945000	0.050892
	21.950000	-0.093812
	21.955000	0.001561
	21.960000	0.142976
	21.965000	0.054181
	21.970000	-0.090523
	21.975000	0.001561
	21.980000	0.146265
	21.985000	0.054181
	21.990000	-0.087234
	21.995000	0.001561
	22.000000	0.146265
	22.005000	0.047603
	22.010000	-0.090523
	22.015000	0.004850
	22.020000	0.149554
	22.025000	0.054181
	22.030000	-0.090523
	22.035000	0.004850
	22.040000	0.146265
	22.045000	0.054181
	22.050000	-0.090523
	22.055000	0.004850
	22.060000	0.142976
	22.065000	0.054181
	22.070000	-0.093812
	22.075000	0.004850
	22.080000	0.146265
	22.085000	0.047603
	22.090000	-0.090523
	22.095000	0.008138
	22.100000	0.142976
	22.105000	0.050892
	22.110000	-0.090523
	22.115000	0.008138
	22.120000	0.142976
	22.125000	0.047603
	22.130000	-0.090523
	22.135000	0.004850
	22.140000	0.142976
	22.145000	0.044314
	22.150000	-0.093812
	22.155000	-0.001728
	22.160000	0.146265
	22.165000	0.044314
	22.170000	-0.093812
	22.175000	0.004850
	22.180000	0.142976
	22.185000	0.044314
	22.190000	-0.097101
	22.195000	-0.001728
	22.200000	0.139687
	22.205000	0.044314
	22.210000	-0.093812
	22.215000	0.004850
	22.220000	0.142976
	22.225000	0.044314
	22.230000	-0.093812
	22.235000	0.011427
	22.240000	0.142976
	22.245000	0.044314
	22.250000	-0.090523
	22.255000	0.011427
	22.260000	0.146265
	22.265000	0.050892
	22.270000	-0.090523
	22.275000	0.011427
	22.280000	0.152842
	22.285000	0.044314
	22.290000	-0.087234
	22.295000	0.018005
	22.300000	0.146265
	22.305000	0.047603
	22.310000	-0.083946
	22.315000	0.011427
	22.320000	0.152842
	22.325000	0.047603
	22.330000	-0.083946
	22.335000	0.021293
	22.340000	0.152842
	22.345000	0.054181
	22.350000	-0.080657
	22.355000	0.021293
	22.360000	0.149554
	22.365000	0.054181
	22.370000	-0.083946
	22.375000	0.018005
	22.380000	0.156131
	22.385000	0.054181
	22.390000	-0.080657
	22.395000	0.024582
	22.400000	0.162708
	22.405000	0.057469
	22.410000	-0.077368
	22.415000	0.027871
	22.420000	0.162708
	22.425000	0.060758
	22.430000	-0.077368
	22.435000	0.031160
	22.440000	0.162708
	22.445000	0.067335
	22.450000	-0.067502
	22.455000	0.037737
	22.460000	0.172575
	22.465000	0.073913
	22.470000	-0.064213
	22.475000	0.044314
	22.480000	0.182441
	22.485000	0.077202
	22.490000	-0.057636
	22.495000	0.057469
	22.500000	0.192307
	22.505000	0.087068
	22.510000	-0.041192
	22.515000	0.067335
	22.520000	0.212039
	22.525000	0.116666
	22.530000	-0.018171
	22.535000	0.103511
	22.540000	0.254793
	22.545000	0.162708
	22.550000	0.050892
	22.555000	0.179152
	22.560000	0.330433
	22.565000	0.244927
	22.570000	0.133110
	22.575000	0.261370
	22.580000	0.415940
	22.585000	0.323856
	22.590000	0.205462
	22.595000	0.330433
	22.600000	0.475137
	22.605000	0.383053
	22.610000	0.264659
	22.615000	0.386342
	22.620000	0.531045
	22.625000	0.432384
	22.630000	0.304124
	22.635000	0.425806
	22.640000	0.560644
	22.645000	0.458694
	22.650000	0.330433
	22.655000	0.438961
	22.660000	0.577088
	22.665000	0.468560
	22.670000	0.333722
	22.675000	0.442250
	22.680000	0.577088
	22.685000	0.465271
	22.690000	0.330433
	22.695000	0.438961
	22.700000	0.570510
	22.705000	0.458694
	22.710000	0.313990
	22.715000	0.429095
	22.720000	0.560644
	22.725000	0.442250
	22.730000	0.304124
	22.735000	0.415940
	22.740000	0.547489
	22.745000	0.429095
	22.750000	0.290969
	22.755000	0.399496
	22.760000	0.534334
	22.765000	0.412651
	22.770000	0.281102
	22.775000	0.389630
	22.780000	0.517891
	22.785000	0.396208
	22.790000	0.261370
	22.795000	0.373187
	22.800000	0.504736
	22.805000	0.379764
	22.810000	0.238349
	22.815000	0.353454
	22.820000	0.488292
	22.825000	0.366609
	22.830000	0.228483
	22.835000	0.343588
	22.840000	0.475137
	22.845000	0.356743
	22.850000	0.212039
	22.855000	0.327145
	22.860000	0.452116
	22.865000	0.340299
	22.870000	0.198884
	22.875000	0.313990
	22.880000	0.445539
	22.885000	0.330433
	22.890000	0.185730
	22.895000	0.304124
	22.900000	0.438961
	22.905000	0.320567
	22.910000	0.179152
	22.915000	0.300835
	22.920000	0.432384
	22.925000	0.307412
	22.930000	0.172575
	22.935000	0.290969
	22.940000	0.422518
	22.945000	0.304124
	22.950000	0.169286
	22.955000	0.287680
	22.960000	0.415940
	22.965000	0.297546
	22.970000	0.159420
	22.975000	0.281102
	22.980000	0.415940
	22.985000	0.290969
	22.990000	0.159420
	22.995000	0.277814
	23.000000	0.406074
	23.005000	0.284391
	23.010000	0.149554
	23.015000	0.274525
	23.020000	0.399496
	23.025000	0.281102
	23.030000	0.149554
	23.035000	0.261370
	23.040000	0.392919
	23.045000	0.271236
	23.050000	0.133110
	23.055000	0.258081
	23.060000	0.389630
	23.065000	0.261370
	23.070000	0.136399
	23.075000	0.254793
	23.080000	0.386342
	23.085000	0.261370
	23.090000	0.129821
	23.095000	0.251504
	23.100000	0.383053
	23.105000	0.258081
	23.110000	0.123244
	23.115000	0.248215
	23.120000	0.373187
	23.125000	0.254793
	23.130000	0.126533
	23.135000	0.241638
	23.140000	0.376475
	23.145000	0.251504
	23.150000	0.119955
	23.155000	0.238349
	23.160000	0.369898
	23.165000	0.238349
	23.170000	0.110089
	23.175000	0.235060
	23.180000	0.363321
	23.185000	0.231772
	23.190000	0.106800
	23.195000	0.225194
	23.200000	0.353454
	23.205000	0.221905
	23.210000	0.096934
	23.215000	0.221905
	23.220000	0.340299
	23.225000	0.221905
	23.230000	0.087068
	23.235000	0.208751
	23.240000	0.327145
	23.245000	0.195596
	23.250000	0.064047
	23.255000	0.182441
	23.260000	0.300835
	23.265000	0.162708
	23.270000	0.031160
	23.275000	0.142976
	23.280000	0.254793
	23.285000	0.116666
	23.290000	-0.014883
	23.295000	0.096934
	23.300000	0.208751
	23.305000	0.067335
	23.310000	-0.064213
	23.315000	0.044314
	23.320000	0.142976
	23.325000	-0.005016
	23.330000	-0.156298
	23.335000	-0.060925
	23.340000	0.021293
	23.345000	-0.149720
	23.350000	-0.310868
	23.355000	-0.231938
	23.360000	-0.143143
	23.365000	-0.291135
	23.370000	-0.422684
	23.375000	-0.320734
	23.380000	-0.208917
	23.385000	-0.333889
	23.390000	-0.455571
	23.395000	-0.330600
	23.400000	-0.212206
	23.405000	-0.330600
	23.410000	-0.445705
	23.415000	-0.320734
	23.420000	-0.199051
	23.425000	-0.320734
	23.430000	-0.429262
	23.435000	-0.301001
	23.440000	-0.179319
	23.445000	-0.294424
	23.450000	-0.409529
	23.455000	-0.281269
	23.460000	-0.162875
	23.465000	-0.277980
	23.470000	-0.393086
	23.475000	-0.264826
	23.480000	-0.139854
	23.485000	-0.268114
	23.490000	-0.376642
	23.495000	-0.245093
	23.500000	-0.126699
	23.505000	-0.248382
	23.510000	-0.360198
	23.515000	-0.225361
	23.520000	-0.113544
	23.525000	-0.235227
	23.530000	-0.340466
	23.535000	-0.208917
	23.540000	-0.093812
	23.545000	-0.215495
	23.550000	-0.324023
	23.555000	-0.195762
	23.560000	-0.077368
	23.565000	-0.199051
	23.570000	-0.310868
	23.575000	-0.176030
	23.580000	-0.060925
	23.585000	-0.189185
	23.590000	-0.297713
	23.595000	-0.166164
	23.600000	-0.044481
	23.605000	-0.169453
	23.610000	-0.277980
	23.615000	-0.149720
	23.620000	-0.031326
	23.625000	-0.156298
	23.630000	-0.268114
	23.635000	-0.133277
	23.640000	-0.018171
	23.645000	-0.143143
	23.650000	-0.251671
	23.655000	-0.120122
	23.660000	-0.008305
	23.665000	-0.133277
	23.670000	-0.235227
	23.675000	-0.106967
	23.680000	0.004850
	23.685000	-0.123410
	23.690000	-0.228650
	23.695000	-0.100389
	23.700000	0.014716
	23.705000	-0.110256
	23.710000	-0.215495
	23.715000	-0.090523
	23.720000	0.024582
	23.725000	-0.100389
	23.730000	-0.208917
	23.735000	-0.074080
	23.740000	0.031160
	23.745000	-0.093812
	23.750000	-0.199051
	23.755000	-0.067502
	23.760000	0.044314
	23.765000	-0.083946
	23.770000	-0.192474
	23.775000	-0.060925
	23.780000	0.047603
	23.785000	-0.077368
	23.790000	-0.185896
	23.795000	-0.054347
	23.800000	0.054181
	23.805000	-0.077368
	23.810000	-0.179319
	23.815000	-0.054347
	23.820000	0.060758
	23.825000	-0.067502
	23.830000	-0.179319
	23.835000	-0.047770
	23.840000	0.060758
	23.845000	-0.067502
	23.850000	-0.172741
	23.855000	-0.037904
	23.860000	0.067335
	23.865000	-0.064213
	23.870000	-0.166164
	23.875000	-0.037904
	23.880000	0.073913
	23.885000	-0.064213
	23.890000	-0.162875
	23.895000	-0.031326
	23.900000	0.070624
	23.905000	-0.060925
	23.910000	-0.166164
	23.915000	-0.031326
	23.920000	0.080490
	23.925000	-0.060925
	23.930000	-0.166164
	23.935000	-0.028037
	23.940000	0.070624
	23.945000	-0.057636
	23.950000	-0.159586
	23.955000	-0.028037
	23.960000	0.077202
	23.965000	-0.060925
	23.970000	-0.156298
	23.975000	-0.024749
	23.980000	0.080490
	23.985000	-0.060925
	23.990000	-0.156298
	23.995000	-0.028037
	24.000000	0.080490
	24.005000	-0.057636
	24.010000	-0.153009
	24.015000	-0.021460
	24.020000	0.083779
	24.025000	-0.057636
	24.030000	-0.156298
	24.035000	-0.018171
	24.040000	0.083779
	24.045000	-0.054347
	24.050000	-0.153009
	24.055000	-0.018171
	24.060000	0.083779
	24.065000	-0.060925
	24.070000	-0.156298
	24.075000	-0.018171
	24.080000	0.087068
	24.085000	-0.047770
	24.090000	-0.149720
	24.095000	-0.011594
	24.100000	0.083779
	24.105000	-0.051059
	24.110000	-0.149720
	24.115000	-0.011594
	24.120000	0.087068
	24.125000	-0.047770
	24.130000	-0.146431
	24.135000	-0.005016
	24.140000	0.090357
	24.145000	-0.047770
	24.150000	-0.139854
	24.155000	-0.001728
	24.160000	0.093645
	24.165000	-0.044481
	24.170000	-0.139854
	24.175000	-0.005016
	24.180000	0.096934
	24.185000	-0.037904
	24.190000	-0.139854
	24.195000	0.001561
	24.200000	0.100223
	24.205000	-0.037904
	24.210000	-0.136565
	24.215000	0.001561
	24.220000	0.103511
	24.225000	-0.034615
	24.230000	-0.133277
	24.235000	0.011427
	24.240000	0.103511
	24.245000	-0.034615
	24.250000	-0.129988
	24.255000	0.018005
	24.260000	0.106800
	24.265000	-0.028037
	24.270000	-0.129988
	24.275000	0.014716
	24.280000	0.110089
	24.285000	-0.031326
	24.290000	-0.116833
	24.295000	0.018005
	24.300000	0.113378
	24.305000	-0.024749
	24.310000	-0.120122
	24.315000	0.021293
	24.320000	0.116666
	24.325000	-0.024749
	24.330000	-0.113544
	24.335000	0.027871
	24.340000	0.123244
	24.345000	-0.018171
	24.350000	-0.113544
	24.355000	0.031160
	24.360000	0.129821
	24.365000	-0.011594
	24.370000	-0.106967
	24.375000	0.034448
	24.380000	0.136399
	24.385000	-0.014883
	24.390000	-0.106967
	24.395000	0.037737
	24.400000	0.129821
	24.405000	-0.011594
	24.410000	-0.103678
	24.415000	0.041026
	24.420000	0.133110
	24.425000	-0.008305
	24.430000	-0.100389
	24.435000	0.044314
	24.440000	0.129821
	24.445000	-0.008305
	24.450000	-0.100389
	24.455000	0.047603
	24.460000	0.139687
	24.465000	-0.001728
	24.470000	-0.100389
	24.475000	0.044314
	24.480000	0.139687
	24.485000	-0.005016
	24.490000	-0.097101
	24.495000	0.050892
	24.500000	0.139687
	24.505000	-0.008305
	24.510000	-0.093812
	24.515000	0.050892
	24.520000	0.139687
	24.525000	-0.005016
	24.530000	-0.093812
	24.535000	0.047603
	24.540000	0.139687
	24.545000	-0.005016
	24.550000	-0.097101
	24.555000	0.050892
	24.560000	0.133110
	24.565000	-0.005016
	24.570000	-0.097101
	24.575000	0.050892
	24.580000	0.142976
	24.585000	-0.008305
	24.590000	-0.093812
	24.595000	0.054181
	24.600000	0.136399
	24.605000	-0.008305
	24.610000	-0.097101
	24.615000	0.050892
	24.620000	0.133110
	24.625000	-0.008305
	24.630000	-0.097101
	24.635000	0.047603
	24.640000	0.133110
	24.645000	-0.014883
	24.650000	-0.097101
	24.655000	0.047603
	24.660000	0.136399
	24.665000	-0.011594
	24.670000	-0.100389
	24.675000	0.047603
	24.680000	0.136399
	24.685000	-0.014883
	24.690000	-0.097101
	24.695000	0.050892
	24.700000	0.133110
	24.705000	-0.011594
	24.710000	-0.097101
	24.715000	0.047603
	24.720000	0.136399
	24.725000	-0.014883
	24.730000	-0.097101
	24.735000	0.050892
	24.740000	0.136399
	24.745000	-0.014883
	24.750000	-0.093812
	24.755000	0.054181
	24.760000	0.133110
	24.765000	-0.011594
	24.770000	-0.093812
	24.775000	0.057469
	24.780000	0.139687
	24.785000	-0.008305
	24.790000	-0.090523
	24.795000	0.057469
	24.800000	0.139687
	24.805000	-0.005016
	24.810000	-0.090523
	24.815000	0.060758
	24.820000	0.149554
	24.825000	-0.008305
	24.830000	-0.087234
	24.835000	0.064047
	24.840000	0.146265
	24.845000	-0.005016
	24.850000	-0.083946
	24.855000	0.067335
	24.860000	0.146265
	24.865000	-0.005016
	24.870000	-0.080657
	24.875000	0.077202
	24.880000	0.152842
	24.885000	0.004850
	24.890000	-0.077368
	24.895000	0.080490
	24.900000	0.159420
	24.905000	0.011427
	24.910000	-0.067502
	24.915000	0.090357
	24.920000	0.169286
	24.925000	0.021293
	24.930000	-0.054347
	24.935000	0.103511
	24.940000	0.189018
	24.945000	0.041026
	24.950000	-0.024749
	24.955000	0.136399
	24.960000	0.228483
	24.965000	0.090357
	24.970000	0.027871
	24.975000	0.205462
	24.980000	0.297546
	24.985000	0.165997
	24.990000	0.113378
	24.995000	0.290969
	25.000000	0.396208
	25.005000	0.264659
	25.010000	0.215328
	25.015000	0.379764
	25.020000	0.478426
	25.025000	0.340299
	25.030000	0.271236
	25.035000	0.432384
	25.040000	0.517891
	25.045000	0.369898
	25.050000	0.300835
	25.055000	0.458694
	25.060000	0.540912
	25.065000	0.386342
	25.070000	0.310701
	25.075000	0.471848
	25.080000	0.544200
	25.085000	0.396208
	25.090000	0.317278
	25.095000	0.475137
	25.100000	0.550778
	25.105000	0.389630
	25.110000	0.313990
	25.115000	0.465271
	25.120000	0.537623
	25.125000	0.376475
	25.130000	0.304124
	25.135000	0.458694
	25.140000	0.527757
	25.145000	0.363321
	25.150000	0.287680
	25.155000	0.438961
	25.160000	0.511313
	25.165000	0.343588
	25.170000	0.264659
	25.175000	0.429095
	25.180000	0.498158
	25.185000	0.337011
	25.190000	0.258081
	25.195000	0.409363
	25.200000	0.485003
	25.205000	0.317278
	25.210000	0.241638
	25.215000	0.402785
	25.220000	0.475137
	25.225000	0.310701
	25.230000	0.225194
	25.235000	0.383053
	25.240000	0.458694
	25.245000	0.294257
	25.250000	0.212039
	25.255000	0.373187
	25.260000	0.445539
	25.265000	0.277814
	25.270000	0.202173
	25.275000	0.363321
	25.280000	0.432384
	25.285000	0.261370
	25.290000	0.189018
	25.295000	0.350166
	25.300000	0.419229
	25.305000	0.251504
	25.310000	0.175863
	25.315000	0.337011
	25.320000	0.409363
	25.325000	0.244927
	25.330000	0.165997
	25.335000	0.333722
	25.340000	0.406074
	25.345000	0.228483
	25.350000	0.162708
	25.355000	0.323856
	25.360000	0.392919
	25.365000	0.221905
	25.370000	0.146265
	25.375000	0.307412
	25.380000	0.383053
	25.385000	0.215328
	25.390000	0.142976
	25.395000	0.310701
	25.400000	0.376475
	25.405000	0.202173
	25.410000	0.139687
	25.415000	0.304124
	25.420000	0.369898
	25.425000	0.202173
	25.430000	0.133110
	25.435000	0.297546
	25.440000	0.363321
	25.445000	0.195596
	25.450000	0.126533
	25.455000	0.290969
	25.460000	0.360032
	25.465000	0.189018
	25.470000	0.123244
	25.475000	0.287680
	25.480000	0.353454
	25.485000	0.182441
	25.490000	0.113378
	25.495000	0.281102
	25.500000	0.346877
	25.505000	0.182441
	25.510000	0.103511
	25.515000	0.277814
	25.520000	0.337011
	25.525000	0.172575
	25.530000	0.103511
	25.535000	0.271236
	25.540000	0.333722
	25.545000	0.159420
	25.550000	0.103511
	25.555000	0.264659
	25.560000	0.330433
	25.565000	0.159420
	25.570000	0.093645
	25.575000	0.261370
	25.580000	0.320567
	25.585000	0.156131
	25.590000	0.090357
	25.595000	0.251504
	25.600000	0.317278
	25.605000	0.146265
	25.610000	0.080490
	25.615000	0.251504
	25.620000	0.313990
	25.625000	0.142976
	25.630000	0.077202
	25.635000	0.251504
	25.640000	0.307412
	25.645000	0.142976
	25.650000	0.077202
	25.655000	0.244927
	25.660000	0.300835
	25.665000	0.139687
	25.670000	0.070624
	25.675000	0.238349
	25.680000	0.297546
	25.685000	0.133110
	25.690000	0.067335
	25.695000	0.235060
	25.700000	0.297546
	25.705000	0.129821
	25.710000	0.064047
	25.715000	0.231772
	25.720000	0.290969
	25.725000	0.123244
	25.730000	0.057469
	25.735000	0.221905
	25.740000	0.287680
	25.745000	0.113378
	25.750000	0.050892
	25.755000	0.212039
	25.760000	0.274525
	25.765000	0.096934
	25.770000	0.037737
	25.775000	0.205462
	25.780000	0.258081
	25.785000	0.083779
	25.790000	0.024582
	25.795000	0.182441
	25.800000	0.241638
	25.805000	0.067335
	25.810000	0.008138
	25.815000	0.169286
	25.820000	0.218617
	25.825000	0.047603
	25.830000	-0.021460
	25.835000	0.142976
	25.840000	0.192307
	25.845000	0.014716
	25.850000	-0.037904
	25.855000	0.123244
	25.860000	0.169286
	25.865000	-0.001728
	25.870000	-0.060925
	25.875000	0.100223
	25.880000	0.142976
	25.885000	-0.031326
	25.890000	-0.087234
	25.895000	0.073913
	25.900000	0.119955
	25.905000	-0.060925
	25.910000	-0.116833
	25.915000	0.037737
	25.920000	0.083779
	25.925000	-0.097101
	25.930000	-0.159586
	25.935000	-0.011594
	25.940000	0.021293
	25.945000	-0.169453
	25.950000	-0.245093
	25.955000	-0.113544
	25.960000	-0.106967
	25.965000	-0.304290
	25.970000	-0.396374
	25.975000	-0.268114
	25.980000	-0.241804
	25.985000	-0.432550
	25.990000	-0.498325
	25.995000	-0.343755
	26.000000	-0.310868
	26.005000	-0.475304
	26.010000	-0.534501
	26.015000	-0.373353
	26.020000	-0.317445
	26.025000	-0.478592
	26.030000	-0.524635
	26.035000	-0.353621
	26.040000	-0.304290
	26.045000	-0.458860
	26.050000	-0.501614
	26.055000	-0.333889
	26.060000	-0.287847
	26.065000	-0.439128
	26.070000	-0.478592
	26.075000	-0.314156
	26.080000	-0.254959
	26.085000	-0.416107
	26.090000	-0.455571
	26.095000	-0.287847
	26.100000	-0.235227
	26.105000	-0.396374
	26.110000	-0.435839
	26.115000	-0.264826
	26.120000	-0.218783
	26.125000	-0.376642
	26.130000	-0.412818
	26.135000	-0.251671
	26.140000	-0.199051
	26.145000	-0.356910
	26.150000	-0.396374
	26.155000	-0.228650
	26.160000	-0.182607
	26.165000	-0.333889
	26.170000	-0.379931
	26.175000	-0.212206
	26.180000	-0.166164
	26.185000	-0.327311
	26.190000	-0.363487
	26.195000	-0.192474
	26.200000	-0.149720
	26.205000	-0.310868
	26.210000	-0.340466
	26.215000	-0.176030
	26.220000	-0.136565
	26.225000	-0.291135
	26.230000	-0.330600
	26.235000	-0.159586
	26.240000	-0.113544
	26.245000	-0.274692
	26.250000	-0.314156
	26.255000	-0.146431
	26.260000	-0.103678
	26.265000	-0.261537
	26.270000	-0.301001
	26.275000	-0.133277
	26.280000	-0.090523
	26.285000	-0.251671
	26.290000	-0.287847
	26.295000	-0.116833
	26.300000	-0.077368
	26.305000	-0.241804
	26.310000	-0.274692
	26.315000	-0.110256
	26.320000	-0.067502
	26.325000	-0.228650
	26.330000	-0.261537
	26.335000	-0.090523
	26.340000	-0.057636
	26.345000	-0.218783
	26.350000	-0.248382
	26.355000	-0.080657
	26.360000	-0.041192
	26.365000	-0.212206
	26.370000	-0.241804
	26.375000	-0.070791
	26.380000	-0.031326
	26.385000	-0.199051
	26.390000	-0.228650
	26.395000	-0.060925
	26.400000	-0.031326
	26.405000	-0.192474
	26.410000	-0.225361
	26.415000	-0.057636
	26.420000	-0.021460
	26.425000	-0.185896
	26.430000	-0.215495
	26.435000	-0.047770
	26.440000	-0.014883
	26.445000	-0.179319
	26.450000	-0.212206
	26.455000	-0.041192
	26.460000	-0.011594
	26.465000	-0.172741
	26.470000	-0.208917
	26.475000	-0.041192
	26.480000	-0.008305
	26.485000	-0.172741
	26.490000	-0.199051
	26.495000	-0.034615
	26.500000	-0.008305
	26.505000	-0.169453
	26.510000	-0.202340
	26.515000	-0.034615
	26.520000	-0.005016
	26.525000	-0.166164
	26.530000	-0.199051
	26.535000	-0.031326
	26.540000	-0.001728
	26.545000	-0.162875
	26.550000	-0.195762
	26.555000	-0.024749
	26.560000	-0.005016
	26.565000	-0.162875
	26.570000	-0.192474
	26.575000	-0.021460
	26.580000	0.001561
	26.585000	-0.162875
	26.590000	-0.189185
	26.595000	-0.024749
	26.600000	0.004850
	26.605000	-0.159586
	26.610000	-0.185896
	26.615000	-0.014883
	26.620000	0.004850
	26.625000	-0.159586
	26.630000	-0.185896
	26.635000	-0.024749
	26.640000	0.011427
	26.645000	-0.156298
	26.650000	-0.179319
	26.655000	-0.014883
	26.660000	0.011427
	26.665000	-0.153009
	26.670000	-0.176030
	26.675000	-0.008305
	26.680000	0.014716
	26.685000	-0.149720
	26.690000	-0.176030
	26.695000	-0.001728
	26.700000	0.024582
	26.705000	-0.143143
	26.710000	-0.162875
	26.715000	0.001561
	26.720000	0.024582
	26.725000	-0.143143
	26.730000	-0.162875
	26.735000	0.004850
	26.740000	0.024582
	26.745000	-0.133277
	26.750000	-0.159586
	26.755000	0.011427
	26.760000	0.034448
	26.765000	-0.133277
	26.770000	-0.146431
	26.775000	0.018005
	26.780000	0.041026
	26.785000	-0.126699
	26.790000	-0.146431
	26.795000	0.024582
	26.800000	0.047603
	26.805000	-0.123410
	26.810000	-0.143143
	26.815000	0.031160
	26.820000	0.047603
	26.825000	-0.116833
	26.830000	-0.133277
	26.835000	0.034448
	26.840000	0.050892
	26.845000	-0.120122
	26.850000	-0.129988
	26.855000	0.037737
	26.860000	0.054181
	26.865000	-0.113544
	26.870000	-0.129988
	26.875000	0.037737
	26.880000	0.054181
	26.885000	-0.103678
	26.890000	-0.126699
	26.895000	0.041026
	26.900000	0.060758
	26.905000	-0.110256
	26.910000	-0.126699
	26.915000	0.041026
	26.920000	0.064047
	26.925000	-0.103678
	26.930000	-0.120122
	26.935000	0.044314
	26.940000	0.060758
	26.945000	-0.103678
	26.950000	-0.116833
	26.955000	0.054181
	26.960000	0.067335
	26.965000	-0.103678
	26.970000	-0.116833
	26.975000	0.057469
	26.980000	0.064047
	26.985000	-0.106967
	26.990000	-0.110256
	26.995000	0.060758
	27.000000	0.070624
	27.005000	-0.097101
	27.010000	-0.106967
	27.015000	0.057469
	27.020000	0.067335
	27.025000	-0.097101
	27.030000	-0.106967
	27.035000	0.060758
	27.040000	0.073913
	27.045000	-0.093812
	27.050000	-0.106967
	27.055000	0.060758
	27.060000	0.073913
	27.065000	-0.093812
	27.070000	-0.106967
	27.075000	0.060758
	27.080000	0.077202
	27.085000	-0.093812
	27.090000	-0.103678
	27.095000	0.070624
	27.100000	0.077202
	27.105000	-0.090523
	27.110000	-0.097101
	27.115000	0.064047
	27.120000	0.077202
	27.125000	-0.097101
	27.130000	-0.100389
	27.135000	0.070624
	27.140000	0.077202
	27.145000	-0.093812
	27.150000	-0.097101
	27.155000	0.070624
	27.160000	0.077202
	27.165000	-0.093812
	27.170000	-0.093812
	27.175000	0.077202
	27.180000	0.080490
	27.185000	-0.087234
	27.190000	-0.093812
	27.195000	0.077202
	27.200000	0.077202
	27.205000	-0.090523
	27.210000	-0.093812
	27.215000	0.070624
	27.220000	0.080490
	27.225000	-0.087234
	27.230000	-0.093812
	27.235000	0.080490
	27.240000	0.083779
	27.245000	-0.087234
	27.250000	-0.093812
	27.255000	0.080490
	27.260000	0.080490
	27.265000	-0.090523
	27.270000	-0.090523
	27.275000	0.077202
	27.280000	0.080490
	27.285000	-0.090523
	27.290000	-0.083946
	27.295000	0.080490
	27.300000	0.080490
	27.305000	-0.087234
	27.310000	-0.083946
	27.315000	0.083779
	27.320000	0.083779
	27.325000	-0.083946
	27.330000	-0.083946
	27.335000	0.083779
	27.340000	0.087068
	27.345000	-0.087234
	27.350000	-0.083946
	27.355000	0.087068
	27.360000	0.083779
	27.365000	-0.083946
	27.370000	-0.083946
	27.375000	0.087068
	27.380000	0.083779
	27.385000	-0.083946
	27.390000	-0.080657
	27.395000	0.090357
	27.400000	0.080490
	27.405000	-0.080657
	27.410000	-0.077368
	27.415000	0.090357
	27.420000	0.090357
	27.425000	-0.080657
	27.430000	-0.077368
	27.435000	0.093645
	27.440000	0.090357
	27.445000	-0.077368
	27.450000	-0.080657
	27.455000	0.096934
	27.460000	0.087068
	27.465000	-0.083946
	27.470000	-0.070791
	27.475000	0.096934
	27.480000	0.090357
	27.485000	-0.074080
	27.490000	-0.067502
	27.495000	0.103511
	27.500000	0.100223
	27.505000	-0.074080
	27.510000	-0.064213
	27.515000	0.106800
	27.520000	0.096934
	27.525000	-0.070791
	27.530000	-0.060925
	27.535000	0.110089
	27.540000	0.096934
	27.545000	-0.067502
	27.550000	-0.057636
	27.555000	0.110089
	27.560000	0.103511
	27.565000	-0.064213
	27.570000	-0.054347
	27.575000	0.113378
	27.580000	0.103511
	27.585000	-0.064213
	27.590000	-0.051059
	27.595000	0.116666
	27.600000	0.106800
	27.605000	-0.064213
	27.610000	-0.051059
	27.615000	0.116666
	27.620000	0.106800
	27.625000	-0.060925
	27.630000	-0.047770
	27.635000	0.123244
	27.640000	0.110089
	27.645000	-0.054347
	27.650000	-0.047770
	27.655000	0.126533
	27.660000	0.110089
	27.665000	-0.057636
	27.670000	-0.041192
	27.675000	0.126533
	27.680000	0.113378
	27.685000	-0.054347
	27.690000	-0.041192
	27.695000	0.126533
	27.700000	0.110089
	27.705000	-0.051059
	27.710000	-0.041192
	27.715000	0.129821
	27.720000	0.116666
	27.725000	-0.054347
	27.730000	-0.034615
	27.735000	0.133110
	27.740000	0.113378
	27.745000	-0.051059
	27.750000	-0.034615
	27.755000	0.136399
	27.760000	0.116666
	27.765000	-0.047770
	27.770000	-0.031326
	27.775000	0.139687
	27.780000	0.119955
	27.785000	-0.041192
	27.790000	-0.028037
	27.795000	0.142976
	27.800000	0.123244
	27.805000	-0.044481
	27.810000	-0.024749
	27.815000	0.142976
	27.820000	0.126533
	27.825000	-0.044481
	27.830000	-0.018171
	27.835000	0.152842
	27.840000	0.133110
	27.845000	-0.037904
	27.850000	-0.001728
	27.855000	0.175863
	27.860000	0.152842
	27.865000	-0.008305
	27.870000	0.018005
	27.875000	0.205462
	27.880000	0.198884
	27.885000	0.041026
	27.890000	0.090357
	27.895000	0.277814
	27.900000	0.281102
	27.905000	0.133110
	27.910000	0.179152
	27.915000	0.379764
	27.920000	0.379764
	27.925000	0.241638
	27.930000	0.290969
	27.935000	0.485003
	27.940000	0.478426
	27.945000	0.323856
	27.950000	0.360032
	27.955000	0.540912
	27.960000	0.524468
	27.965000	0.356743
	27.970000	0.389630
	27.975000	0.563933
	27.980000	0.540912
	27.985000	0.373187
	27.990000	0.392919
	27.995000	0.563933
	28.000000	0.544200
	28.005000	0.369898
	28.010000	0.386342
	28.015000	0.563933
	28.020000	0.540912
	28.025000	0.360032
	28.030000	0.389630
	28.035000	0.560644
	28.040000	0.534334
	28.045000	0.360032
	28.050000	0.379764
	28.055000	0.550778
	28.060000	0.527757
	28.065000	0.343588
	28.070000	0.373187
	28.075000	0.544200
	28.080000	0.514602
	28.085000	0.333722
	28.090000	0.363321
	28.095000	0.531045
	28.100000	0.501447
	28.105000	0.317278
	28.110000	0.340299
	28.115000	0.514602
	28.120000	0.485003
	28.125000	0.297546
	28.130000	0.330433
	28.135000	0.501447
	28.140000	0.461982
	28.145000	0.290969
	28.150000	0.310701
	28.155000	0.494869
	28.160000	0.458694
	28.165000	0.274525
	28.170000	0.297546
	28.175000	0.475137
	28.180000	0.438961
	28.185000	0.258081
	28.190000	0.287680
	28.195000	0.468560
	28.200000	0.429095
	28.205000	0.251504
	28.210000	0.284391
	28.215000	0.455405
	28.220000	0.419229
	28.225000	0.238349
	28.230000	0.267948
	28.235000	0.448827
	28.240000	0.415940
	28.245000	0.231772
	28.250000	0.264659
	28.255000	0.438961
	28.260000	0.399496
	28.265000	0.225194
	28.270000	0.258081
	28.275000	0.429095
	28.280000	0.392919
	28.285000	0.212039
	28.290000	0.251504
	28.295000	0.412651
	28.300000	0.383053
	28.305000	0.208751
	28.310000	0.238349
	28.315000	0.406074
	28.320000	0.369898
	28.325000	0.195596
	28.330000	0.225194
	28.335000	0.396208
	28.340000	0.356743
	28.345000	0.182441
	28.350000	0.215328
	28.355000	0.379764
	28.360000	0.340299
	28.365000	0.162708
	28.370000	0.198884
	28.375000	0.366609
	28.380000	0.320567
	28.385000	0.146265
	28.390000	0.179152
	28.395000	0.337011
	28.400000	0.290969
	28.405000	0.110089
	28.410000	0.139687
	28.415000	0.300835
	28.420000	0.248215
	28.425000	0.067335
	28.430000	0.093645
	28.435000	0.248215
	28.440000	0.195596
	28.445000	0.011427
	28.450000	0.034448
	28.455000	0.195596
	28.460000	0.126533
	28.465000	-0.060925
	28.470000	-0.047770
	28.475000	0.093645
	28.480000	0.014716
	28.485000	-0.192474
	28.490000	-0.205628
	28.495000	-0.093812
	28.500000	-0.189185
	28.505000	-0.393086
	28.510000	-0.376642
	28.515000	-0.231938
	28.520000	-0.287847
	28.525000	-0.465438
	28.530000	-0.425973
	28.535000	-0.264826
	28.540000	-0.304290
	28.545000	-0.465438
	28.550000	-0.425973
	28.555000	-0.254959
	28.560000	-0.291135
	28.565000	-0.445705
	28.570000	-0.402952
	28.575000	-0.235227
	28.580000	-0.271403
	28.585000	-0.432550
	28.590000	-0.379931
	28.595000	-0.212206
	28.600000	-0.245093
	28.605000	-0.406241
	28.610000	-0.353621
	28.615000	-0.189185
	28.620000	-0.228650
	28.625000	-0.389797
	28.630000	-0.337177
	28.635000	-0.172741
	28.640000	-0.215495
	28.645000	-0.373353
	28.650000	-0.320734
	28.655000	-0.156298
	28.660000	-0.199051
	28.665000	-0.360198
	28.670000	-0.310868
	28.675000	-0.139854
	28.680000	-0.189185
	28.685000	-0.347044
	28.690000	-0.294424
	28.695000	-0.129988
	28.700000	-0.176030
	28.705000	-0.330600
	28.710000	-0.281269
	28.715000	-0.110256
	28.720000	-0.159586
	28.725000	-0.317445
	28.730000	-0.261537
	28.735000	-0.103678
	28.740000	-0.146431
	28.745000	-0.304290
	28.750000	-0.254959
	28.755000	-0.087234
	28.760000	-0.136565
	28.765000	-0.291135
	28.770000	-0.238516
	28.775000	-0.070791
	28.780000	-0.120122
	28.785000	-0.274692
	28.790000	-0.225361
	28.795000	-0.057636
	28.800000	-0.106967
	28.805000	-0.261537
	28.810000	-0.205628
	28.815000	-0.041192
	28.820000	-0.093812
	28.825000	-0.245093
	28.830000	-0.189185
	28.835000	-0.028037
	28.840000	-0.074080
	28.845000	-0.231938
	28.850000	-0.179319
	28.855000	-0.011594
	28.860000	-0.064213
	28.865000	-0.218783
	28.870000	-0.159586
	28.875000	0.001561
	28.880000	-0.051059
	28.885000	-0.205628
	28.890000	-0.149720
	28.895000	0.014716
	28.900000	-0.041192
	28.905000	-0.195762
	28.910000	-0.133277
	28.915000	0.031160
	28.920000	-0.034615
	28.925000	-0.185896
	28.930000	-0.126699
	28.935000	0.031160
	28.940000	-0.021460
	28.945000	-0.176030
	28.950000	-0.120122
	28.955000	0.041026
	28.960000	-0.014883
	28.965000	-0.172741
	28.970000	-0.110256
	28.975000	0.054181
	28.980000	-0.005016
	28.985000	-0.166164
	28.990000	-0.106967
	28.995000	0.057469
	29.000000	-0.005016
	29.005000	-0.162875
	29.010000	-0.103678
	29.015000	0.057469
	29.020000	-0.008305
	29.025000	-0.166164
	29.030000	-0.106967
	29.035000	0.050892
	29.040000	-0.011594
	29.045000	-0.172741
	29.050000	-0.113544
	29.055000	0.044314
	29.060000	-0.011594
	29.065000	-0.169453
	29.070000	-0.106967
	29.075000	0.050892
	29.080000	-0.011594
	29.085000	-0.169453
	29.090000	-0.106967
	29.095000	0.054181
	29.100000	-0.008305
	29.105000	-0.166164
	29.110000	-0.103678
	29.115000	0.057469
	29.120000	-0.011594
	29.125000	-0.162875
	29.130000	-0.103678
	29.135000	0.050892
	29.140000	-0.008305
	29.145000	-0.162875
	29.150000	-0.100389
	29.155000	0.057469
	29.160000	-0.011594
	29.165000	-0.162875
	29.170000	-0.097101
	29.175000	0.057469
	29.180000	-0.005016
	29.185000	-0.162875
	29.190000	-0.093812
	29.195000	0.057469
	29.200000	-0.005016
	29.205000	-0.162875
	29.210000	-0.093812
	29.215000	0.060758
	29.220000	-0.008305
	29.225000	-0.159586
	29.230000	-0.090523
	29.235000	0.067335
	29.240000	-0.001728
	29.245000	-0.162875
	29.250000	-0.093812
	29.255000	0.064047
	29.260000	-0.005016
	29.265000	-0.156298
	29.270000	-0.083946
	29.275000	0.070624
	29.280000	0.001561
	29.285000	-0.146431
	29.290000	-0.080657
	29.295000	0.077202
	29.300000	0.011427
	29.305000	-0.149720
	29.310000	-0.080657
	29.315000	0.077202
	29.320000	0.004850
	29.325000	-0.149720
	29.330000	-0.077368
	29.335000	0.077202
	29.340000	0.008138
	29.345000	-0.146431
	29.350000	-0.074080
	29.355000	0.073913
	29.360000	0.008138
	29.365000	-0.146431
	29.370000	-0.077368
	29.375000	0.080490
	29.380000	0.008138
	29.385000	-0.146431
	29.390000	-0.074080
	29.395000	0.080490
	29.400000	0.004850
	29.405000	-0.146431
	29.410000	-0.070791
	29.415000	0.083779
	29.420000	0.008138
	29.425000	-0.139854
	29.430000	-0.067502
	29.435000	0.083779
	29.440000	0.014716
	29.445000	-0.139854
	29.450000	-0.064213
	29.455000	0.087068
	29.460000	0.011427
	29.465000	-0.139854
	29.470000	-0.067502
	29.475000	0.093645
	29.480000	0.014716
	29.485000	-0.133277
	29.490000	-0.057636
	29.495000	0.093645
	29.500000	0.014716
	29.505000	-0.133277
	29.510000	-0.057636
	29.515000	0.090357
	29.520000	0.018005
	29.525000	-0.133277
	29.530000	-0.054347
	29.535000	0.100223
	29.540000	0.021293
	29.545000	-0.133277
	29.550000	-0.047770
	29.555000	0.103511
	29.560000	0.024582
	29.565000	-0.126699
	29.570000	-0.044481
	29.575000	0.103511
	29.580000	0.027871
	29.585000	-0.126699
	29.590000	-0.041192
	29.595000	0.113378
	29.600000	0.034448
	29.605000	-0.116833
	29.610000	-0.037904
	29.615000	0.106800
	29.620000	0.034448
	29.625000	-0.116833
	29.630000	-0.034615
	29.635000	0.116666
	29.640000	0.031160
	29.645000	-0.110256
	29.650000	-0.031326
	29.655000	0.119955
	29.660000	0.037737
	29.665000	-0.113544
	29.670000	-0.028037
	29.675000	0.123244
	29.680000	0.041026
	29.685000	-0.106967
	29.690000	-0.028037
	29.695000	0.123244
	29.700000	0.037737
	29.705000	-0.110256
	29.710000	-0.024749
	29.715000	0.126533
	29.720000	0.037737
	29.725000	-0.113544
	29.730000	-0.021460
	29.735000	0.123244
	29.740000	0.041026
	29.745000	-0.106967
	29.750000	-0.028037
	29.755000	0.126533
	29.760000	0.041026
	29.765000	-0.106967
	29.770000	-0.021460
	29.775000	0.123244
	29.780000	0.037737
	29.785000	-0.106967
	29.790000	-0.024749
	29.795000	0.119955
	29.800000	0.041026
	29.805000	-0.110256
	29.810000	-0.021460
	29.815000	0.119955
	29.820000	0.031160
	29.825000	-0.116833
	29.830000	-0.028037
	29.835000	0.119955
	29.840000	0.034448
	29.845000	-0.113544
	29.850000	-0.024749
	29.855000	0.116666
	29.860000	0.027871
	29.865000	-0.113544
	29.870000	-0.028037
	29.875000	0.119955
	29.880000	0.027871
	29.885000	-0.113544
	29.890000	-0.028037
	29.895000	0.119955
	29.900000	0.031160
	29.905000	-0.120122
	29.910000	-0.028037
	29.915000	0.116666
	29.920000	0.027871
	29.925000	-0.120122
	29.930000	-0.028037
	29.935000	0.110089
	29.940000	0.024582
	29.945000	-0.123410
	29.950000	-0.031326
	29.955000	0.113378
	29.960000	0.031160
	29.965000	-0.120122
	29.970000	-0.024749
	29.975000	0.119955
	29.980000	0.024582
	29.985000	-0.116833
	29.990000	-0.024749
	29.995000	0.116666
	30.000000	0.031160
	30.005000	-0.116833
	30.010000	-0.028037
	30.015000	0.119955
	30.020000	0.031160
	30.025000	-0.110256
	30.030000	-0.021460
	30.035000	0.123244
	30.040000	0.031160
	30.045000	-0.113544
	30.050000	-0.018171
	30.055000	0.126533
	30.060000	0.031160
	30.065000	-0.106967
	30.070000	-0.014883
	30.075000	0.126533
	30.080000	0.034448
	30.085000	-0.110256
	30.090000	-0.011594
	30.095000	0.129821
	30.100000	0.037737
	30.105000	-0.106967
	30.110000	-0.008305
	30.115000	0.129821
	30.120000	0.037737
	30.125000	-0.100389
	30.130000	-0.005016
	30.135000	0.133110
	30.140000	0.037737
	30.145000	-0.100389
	30.150000	-0.005016
	30.155000	0.133110
	30.160000	0.037737
	30.165000	-0.106967
	30.170000	-0.001728
	30.175000	0.136399
	30.180000	0.041026
	30.185000	-0.100389
	30.190000	0.001561
	30.195000	0.139687
	30.200000	0.044314
	30.205000	-0.093812
	30.210000	0.001561
	30.215000	0.142976
	30.220000	0.044314
	30.225000	-0.097101
	30.230000	0.001561
	30.235000	0.142976
	30.240000	0.047603
	30.245000	-0.090523
	30.250000	0.004850
	30.255000	0.142976
	30.260000	0.044314
	30.265000	-0.093812
	30.270000	0.004850
	30.275000	0.142976
	30.280000	0.047603
	30.285000	-0.093812
	30.290000	0.008138
	30.295000	0.146265
	30.300000	0.047603
	30.305000	-0.093812
	30.310000	0.011427
	30.315000	0.149554
	30.320000	0.047603
	30.325000	-0.090523
	30.330000	0.011427
	30.335000	0.149554
	30.340000	0.044314
	30.345000	-0.090523
	30.350000	0.014716
	30.355000	0.149554
	30.360000	0.047603
	30.365000	-0.090523
	30.370000	0.014716
	30.375000	0.152842
	30.380000	0.050892
	30.385000	-0.087234
	30.390000	0.018005
	30.395000	0.152842
	30.400000	0.047603
	30.405000	-0.087234
	30.410000	0.014716
	30.415000	0.152842
	30.420000	0.050892
	30.425000	-0.080657
	30.430000	0.021293
	30.435000	0.159420
	30.440000	0.057469
	30.445000	-0.080657
	30.450000	0.024582
	30.455000	0.162708
	30.460000	0.057469
	30.465000	-0.083946
	30.470000	0.027871
	30.475000	0.162708
	30.480000	0.054181
	30.485000	-0.074080
	30.490000	0.027871
	30.495000	0.162708
	30.500000	0.060758
	30.505000	-0.074080
	30.510000	0.031160
	30.515000	0.165997
	30.520000	0.064047
	30.525000	-0.067502
	30.530000	0.037737
	30.535000	0.172575
	30.540000	0.064047
	30.545000	-0.064213
	30.550000	0.044314
	30.555000	0.182441
	30.560000	0.073913
	30.565000	-0.057636
	30.570000	0.057469
	30.575000	0.189018
	30.580000	0.087068
	30.585000	-0.034615
	30.590000	0.077202
	30.595000	0.218617
	30.600000	0.119955
	30.605000	0.004850
	30.610000	0.133110
	30.615000	0.284391
	30.620000	0.198884
	30.625000	0.090357
	30.630000	0.228483
	30.635000	0.392919
	30.640000	0.307412
	30.645000	0.205462
	30.650000	0.353454
	30.655000	0.511313
	30.660000	0.432384
	30.665000	0.317278
	30.670000	0.452116
	30.675000	0.593531
	30.680000	0.494869
	30.685000	0.366609
	30.690000	0.488292
	30.695000	0.623130
	30.700000	0.521179
	30.705000	0.383053
	30.710000	0.498158
	30.715000	0.629707
	30.720000	0.508024
	30.725000	0.369898
	30.730000	0.478426
	30.735000	0.606686
	30.740000	0.494869
	30.745000	0.356743
	30.750000	0.461982
	30.755000	0.590242
	30.760000	0.471848
	30.765000	0.333722
	30.770000	0.445539
	30.775000	0.573799
	30.780000	0.452116
	30.785000	0.320567
	30.790000	0.425806
	30.795000	0.554066
	30.800000	0.435672
	30.805000	0.297546
	30.810000	0.412651
	30.815000	0.540912
	30.820000	0.419229
	30.825000	0.281102
	30.830000	0.396208
	30.835000	0.527757
	30.840000	0.402785
	30.845000	0.267948
	30.850000	0.379764
	30.855000	0.511313
	30.860000	0.386342
	30.865000	0.254793
	30.870000	0.366609
	30.875000	0.498158
	30.880000	0.369898
	30.885000	0.238349
	30.890000	0.356743
	30.895000	0.488292
	30.900000	0.360032
	30.905000	0.228483
	30.910000	0.346877
	30.915000	0.478426
	30.920000	0.353454
	30.925000	0.215328
	30.930000	0.337011
	30.935000	0.465271
	30.940000	0.337011
	30.945000	0.202173
	30.950000	0.323856
	30.955000	0.452116
	30.960000	0.330433
	30.965000	0.189018
	30.970000	0.313990
	30.975000	0.438961
	30.980000	0.310701
	30.985000	0.179152
	30.990000	0.297546
	30.995000	0.432384
	31.000000	0.300835
	31.005000	0.172575
	31.010000	0.297546
	31.015000	0.425806
	31.020000	0.297546
	31.025000	0.165997
	31.030000	0.294257
	31.035000	0.422518
	31.040000	0.294257
	31.045000	0.162708
	31.050000	0.287680
	31.055000	0.412651
	31.060000	0.281102
	31.065000	0.159420
	31.070000	0.277814
	31.075000	0.402785
	31.080000	0.274525
	31.085000	0.142976
	31.090000	0.264659
	31.095000	0.386342
	31.100000	0.261370
	31.105000	0.129821
	31.110000	0.248215
	31.115000	0.366609
	31.120000	0.231772
	31.125000	0.103511
	31.130000	0.215328
	31.135000	0.340299
	31.140000	0.208751
	31.145000	0.077202
	31.150000	0.189018
	31.155000	0.310701
	31.160000	0.175863
	31.165000	0.041026
	31.170000	0.162708
	31.175000	0.277814
	31.180000	0.139687
	31.185000	0.004850
	31.190000	0.123244
	31.195000	0.235060
	31.200000	0.100223
	31.205000	-0.031326
	31.210000	0.080490
	31.215000	0.192307
	31.220000	0.054181
	31.225000	-0.077368
	31.230000	0.031160
	31.235000	0.139687
	31.240000	-0.001728
	31.245000	-0.139854
	31.250000	-0.037904
	31.255000	0.047603
	31.260000	-0.113544
	31.265000	-0.271403
	31.270000	-0.205628
	31.275000	-0.146431
	31.280000	-0.324023
	31.285000	-0.485170
	31.290000	-0.389797
	31.295000	-0.304290
	31.300000	-0.442417
	31.305000	-0.567388
	31.310000	-0.448994
	31.315000	-0.333889
	31.320000	-0.458860
	31.325000	-0.564099
	31.330000	-0.439128
	31.335000	-0.320734
	31.340000	-0.442417
	31.345000	-0.550944
	31.350000	-0.416107
	31.355000	-0.294424
	31.360000	-0.416107
	31.365000	-0.524635
	31.370000	-0.393086
	31.375000	-0.268114
	31.380000	-0.393086
	31.385000	-0.501614
	31.390000	-0.366776
	31.395000	-0.248382
	31.400000	-0.366776
	31.405000	-0.472015
	31.410000	-0.347044
	31.415000	-0.222072
	31.420000	-0.350332
	31.425000	-0.458860
	31.430000	-0.324023
	31.435000	-0.205628
	31.440000	-0.333889
	31.445000	-0.435839
	31.450000	-0.304290
	31.455000	-0.189185
	31.460000	-0.307579
	31.465000	-0.419395
	31.470000	-0.284558
	31.475000	-0.172741
	31.480000	-0.294424
	31.485000	-0.396374
	31.490000	-0.268114
	31.495000	-0.153009
	31.500000	-0.277980
	31.505000	-0.379931
	31.510000	-0.251671
	31.515000	-0.136565
	31.520000	-0.258248
	31.525000	-0.366776
	31.530000	-0.231938
	31.535000	-0.123410
	31.540000	-0.245093
	31.545000	-0.353621
	31.550000	-0.218783
	31.555000	-0.106967
	31.560000	-0.241804
	31.565000	-0.340466
	31.570000	-0.208917
	31.575000	-0.100389
	31.580000	-0.218783
	31.585000	-0.324023
	31.590000	-0.189185
	31.595000	-0.080657
	31.600000	-0.205628
	31.605000	-0.314156
	31.610000	-0.176030
	31.615000	-0.064213
	31.620000	-0.195762
	31.625000	-0.301001
	31.630000	-0.162875
	31.635000	-0.051059
	31.640000	-0.179319
	31.645000	-0.284558
	31.650000	-0.149720
	31.655000	-0.041192
	31.660000	-0.169453
	31.665000	-0.274692
	31.670000	-0.136565
	31.675000	-0.024749
	31.680000	-0.159586
	31.685000	-0.261537
	31.690000	-0.126699
	31.695000	-0.018171
	31.700000	-0.149720
	31.705000	-0.248382
	31.710000	-0.113544
	31.715000	-0.011594
	31.720000	-0.143143
	31.725000	-0.245093
	31.730000	-0.110256
	31.735000	-0.008305
	31.740000	-0.143143
	31.745000	-0.235227
	31.750000	-0.110256
	31.755000	0.001561
	31.760000	-0.139854
	31.765000	-0.238516
	31.770000	-0.103678
	31.775000	-0.001728
	31.780000	-0.136565
	31.785000	-0.235227
	31.790000	-0.100389
	31.795000	-0.001728
	31.800000	-0.129988
	31.805000	-0.228650
	31.810000	-0.090523
	31.815000	0.008138
	31.820000	-0.123410
	31.825000	-0.222072
	31.830000	-0.087234
	31.835000	0.014716
	31.840000	-0.120122
	31.845000	-0.218783
	31.850000	-0.083946
	31.855000	0.018005
	31.860000	-0.116833
	31.865000	-0.215495
	31.870000	-0.077368
	31.875000	0.024582
	31.880000	-0.110256
	31.885000	-0.212206
	31.890000	-0.080657
	31.895000	0.027871
	31.900000	-0.113544
	31.905000	-0.212206
	31.910000	-0.070791
	31.915000	0.027871
	31.920000	-0.113544
	31.925000	-0.208917
	31.930000	-0.070791
	31.935000	0.027871
	31.940000	-0.110256
	31.945000	-0.202340
	31.950000	-0.064213
	31.955000	0.034448
	31.960000	-0.106967
	31.965000	-0.208917
	31.970000	-0.064213
	31.975000	0.031160
	31.980000	-0.103678
	31.985000	-0.199051
	31.990000	-0.064213
	31.995000	0.031160
	32.000000	-0.100389
	32.005000	-0.199051
	32.010000	-0.057636
	32.015000	0.034448
	32.020000	-0.100389
	32.025000	-0.195762
	32.030000	-0.057636
	32.035000	0.041026
	32.040000	-0.093812
	32.045000	-0.192474
	32.050000	-0.047770
	32.055000	0.044314
	32.060000	-0.097101
	32.065000	-0.185896
	32.070000	-0.051059
	32.075000	0.047603
	32.080000	-0.097101
	32.085000	-0.182607
	32.090000	-0.044481
	32.095000	0.047603
	32.100000	-0.087234
	32.105000	-0.182607
	32.110000	-0.041192
	32.115000	0.054181
	32.120000	-0.087234
	32.125000	-0.182607
	32.130000	-0.034615
	32.135000	0.060758
	32.140000	-0.083946
	32.145000	-0.172741
	32.150000	-0.031326
	32.155000	0.060758
	32.160000	-0.080657
	32.165000	-0.172741
	32.170000	-0.024749
	32.175000	0.064047
	32.180000	-0.080657
	32.185000	-0.169453
	32.190000	-0.024749
	32.195000	0.067335
	32.200000	-0.077368
	32.205000	-0.166164
	32.210000	-0.018171
	32.215000	0.067335
	32.220000	-0.067502
	32.225000	-0.156298
	32.230000	-0.011594
	32.235000	0.070624
	32.240000	-0.067502
	32.245000	-0.159586
	32.250000	-0.008305
	32.255000	0.080490
	32.260000	-0.067502
	32.265000	-0.156298
	32.270000	-0.005016
	32.275000	0.077202
	32.280000	-0.064213
	32.285000	-0.149720
	32.290000	-0.001728
	32.295000	0.083779
	32.300000	-0.060925
	32.305000	-0.146431
	32.310000	0.001561
	32.315000	0.087068
	32.320000	-0.057636
	32.325000	-0.143143
	32.330000	0.004850
	32.335000	0.090357
	32.340000	-0.057636
	32.345000	-0.139854
	32.350000	0.004850
	32.355000	0.090357
	32.360000	-0.054347
	32.365000	-0.139854
	32.370000	0.001561
	32.375000	0.087068
	32.380000	-0.054347
	32.385000	-0.139854
	32.390000	0.008138
	32.395000	0.090357
	32.400000	-0.051059
	32.405000	-0.139854
	32.410000	0.011427
	32.415000	0.093645
	32.420000	-0.054347
	32.425000	-0.136565
	32.430000	0.018005
	32.435000	0.096934
	32.440000	-0.051059
	32.445000	-0.136565
	32.450000	0.018005
	32.455000	0.096934
	32.460000	-0.054347
	32.465000	-0.129988
	32.470000	0.021293
	32.475000	0.096934
	32.480000	-0.051059
	32.485000	-0.129988
	32.490000	0.018005
	32.495000	0.100223
	32.500000	-0.047770
	32.505000	-0.133277
	32.510000	0.021293
	32.515000	0.100223
	32.520000	-0.047770
	32.525000	-0.126699
	32.530000	0.021293
	32.535000	0.103511
	32.540000	-0.051059
	32.545000	-0.129988
	32.550000	0.024582
	32.555000	0.103511
	32.560000	-0.051059
	32.565000	-0.129988
	32.570000	0.024582
	32.575000	0.100223
	32.580000	-0.044481
	32.585000	-0.129988
	32.590000	0.024582
	32.595000	0.103511
	32.600000	-0.051059
	32.605000	-0.126699
	32.610000	0.027871
	32.615000	0.103511
	32.620000	-0.044481
	32.625000	-0.126699
	32.630000	0.027871
	32.635000	0.106800
	32.640000	-0.047770
	32.645000	-0.123410
	32.650000	0.027871
	32.655000	0.103511
	32.660000	-0.051059
	32.665000	-0.123410
	32.670000	0.031160
	32.675000	0.103511
	32.680000	-0.047770
	32.685000	-0.123410
	32.690000	0.031160
	32.695000	0.103511
	32.700000	-0.047770
	32.705000	-0.123410
	32.710000	0.027871
	32.715000	0.106800
	32.720000	-0.041192
	32.725000	-0.113544
	32.730000	0.031160
	32.735000	0.103511
	32.740000	-0.047770
	32.745000	-0.116833
	32.750000	0.031160
	32.755000	0.110089
	32.760000	-0.044481
	32.765000	-0.120122
	32.770000	0.031160
	32.775000	0.110089
	32.780000	-0.047770
	32.785000	-0.120122
	32.790000	0.034448
	32.795000	0.110089
	32.800000	-0.047770
	32.805000	-0.120122
	32.810000	0.037737
	32.815000	0.106800
	32.820000	-0.041192
	32.825000	-0.106967
	32.830000	0.034448
	32.835000	0.113378
	32.840000	-0.041192
	32.845000	-0.113544
	32.850000	0.041026
	32.855000	0.110089
	32.860000	-0.041192
	32.865000	-0.110256
	32.870000	0.044314
	32.875000	0.113378
	32.880000	-0.041192
	32.885000	-0.106967
	32.890000	0.047603
	32.895000	0.113378
	32.900000	-0.041192
	32.905000	-0.106967
	32.910000	0.050892
	32.915000	0.116666
	32.920000	-0.031326
	32.925000	-0.103678
	32.930000	0.054181
	32.935000	0.123244
	32.940000	-0.034615
	32.945000	-0.100389
	32.950000	0.054181
	32.955000	0.126533
	32.960000	-0.037904
	32.965000	-0.097101
	32.970000	0.060758
	32.975000	0.126533
	32.980000	-0.031326
	32.985000	-0.097101
	32.990000	0.064047
	32.995000	0.129821
	33.000000	-0.024749
	33.005000	-0.090523
	33.010000	0.070624
	33.015000	0.142976
	33.020000	-0.014883
	33.025000	-0.077368
	33.030000	0.087068
	33.035000	0.149554
	33.040000	-0.005016
	33.045000	-0.057636
	33.050000	0.106800
	33.055000	0.182441
	33.060000	0.037737
	33.065000	-0.011594
	33.070000	0.169286
	33.075000	0.251504
	33.080000	0.116666
	33.085000	0.083779
	33.090000	0.274525
	33.095000	0.369898
	33.100000	0.248215
	33.105000	0.225194
	33.110000	0.422518
	33.115000	0.517891
	33.120000	0.383053
	33.125000	0.346877
	33.130000	0.517891
	33.135000	0.596820
	33.140000	0.442250
	33.145000	0.389630
	33.150000	0.557355
	33.155000	0.619841
	33.160000	0.461982
	33.165000	0.399496
	33.170000	0.560644
	33.175000	0.619841
	33.180000	0.458694
	33.185000	0.389630
	33.190000	0.547489
	33.195000	0.606686
	33.200000	0.438961
	33.205000	0.373187
	33.210000	0.527757
	33.215000	0.583665
	33.220000	0.415940
	33.225000	0.340299
	33.230000	0.504736
	33.235000	0.567221
	33.240000	0.392919
	33.245000	0.323856
	33.250000	0.491581
	33.255000	0.540912
	33.260000	0.369898
	33.265000	0.304124
	33.270000	0.465271
	33.275000	0.517891
	33.280000	0.350166
	33.285000	0.281102
	33.290000	0.445539
	33.295000	0.498158
	33.300000	0.323856
	33.305000	0.261370
	33.310000	0.422518
	33.315000	0.478426
	33.320000	0.300835
	33.325000	0.251504
	33.330000	0.409363
	33.335000	0.461982
	33.340000	0.294257
	33.345000	0.228483
	33.350000	0.392919
	33.355000	0.448827
	33.360000	0.271236
	33.365000	0.215328
	33.370000	0.379764
	33.375000	0.432384
	33.380000	0.258081
	33.385000	0.195596
	33.390000	0.369898
	33.395000	0.422518
	33.400000	0.251504
	33.405000	0.189018
	33.410000	0.356743
	33.415000	0.412651
	33.420000	0.238349
	33.425000	0.179152
	33.430000	0.350166
	33.435000	0.406074
	33.440000	0.225194
	33.445000	0.165997
	33.450000	0.337011
	33.455000	0.386342
	33.460000	0.208751
	33.465000	0.159420
	33.470000	0.323856
	33.475000	0.373187
	33.480000	0.205462
	33.485000	0.152842
	33.490000	0.323856
	33.495000	0.376475
	33.500000	0.198884
	33.505000	0.152842
	33.510000	0.320567
	33.515000	0.369898
	33.520000	0.198884
	33.525000	0.142976
	33.530000	0.317278
	33.535000	0.363321
	33.540000	0.189018
	33.545000	0.139687
	33.550000	0.307412
	33.555000	0.356743
	33.560000	0.182441
	33.565000	0.133110
	33.570000	0.297546
	33.575000	0.343588
	33.580000	0.172575
	33.585000	0.123244
	33.590000	0.290969
	33.595000	0.333722
	33.600000	0.165997
	33.605000	0.113378
	33.610000	0.277814
	33.615000	0.323856
	33.620000	0.149554
	33.625000	0.100223
	33.630000	0.267948
	33.635000	0.310701
	33.640000	0.136399
	33.645000	0.083779
	33.650000	0.248215
	33.655000	0.290969
	33.660000	0.116666
	33.665000	0.057469
	33.670000	0.225194
	33.675000	0.264659
	33.680000	0.090357
	33.685000	0.034448
	33.690000	0.189018
	33.695000	0.221905
	33.700000	0.041026
	33.705000	-0.014883
	33.710000	0.136399
	33.715000	0.169286
	33.720000	-0.021460
	33.725000	-0.077368
	33.730000	0.067335
	33.735000	0.100223
	33.740000	-0.090523
	33.745000	-0.169453
	33.750000	-0.044481
	33.755000	-0.057636
	33.760000	-0.284558
	33.765000	-0.393086
	33.770000	-0.291135
	33.775000	-0.301001
	33.780000	-0.491747
	33.785000	-0.560811
	33.790000	-0.416107
	33.795000	-0.376642
	33.800000	-0.547656
	33.805000	-0.587120
	33.810000	-0.425973
	33.815000	-0.376642
	33.820000	-0.527923
	33.825000	-0.567388
	33.830000	-0.399663
	33.835000	-0.353621
	33.840000	-0.508191
	33.845000	-0.537790
	33.850000	-0.370065
	33.855000	-0.324023
	33.860000	-0.478592
	33.865000	-0.511480
	33.870000	-0.340466
	33.875000	-0.297713
	33.880000	-0.458860
	33.885000	-0.485170
	33.890000	-0.317445
	33.895000	-0.271403
	33.900000	-0.432550
	33.905000	-0.462149
	33.910000	-0.287847
	33.915000	-0.248382
	33.920000	-0.406241
	33.925000	-0.439128
	33.930000	-0.271403
	33.935000	-0.225361
	33.940000	-0.389797
	33.945000	-0.416107
	33.950000	-0.248382
	33.955000	-0.212206
	33.960000	-0.366776
	33.965000	-0.396374
	33.970000	-0.225361
	33.975000	-0.182607
	33.980000	-0.343755
	33.985000	-0.373353
	33.990000	-0.199051
	33.995000	-0.172741
	34.000000	-0.327311
	34.005000	-0.356910
	34.010000	-0.182607
	34.015000	-0.146431
	34.020000	-0.310868
	34.025000	-0.337177
	34.030000	-0.172741
	34.035000	-0.133277
	34.040000	-0.294424
	34.045000	-0.320734
	34.050000	-0.149720
	34.055000	-0.123410
	34.060000	-0.281269
	34.065000	-0.310868
	34.070000	-0.139854
	34.075000	-0.100389
	34.080000	-0.268114
	34.085000	-0.294424
	34.090000	-0.123410
	34.095000	-0.083946
	34.100000	-0.251671
	34.105000	-0.284558
	34.110000	-0.110256
	34.115000	-0.080657
	34.120000	-0.245093
	34.125000	-0.268114
	34.130000	-0.100389
	34.135000	-0.070791
	34.140000	-0.235227
	34.145000	-0.264826
	34.150000	-0.090523
	34.155000	-0.064213
	34.160000	-0.231938
	34.165000	-0.254959
	34.170000	-0.083946
	34.175000	-0.054347
	34.180000	-0.222072
	34.185000	-0.245093
	34.190000	-0.074080
	34.195000	-0.054347
	34.200000	-0.218783
	34.205000	-0.245093
	34.210000	-0.070791
	34.215000	-0.044481
	34.220000	-0.215495
	34.225000	-0.235227
	34.230000	-0.067502
	34.235000	-0.041192
	34.240000	-0.208917
	34.245000	-0.228650
	34.250000	-0.064213
	34.255000	-0.034615
	34.260000	-0.199051
	34.265000	-0.228650
	34.270000	-0.051059
	34.275000	-0.024749
	34.280000	-0.192474
	34.285000	-0.218783
	34.290000	-0.047770
	34.295000	-0.021460
	34.300000	-0.195762
	34.305000	-0.212206
	34.310000	-0.041192
	34.315000	-0.018171
	34.320000	-0.189185
	34.325000	-0.212206
	34.330000	-0.037904
	34.335000	-0.024749
	34.340000	-0.182607
	34.345000	-0.205628
	34.350000	-0.037904
	34.355000	-0.018171
	34.360000	-0.182607
	34.365000	-0.202340
	34.370000	-0.031326
	34.375000	-0.011594
	34.380000	-0.182607
	34.385000	-0.199051
	34.390000	-0.028037
	34.395000	-0.011594
	34.400000	-0.179319
	34.405000	-0.199051
	34.410000	-0.028037
	34.415000	-0.011594
	34.420000	-0.182607
	34.425000	-0.199051
	34.430000	-0.031326
	34.435000	-0.008305
	34.440000	-0.172741
	34.445000	-0.192474
	34.450000	-0.021460
	34.455000	-0.005016
	34.460000	-0.172741
	34.465000	-0.185896
	34.470000	-0.018171
	34.475000	0.001561
	34.480000	-0.172741
	34.485000	-0.182607
	34.490000	-0.011594
	34.495000	-0.001728
	34.500000	-0.166164
	34.505000	-0.179319
	34.510000	-0.008305
	34.515000	0.008138
	34.520000	-0.156298
	34.525000	-0.172741
	34.530000	-0.008305
	34.535000	0.014716
	34.540000	-0.156298
	34.545000	-0.169453
	34.550000	0.001561
	34.555000	0.014716
	34.560000	-0.159586
	34.565000	-0.166164
	34.570000	0.001561
	34.575000	0.014716
	34.580000	-0.156298
	34.585000	-0.162875
	34.590000	0.011427
	34.595000	0.024582
	34.600000	-0.153009
	34.605000	-0.156298
	34.610000	0.008138
	34.615000	0.024582
	34.620000	-0.146431
	34.625000	-0.153009
	34.630000	0.018005
	34.635000	0.027871
	34.640000	-0.143143
	34.645000	-0.146431
	34.650000	0.021293
	34.655000	0.034448
	34.660000	-0.139854
	34.665000	-0.146431
	34.670000	0.024582
	34.675000	0.034448
	34.680000	-0.136565
	34.685000	-0.143143
	34.690000	0.031160
	34.695000	0.031160
	34.700000	-0.133277
	34.705000	-0.139854
	34.710000	0.027871
	34.715000	0.037737
	34.720000	-0.129988
	34.725000	-0.139854
	34.730000	0.031160
	34.735000	0.041026
	34.740000	-0.129988
	34.745000	-0.133277
	34.750000	0.037737
	34.755000	0.041026
	34.760000	-0.126699
	34.765000	-0.133277
	34.770000	0.044314
	34.775000	0.047603
	34.780000	-0.120122
	34.785000	-0.133277
	34.790000	0.041026
	34.795000	0.050892
	34.800000	-0.120122
	34.805000	-0.126699
	34.810000	0.050892
	34.815000	0.050892
	34.820000	-0.116833
	34.825000	-0.116833
	34.830000	0.054181
	34.835000	0.050892
	34.840000	-0.120122
	34.845000	-0.116833
	34.850000	0.057469
	34.855000	0.057469
	34.860000	-0.116833
	34.865000	-0.120122
	34.870000	0.054181
	34.875000	0.057469
	34.880000	-0.113544
	34.885000	-0.113544
	34.890000	0.057469
	34.895000	0.054181
	34.900000	-0.110256
	34.905000	-0.113544
	34.910000	0.057469
	34.915000	0.057469
	34.920000	-0.110256
	34.925000	-0.110256
	34.930000	0.060758
	34.935000	0.060758
	34.940000	-0.110256
	34.945000	-0.116833
	34.950000	0.060758
	34.955000	0.060758
	34.960000	-0.110256
	34.965000	-0.106967
	34.970000	0.057469
	34.975000	0.060758
	34.980000	-0.110256
	34.985000	-0.113544
	34.990000	0.064047
	34.995000	0.060758
	35.000000	-0.106967
	35.005000	-0.103678
	35.010000	0.064047
	35.015000	0.057469
	35.020000	-0.113544
	35.025000	-0.113544
	35.030000	0.064047
	35.035000	0.057469
	35.040000	-0.113544
	35.045000	-0.106967
	35.050000	0.064047
	35.055000	0.057469
	35.060000	-0.110256
	35.065000	-0.106967
	35.070000	0.060758
	35.075000	0.050892
	35.080000	-0.110256
	35.085000	-0.103678
	35.090000	0.064047
	35.095000	0.057469
	35.100000	-0.113544
	35.105000	-0.106967
	35.110000	0.064047
	35.115000	0.054181
	35.120000	-0.110256
	35.125000	-0.103678
	35.130000	0.067335
	35.135000	0.060758
	35.140000	-0.110256
	35.145000	-0.100389
	35.150000	0.070624
	35.155000	0.060758
	35.160000	-0.110256
	35.165000	-0.100389
	35.170000	0.067335
	35.175000	0.057469
	35.180000	-0.103678
	35.185000	-0.103678
	35.190000	0.070624
	35.195000	0.060758
	35.200000	-0.106967
	35.205000	-0.100389
	35.210000	0.077202
	35.215000	0.067335
	35.220000	-0.103678
	35.225000	-0.093812
	35.230000	0.073913
	35.235000	0.064047
	35.240000	-0.106967
	35.245000	-0.093812
	35.250000	0.077202
	35.255000	0.064047
	35.260000	-0.103678
	35.265000	-0.093812
	35.270000	0.080490
	35.275000	0.064047
	35.280000	-0.100389
	35.285000	-0.087234
	35.290000	0.080490
	35.295000	0.070624
	35.300000	-0.103678
	35.305000	-0.087234
	35.310000	0.080490
	35.315000	0.070624
	35.320000	-0.097101
	35.325000	-0.083946
	35.330000	0.087068
	35.335000	0.073913
	35.340000	-0.090523
	35.345000	-0.080657
	35.350000	0.090357
	35.355000	0.073913
	35.360000	-0.093812
	35.365000	-0.077368
	35.370000	0.093645
	35.375000	0.073913
	35.380000	-0.093812
	35.385000	-0.077368
	35.390000	0.096934
	35.395000	0.077202
	35.400000	-0.093812
	35.405000	-0.067502
	35.410000	0.093645
	35.415000	0.083779
	35.420000	-0.093812
	35.425000	-0.067502
	35.430000	0.100223
	35.435000	0.083779
	35.440000	-0.087234
	35.445000	-0.067502
	35.450000	0.100223
	35.455000	0.083779
	35.460000	-0.083946
	35.465000	-0.067502
	35.470000	0.106800
	35.475000	0.087068
	35.480000	-0.080657
	35.485000	-0.057636
	35.490000	0.110089
	35.495000	0.087068
	35.500000	-0.074080
	35.505000	-0.057636
	35.510000	0.119955
	35.515000	0.100223
	35.520000	-0.064213
	35.525000	-0.044481
	35.530000	0.133110
	35.535000	0.119955
	35.540000	-0.041192
	35.545000	-0.008305
	35.550000	0.179152
	35.555000	0.182441
	35.560000	0.037737
	35.565000	0.093645
	35.570000	0.300835
	35.575000	0.327145
	35.580000	0.208751
	35.585000	0.277814
	35.590000	0.494869
	35.595000	0.511313
	35.600000	0.369898
	35.605000	0.412651
	35.610000	0.593531
	35.615000	0.583665
	35.620000	0.425806
	35.625000	0.445539
	35.630000	0.623130
	35.635000	0.603397
	35.640000	0.425806
	35.645000	0.448827
	35.650000	0.616552
	35.655000	0.590242
	35.660000	0.412651
	35.665000	0.432384
	35.670000	0.596820
	35.675000	0.567221
	35.680000	0.389630
	35.685000	0.412651
	35.690000	0.573799
	35.695000	0.547489
	35.700000	0.366609
	35.705000	0.386342
	35.710000	0.557355
	35.715000	0.524468
	35.720000	0.346877
	35.725000	0.369898
	35.730000	0.537623
	35.735000	0.501447
	35.740000	0.320567
	35.745000	0.343588
	35.750000	0.514602
	35.755000	0.478426
	35.760000	0.304124
	35.765000	0.327145
	35.770000	0.498158
	35.775000	0.465271
	35.780000	0.287680
	35.785000	0.313990
	35.790000	0.481715
	35.795000	0.448827
	35.800000	0.274525
	35.805000	0.294257
	35.810000	0.471848
	35.815000	0.435672
	35.820000	0.254793
	35.825000	0.281102
	35.830000	0.452116
	35.835000	0.419229
	35.840000	0.238349
	35.845000	0.264659
	35.850000	0.438961
	35.855000	0.402785
	35.860000	0.225194
	35.865000	0.254793
	35.870000	0.425806
	35.875000	0.386342
	35.880000	0.208751
	35.885000	0.244927
	35.890000	0.415940
	35.895000	0.379764
	35.900000	0.198884
	35.905000	0.235060
	35.910000	0.406074
	35.915000	0.369898
	35.920000	0.192307
	35.925000	0.221905
	35.930000	0.392919
	35.935000	0.360032
	35.940000	0.179152
	35.945000	0.212039
	35.950000	0.383053
	35.955000	0.353454
	35.960000	0.172575
	35.965000	0.205462
	35.970000	0.373187
	35.975000	0.340299
	35.980000	0.162708
	35.985000	0.195596
	35.990000	0.373187
	35.995000	0.327145
	36.000000	0.159420
	36.005000	0.189018
	36.010000	0.373187
	36.015000	0.330433
	36.020000	0.156131
	36.025000	0.189018
	36.030000	0.366609
	36.035000	0.327145
	36.040000	0.146265
	36.045000	0.182441
	36.050000	0.360032
	36.055000	0.320567
	36.060000	0.142976
	36.065000	0.182441
	36.070000	0.353454
	36.075000	0.313990
	36.080000	0.136399
	36.085000	0.179152
	36.090000	0.350166
	36.095000	0.304124
	36.100000	0.129821
	36.105000	0.169286
	36.110000	0.337011
	36.115000	0.297546
	36.120000	0.123244
	36.125000	0.159420
	36.130000	0.330433
	36.135000	0.287680
	36.140000	0.106800
	36.145000	0.146265
	36.150000	0.317278
	36.155000	0.267948
	36.160000	0.096934
	36.165000	0.129821
	36.170000	0.297546
	36.175000	0.251504
	36.180000	0.077202
	36.185000	0.113378
	36.190000	0.267948
	36.195000	0.221905
	36.200000	0.044314
	36.205000	0.070624
	36.210000	0.235060
	36.215000	0.179152
	36.220000	-0.011594
	36.225000	0.021293
	36.230000	0.165997
	36.235000	0.100223
	36.240000	-0.080657
	36.245000	-0.064213
	36.250000	0.077202
	36.255000	-0.011594
	36.260000	-0.231938
	36.265000	-0.261537
	36.270000	-0.169453
	36.275000	-0.294424
	36.280000	-0.514768
	36.285000	-0.514768
	36.290000	-0.379931
	36.295000	-0.442417
	36.300000	-0.613430
	36.305000	-0.570677
	36.310000	-0.412818
	36.315000	-0.452283
	36.320000	-0.603564
	36.325000	-0.554233
	36.330000	-0.386508
	36.335000	-0.422684
	36.340000	-0.577254
	36.345000	-0.531212
	36.350000	-0.356910
	36.355000	-0.396374
	36.360000	-0.550944
	36.365000	-0.504902
	36.370000	-0.320734
	36.375000	-0.370065
	36.380000	-0.527923
	36.385000	-0.475304
	36.390000	-0.304290
	36.395000	-0.343755
	36.400000	-0.501614
	36.405000	-0.452283
	36.410000	-0.287847
	36.415000	-0.327311
	36.420000	-0.481881
	36.425000	-0.435839
	36.430000	-0.268114
	36.435000	-0.310868
	36.440000	-0.468726
	36.445000	-0.416107
	36.450000	-0.248382
	36.455000	-0.291135
	36.460000	-0.448994
	36.465000	-0.393086
	36.470000	-0.225361
	36.475000	-0.271403
	36.480000	-0.429262
	36.485000	-0.373353
	36.490000	-0.208917
	36.495000	-0.251671
	36.500000	-0.409529
	36.505000	-0.356910
	36.510000	-0.182607
	36.515000	-0.238516
	36.520000	-0.393086
	36.525000	-0.337177
	36.530000	-0.169453
	36.535000	-0.215495
	36.540000	-0.379931
	36.545000	-0.320734
	36.550000	-0.153009
	36.555000	-0.202340
	36.560000	-0.360198
	36.565000	-0.301001
	36.570000	-0.139854
	36.575000	-0.185896
	36.580000	-0.347044
	36.585000	-0.284558
	36.590000	-0.123410
	36.595000	-0.172741
	36.600000	-0.330600
	36.605000	-0.268114
	36.610000	-0.106967
	36.615000	-0.156298
	36.620000	-0.314156
	36.625000	-0.254959
	36.630000	-0.090523
	36.635000	-0.143143
	36.640000	-0.304290
	36.645000	-0.241804
	36.650000	-0.080657
	36.655000	-0.133277
	36.660000	-0.291135
	36.665000	-0.238516
	36.670000	-0.067502
	36.675000	-0.126699
	36.680000	-0.287847
	36.685000	-0.225361
	36.690000	-0.060925
	36.695000	-0.116833
	36.700000	-0.281269
	36.705000	-0.222072
	36.710000	-0.057636
	36.715000	-0.113544
	36.720000	-0.274692
	36.725000	-0.215495
	36.730000	-0.057636
	36.735000	-0.116833
	36.740000	-0.274692
	36.745000	-0.215495
	36.750000	-0.051059
	36.755000	-0.113544
	36.760000	-0.271403
	36.765000	-0.208917
	36.770000	-0.051059
	36.775000	-0.113544
	36.780000	-0.268114
	36.785000	-0.212206
	36.790000	-0.051059
	36.795000	-0.110256
	36.800000	-0.268114
	36.805000	-0.208917
	36.810000	-0.044481
	36.815000	-0.106967
	36.820000	-0.268114
	36.825000	-0.202340
	36.830000	-0.041192
	36.835000	-0.106967
	36.840000	-0.261537
	36.845000	-0.199051
	36.850000	-0.037904
	36.855000	-0.103678
	36.860000	-0.261537
	36.865000	-0.199051
	36.870000	-0.037904
	36.875000	-0.097101
	36.880000	-0.258248
	36.885000	-0.192474
	36.890000	-0.031326
	36.895000	-0.097101
	36.900000	-0.258248
	36.905000	-0.195762
	36.910000	-0.034615
	36.915000	-0.097101
	36.920000	-0.254959
	36.925000	-0.189185
	36.930000	-0.024749
	36.935000	-0.097101
	36.940000	-0.254959
	36.945000	-0.192474
	36.950000	-0.028037
	36.955000	-0.097101
	36.960000	-0.251671
	36.965000	-0.189185
	36.970000	-0.031326
	36.975000	-0.097101
	36.980000	-0.251671
	36.985000	-0.192474
	36.990000	-0.031326
	36.995000	-0.100389
	37.000000	-0.254959
	37.005000	-0.189185
	37.010000	-0.021460
	37.015000	-0.090523
	37.020000	-0.251671
	37.025000	-0.179319
	37.030000	-0.021460
	37.035000	-0.083946
	37.040000	-0.251671
	37.045000	-0.179319
	37.050000	-0.018171
	37.055000	-0.083946
	37.060000	-0.241804
	37.065000	-0.172741
	37.070000	-0.014883
	37.075000	-0.080657
	37.080000	-0.238516
	37.085000	-0.169453
	37.090000	-0.011594
	37.095000	-0.080657
	37.100000	-0.238516
	37.105000	-0.166164
	37.110000	-0.008305
	37.115000	-0.077368
	37.120000	-0.231938
	37.125000	-0.159586
	37.130000	-0.001728
	37.135000	-0.077368
	37.140000	-0.231938
	37.145000	-0.159586
	37.150000	-0.001728
	37.155000	-0.070791
	37.160000	-0.222072
	37.165000	-0.156298
	37.170000	0.004850
	37.175000	-0.067502
	37.180000	-0.225361
	37.185000	-0.149720
	37.190000	0.011427
	37.195000	-0.064213
	37.200000	-0.218783
	37.205000	-0.146431
	37.210000	0.014716
	37.215000	-0.064213
	37.220000	-0.215495
	37.225000	-0.139854
	37.230000	0.018005
	37.235000	-0.060925
	37.240000	-0.215495
	37.245000	-0.139854
	37.250000	0.018005
	37.255000	-0.054347
	37.260000	-0.208917
	37.265000	-0.136565
	37.270000	0.024582
	37.275000	-0.054347
	37.280000	-0.205628
	37.285000	-0.129988
	37.290000	0.024582
	37.295000	-0.051059
	37.300000	-0.199051
	37.305000	-0.126699
	37.310000	0.031160
	37.315000	-0.044481
	37.320000	-0.202340
	37.325000	-0.116833
	37.330000	0.041026
	37.335000	-0.041192
	37.340000	-0.195762
	37.345000	-0.116833
	37.350000	0.037737
	37.355000	-0.041192
	37.360000	-0.185896
	37.365000	-0.110256
	37.370000	0.041026
	37.375000	-0.034615
	37.380000	-0.185896
	37.385000	-0.106967
	37.390000	0.047603
	37.395000	-0.031326
	37.400000	-0.185896
	37.405000	-0.106967
	37.410000	0.050892
	37.415000	-0.028037
	37.420000	-0.182607
	37.425000	-0.103678
	37.430000	0.047603
	37.435000	-0.031326
	37.440000	-0.179319
	37.445000	-0.100389
	37.450000	0.050892
	37.455000	-0.024749
	37.460000	-0.179319
	37.465000	-0.097101
	37.470000	0.057469
	37.475000	-0.028037
	37.480000	-0.176030
	37.485000	-0.093812
	37.490000	0.054181
	37.495000	-0.021460
	37.500000	-0.172741
	37.505000	-0.090523
	37.510000	0.060758
	37.515000	-0.024749
	37.520000	-0.172741
	37.525000	-0.090523
	37.530000	0.057469
	37.535000	-0.024749
	37.540000	-0.176030
	37.545000	-0.083946
	37.550000	0.064047
	37.555000	-0.028037
	37.560000	-0.172741
	37.565000	-0.087234
	37.570000	0.057469
	37.575000	-0.024749
	37.580000	-0.172741
	37.585000	-0.087234
	37.590000	0.064047
	37.595000	-0.021460
	37.600000	-0.169453
	37.605000	-0.083946
	37.610000	0.064047
	37.615000	-0.021460
	37.620000	-0.169453
	37.625000	-0.080657
	37.630000	0.067335
	37.635000	-0.021460
	37.640000	-0.166164
	37.645000	-0.080657
	37.650000	0.073913
	37.655000	-0.018171
	37.660000	-0.166164
	37.665000	-0.080657
	37.670000	0.067335
	37.675000	-0.021460
	37.680000	-0.169453
	37.685000	-0.077368
	37.690000	0.073913
	37.695000	-0.021460
	37.700000	-0.166164
	37.705000	-0.077368
	37.710000	0.070624
	37.715000	-0.018171
	37.720000	-0.159586
	37.725000	-0.077368
	37.730000	0.077202
	37.735000	-0.014883
	37.740000	-0.162875
	37.745000	-0.077368
	37.750000	0.077202
	37.755000	-0.021460
	37.760000	-0.162875
	37.765000	-0.067502
	37.770000	0.077202
	37.775000	-0.011594
	37.780000	-0.159586
	37.785000	-0.067502
	37.790000	0.077202
	37.795000	-0.014883
	37.800000	-0.159586
	37.805000	-0.067502
	37.810000	0.077202
	37.815000	-0.014883
	37.820000	-0.162875
	37.825000	-0.064213
	37.830000	0.080490
	37.835000	-0.011594
	37.840000	-0.159586
	37.845000	-0.067502
	37.850000	0.083779
	37.855000	-0.008305
	37.860000	-0.162875
	37.865000	-0.057636
	37.870000	0.083779
	37.875000	-0.008305
	37.880000	-0.156298
	37.885000	-0.060925
	37.890000	0.087068
	37.895000	-0.008305
	37.900000	-0.153009
	37.905000	-0.057636
	37.910000	0.087068
	37.915000	-0.011594
	37.920000	-0.149720
	37.925000	-0.060925
	37.930000	0.087068
	37.935000	-0.008305
	37.940000	-0.153009
	37.945000	-0.060925
	37.950000	0.090357
	37.955000	-0.008305
	37.960000	-0.146431
	37.965000	-0.057636
	37.970000	0.083779
	37.975000	-0.014883
	37.980000	-0.153009
	37.985000	-0.057636
	37.990000	0.087068
	37.995000	-0.008305
	38.000000	-0.149720
	38.005000	-0.054347
	38.010000	0.087068
	38.015000	-0.011594
	38.020000	-0.153009
	38.025000	-0.054347
	38.030000	0.090357
	38.035000	-0.008305
	38.040000	-0.153009
	38.045000	-0.051059
	38.050000	0.093645
	38.055000	-0.011594
	38.060000	-0.153009
	38.065000	-0.051059
	38.070000	0.090357
	38.075000	-0.008305
	38.080000	-0.146431
	38.085000	-0.047770
	38.090000	0.093645
	38.095000	-0.011594
	38.100000	-0.149720
	38.105000	-0.051059
	38.110000	0.090357
	38.115000	-0.005016
	38.120000	-0.156298
	38.125000	-0.047770
	38.130000	0.096934
	38.135000	-0.011594
	38.140000	-0.149720
	38.145000	-0.047770
	38.150000	0.093645
	38.155000	-0.011594
	38.160000	-0.146431
	38.165000	-0.044481
	38.170000	0.093645
	38.175000	-0.008305
	38.180000	-0.146431
	38.185000	-0.047770
	38.190000	0.093645
	38.195000	-0.011594
	38.200000	-0.149720
	38.205000	-0.041192
	38.210000	0.100223
	38.215000	-0.011594
	38.220000	-0.143143
	38.225000	-0.041192
	38.230000	0.096934
	38.235000	-0.008305
	38.240000	-0.146431
	38.245000	-0.044481
	38.250000	0.093645
	38.255000	-0.005016
	38.260000	-0.143143
	38.265000	-0.041192
	38.270000	0.090357
	38.275000	-0.008305
	38.280000	-0.146431
	38.285000	-0.044481
	38.290000	0.096934
	38.295000	-0.008305
	38.300000	-0.143143
	38.305000	-0.041192
	38.310000	0.096934
	38.315000	-0.014883
	38.320000	-0.146431
	38.325000	-0.041192
	38.330000	0.093645
	38.335000	-0.011594
	38.340000	-0.146431
	38.345000	-0.041192
	38.350000	0.096934
	38.355000	-0.018171
	38.360000	-0.149720
	38.365000	-0.044481
	38.370000	0.096934
	38.375000	-0.008305
	38.380000	-0.146431
	38.385000	-0.041192
	38.390000	0.096934
	38.395000	-0.008305
	38.400000	-0.149720
	38.405000	-0.037904
	38.410000	0.096934
	38.415000	-0.011594
	38.420000	-0.146431
	38.425000	-0.034615
	38.430000	0.096934
	38.435000	-0.014883
	38.440000	-0.146431
	38.445000	-0.037904
	38.450000	0.096934
	38.455000	-0.011594
	38.460000	-0.149720
	38.465000	-0.034615
	38.470000	0.100223
	38.475000	-0.008305
	38.480000	-0.139854
	38.485000	-0.034615
	38.490000	0.100223
	38.495000	-0.008305
	38.500000	-0.143143
	38.505000	-0.034615
	38.510000	0.103511
	38.515000	-0.011594
	38.520000	-0.143143
	38.525000	-0.031326
	38.530000	0.103511
	38.535000	-0.008305
	38.540000	-0.143143
	38.545000	-0.031326
	38.550000	0.103511
	38.555000	-0.005016
	38.560000	-0.139854
	38.565000	-0.028037
	38.570000	0.106800
	38.575000	-0.008305
	38.580000	-0.139854
	38.585000	-0.028037
	38.590000	0.100223
	38.595000	-0.008305
	38.600000	-0.136565
	38.605000	-0.021460
	38.610000	0.106800
	38.615000	-0.011594
	38.620000	-0.143143
	38.625000	-0.021460
	38.630000	0.106800
	38.635000	-0.011594
	38.640000	-0.136565
	38.645000	-0.028037
	38.650000	0.103511
	38.655000	-0.011594
	38.660000	-0.139854
	38.665000	-0.024749
	38.670000	0.103511
	38.675000	-0.008305
	38.680000	-0.139854
	38.685000	-0.024749
	38.690000	0.103511
	38.695000	-0.008305
	38.700000	-0.139854
	38.705000	-0.024749
	38.710000	0.106800
	38.715000	-0.014883
	38.720000	-0.143143
	38.725000	-0.024749
	38.730000	0.103511
	38.735000	-0.011594
	38.740000	-0.139854
	38.745000	-0.024749
	38.750000	0.110089
	38.755000	-0.011594
	38.760000	-0.143143
	38.765000	-0.018171
	38.770000	0.106800
	38.775000	-0.014883
	38.780000	-0.136565
	38.785000	-0.028037
	38.790000	0.103511
	38.795000	-0.008305
	38.800000	-0.139854
	38.805000	-0.024749
	38.810000	0.103511
	38.815000	-0.011594
	38.820000	-0.136565
	38.825000	-0.021460
	38.830000	0.103511
	38.835000	-0.014883
	38.840000	-0.139854
	38.845000	-0.021460
	38.850000	0.106800
	38.855000	-0.018171
	38.860000	-0.139854
	38.865000	-0.021460
	38.870000	0.100223
	38.875000	-0.018171
	38.880000	-0.136565
	38.885000	-0.021460
	38.890000	0.103511
	38.895000	-0.014883
	38.900000	-0.143143
	38.905000	-0.021460
	38.910000	0.103511
	38.915000	-0.011594
	38.920000	-0.139854
	38.925000	-0.021460
	38.930000	0.106800
	38.935000	-0.014883
	38.940000	-0.139854
	38.945000	-0.021460
	38.950000	0.103511
	38.955000	-0.018171
	38.960000	-0.139854
	38.965000	-0.018171
	38.970000	0.103511
	38.975000	-0.018171
	38.980000	-0.143143
	38.985000	-0.018171
	38.990000	0.103511
	38.995000	-0.018171
	39.000000	-0.139854
	39.005000	-0.018171
	39.010000	0.106800
	39.015000	-0.021460
	39.020000	-0.139854
	39.025000	-0.021460
	39.030000	0.100223
	39.035000	-0.018171
	39.040000	-0.143143
	39.045000	-0.018171
	39.050000	0.100223
	39.055000	-0.014883
	39.060000	-0.136565
	39.065000	-0.018171
	39.070000	0.106800
	39.075000	-0.018171
	39.080000	-0.139854
	39.085000	-0.011594
	39.090000	0.106800
	39.095000	-0.018171
	39.100000	-0.139854
	39.105000	-0.018171
	39.110000	0.100223
	39.115000	-0.018171
	39.120000	-0.139854
	39.125000	-0.014883
	39.130000	0.103511
	39.135000	-0.021460
	39.140000	-0.139854
	39.145000	-0.014883
	39.150000	0.103511
	39.155000	-0.024749
	39.160000	-0.136565
	39.165000	-0.018171
	39.170000	0.103511
	39.175000	-0.024749
	39.180000	-0.139854
	39.185000	-0.014883
	39.190000	0.106800
	39.195000	-0.024749
	39.200000	-0.139854
	39.205000	-0.011594
	39.210000	0.103511
	39.215000	-0.021460
	39.220000	-0.139854
	39.225000	-0.021460
	39.230000	0.106800
	39.235000	-0.024749
	39.240000	-0.139854
	39.245000	-0.008305
	39.250000	0.106800
	39.255000	-0.024749
	39.260000	-0.139854
	39.265000	-0.011594
	39.270000	0.106800
	39.275000	-0.021460
	39.280000	-0.136565
	39.285000	-0.008305
	39.290000	0.110089
	39.295000	-0.021460
	39.300000	-0.136565
	39.305000	-0.008305
	39.310000	0.106800
	39.315000	-0.021460
	39.320000	-0.136565
	39.325000	-0.008305
	39.330000	0.110089
	39.335000	-0.018171
	39.340000	-0.136565
	39.345000	-0.001728
	39.350000	0.106800
	39.355000	-0.021460
	39.360000	-0.136565
	39.365000	-0.001728
	39.370000	0.113378
	39.375000	-0.014883
	39.380000	-0.133277
	39.385000	-0.001728
	39.390000	0.110089
	39.395000	-0.018171
	39.400000	-0.133277
	39.405000	-0.001728
	39.410000	0.110089
	39.415000	-0.014883
	39.420000	-0.136565
	39.425000	-0.005016
	39.430000	0.110089
	39.435000	-0.018171
	39.440000	-0.133277
	39.445000	-0.001728
	39.450000	0.113378
	39.455000	-0.021460
	39.460000	-0.136565
	39.465000	0.001561
	39.470000	0.106800
	39.475000	-0.028037
	39.480000	-0.139854
	39.485000	-0.005016
	39.490000	0.110089
	39.495000	-0.028037
	39.500000	-0.139854
	39.505000	-0.008305
	39.510000	0.103511
	39.515000	-0.028037
	39.520000	-0.143143
	39.525000	-0.008305
	39.530000	0.103511
	39.535000	-0.031326
	39.540000	-0.146431
	39.545000	-0.008305
	39.550000	0.100223
	39.555000	-0.028037
	39.560000	-0.139854
	39.565000	-0.008305
	39.570000	0.096934
	39.575000	-0.031326
	39.580000	-0.146431
	39.585000	-0.011594
	39.590000	0.096934
	39.595000	-0.034615
	39.600000	-0.146431
	39.605000	-0.008305
	39.610000	0.100223
	39.615000	-0.041192
	39.620000	-0.146431
	39.625000	-0.008305
	39.630000	0.100223
	39.635000	-0.034615
	39.640000	-0.146431
	39.645000	-0.008305
	39.650000	0.096934
	39.655000	-0.034615
	39.660000	-0.143143
	39.665000	-0.001728
	39.670000	0.100223
	39.675000	-0.037904
	39.680000	-0.143143
	39.685000	-0.008305
	39.690000	0.096934
	39.695000	-0.034615
	39.700000	-0.143143
	39.705000	-0.008305
	39.710000	0.106800
	39.715000	-0.034615
	39.720000	-0.143143
	39.725000	-0.005016
	39.730000	0.103511
	39.735000	-0.037904
	39.740000	-0.136565
	39.745000	-0.008305
	39.750000	0.103511
	39.755000	-0.034615
	39.760000	-0.139854
	39.765000	0.001561
	39.770000	0.103511
	39.775000	-0.034615
	39.780000	-0.139854
	39.785000	0.001561
	39.790000	0.103511
	39.795000	-0.037904
	39.800000	-0.136565
	39.805000	-0.001728
	39.810000	0.103511
	39.815000	-0.028037
	39.820000	-0.139854
	39.825000	0.004850
	39.830000	0.106800
	39.835000	-0.034615
	39.840000	-0.133277
	39.845000	0.001561
	39.850000	0.100223
	39.855000	-0.034615
	39.860000	-0.143143
	39.865000	0.001561
	39.870000	0.103511
	39.875000	-0.037904
	39.880000	-0.139854
	39.885000	0.001561
	39.890000	0.110089
	39.895000	-0.031326
	39.900000	-0.136565
	39.905000	0.004850
	39.910000	0.110089
	39.915000	-0.034615
	39.920000	-0.133277
	39.925000	0.001561
	39.930000	0.103511
	39.935000	-0.031326
	39.940000	-0.136565
	39.945000	0.001561
	39.950000	0.113378
	39.955000	-0.034615
	39.960000	-0.133277
	39.965000	0.011427
