2024/7/26 	 22:13:37 
 This file comes from Vt only measurement 	 1.000000E-1 
 Voltage Sensitivity 	 0.000000E+0 
 Sampling rate 	 200 
 Number of samples per channel 	 -1 
 No filter from Labview 	 	 	 
 	 
 ***End_of_Header*** 
 	 Time 	  Voltage 	 Filtered Voltage 	 
	0.000000	0.340299
	0.005000	0.504736
	0.010000	0.560644
	0.015000	0.396208
	0.020000	0.343588
	0.025000	0.504736
	0.030000	0.560644
	0.035000	0.396208
	0.040000	0.343588
	0.045000	0.508024
	0.050000	0.560644
	0.055000	0.402785
	0.060000	0.343588
	0.065000	0.508024
	0.070000	0.560644
	0.075000	0.399496
	0.080000	0.343588
	0.085000	0.504736
	0.090000	0.560644
	0.095000	0.399496
	0.100000	0.343588
	0.105000	0.508024
	0.110000	0.563933
	0.115000	0.396208
	0.120000	0.343588
	0.125000	0.508024
	0.130000	0.563933
	0.135000	0.399496
	0.140000	0.340299
	0.145000	0.508024
	0.150000	0.560644
	0.155000	0.406074
	0.160000	0.346877
	0.165000	0.501447
	0.170000	0.560644
	0.175000	0.396208
	0.180000	0.340299
	0.185000	0.504736
	0.190000	0.563933
	0.195000	0.402785
	0.200000	0.337011
	0.205000	0.501447
	0.210000	0.560644
	0.215000	0.399496
	0.220000	0.343588
	0.225000	0.501447
	0.230000	0.560644
	0.235000	0.399496
	0.240000	0.340299
	0.245000	0.501447
	0.250000	0.563933
	0.255000	0.396208
	0.260000	0.340299
	0.265000	0.501447
	0.270000	0.563933
	0.275000	0.399496
	0.280000	0.337011
	0.285000	0.494869
	0.290000	0.557355
	0.295000	0.399496
	0.300000	0.337011
	0.305000	0.498158
	0.310000	0.560644
	0.315000	0.399496
	0.320000	0.340299
	0.325000	0.501447
	0.330000	0.560644
	0.335000	0.402785
	0.340000	0.340299
	0.345000	0.498158
	0.350000	0.563933
	0.355000	0.399496
	0.360000	0.337011
	0.365000	0.494869
	0.370000	0.563933
	0.375000	0.399496
	0.380000	0.337011
	0.385000	0.498158
	0.390000	0.563933
	0.395000	0.399496
	0.400000	0.337011
	0.405000	0.498158
	0.410000	0.560644
	0.415000	0.406074
	0.420000	0.340299
	0.425000	0.501447
	0.430000	0.560644
	0.435000	0.402785
	0.440000	0.340299
	0.445000	0.498158
	0.450000	0.563933
	0.455000	0.402785
	0.460000	0.337011
	0.465000	0.501447
	0.470000	0.563933
	0.475000	0.402785
	0.480000	0.333722
	0.485000	0.494869
	0.490000	0.560644
	0.495000	0.402785
	0.500000	0.333722
	0.505000	0.494869
	0.510000	0.563933
	0.515000	0.399496
	0.520000	0.337011
	0.525000	0.498158
	0.530000	0.563933
	0.535000	0.402785
	0.540000	0.337011
	0.545000	0.494869
	0.550000	0.563933
	0.555000	0.406074
	0.560000	0.337011
	0.565000	0.491581
	0.570000	0.560644
	0.575000	0.406074
	0.580000	0.333722
	0.585000	0.498158
	0.590000	0.560644
	0.595000	0.406074
	0.600000	0.333722
	0.605000	0.491581
	0.610000	0.563933
	0.615000	0.406074
	0.620000	0.337011
	0.625000	0.491581
	0.630000	0.560644
	0.635000	0.406074
	0.640000	0.333722
	0.645000	0.498158
	0.650000	0.567221
	0.655000	0.412651
	0.660000	0.330433
	0.665000	0.485003
	0.670000	0.563933
	0.675000	0.409363
	0.680000	0.333722
	0.685000	0.485003
	0.690000	0.563933
	0.695000	0.409363
	0.700000	0.333722
	0.705000	0.491581
	0.710000	0.570510
	0.715000	0.409363
	0.720000	0.333722
	0.725000	0.488292
	0.730000	0.563933
	0.735000	0.406074
	0.740000	0.333722
	0.745000	0.488292
	0.750000	0.563933
	0.755000	0.409363
	0.760000	0.333722
	0.765000	0.485003
	0.770000	0.563933
	0.775000	0.409363
	0.780000	0.330433
	0.785000	0.485003
	0.790000	0.567221
	0.795000	0.412651
	0.800000	0.327145
	0.805000	0.485003
	0.810000	0.563933
	0.815000	0.409363
	0.820000	0.333722
	0.825000	0.485003
	0.830000	0.567221
	0.835000	0.412651
	0.840000	0.333722
	0.845000	0.481715
	0.850000	0.560644
	0.855000	0.412651
	0.860000	0.330433
	0.865000	0.485003
	0.870000	0.563933
	0.875000	0.412651
	0.880000	0.330433
	0.885000	0.481715
	0.890000	0.563933
	0.895000	0.409363
	0.900000	0.330433
	0.905000	0.481715
	0.910000	0.563933
	0.915000	0.409363
	0.920000	0.333722
	0.925000	0.485003
	0.930000	0.563933
	0.935000	0.412651
	0.940000	0.327145
	0.945000	0.481715
	0.950000	0.563933
	0.955000	0.412651
	0.960000	0.333722
	0.965000	0.481715
	0.970000	0.563933
	0.975000	0.412651
	0.980000	0.330433
	0.985000	0.478426
	0.990000	0.560644
	0.995000	0.412651
	1.000000	0.327145
	1.005000	0.481715
	1.010000	0.563933
	1.015000	0.409363
	1.020000	0.327145
	1.025000	0.481715
	1.030000	0.560644
	1.035000	0.412651
	1.040000	0.327145
	1.045000	0.478426
	1.050000	0.560644
	1.055000	0.412651
	1.060000	0.330433
	1.065000	0.478426
	1.070000	0.560644
	1.075000	0.412651
	1.080000	0.327145
	1.085000	0.478426
	1.090000	0.560644
	1.095000	0.412651
	1.100000	0.327145
	1.105000	0.475137
	1.110000	0.560644
	1.115000	0.415940
	1.120000	0.330433
	1.125000	0.475137
	1.130000	0.563933
	1.135000	0.412651
	1.140000	0.323856
	1.145000	0.475137
	1.150000	0.563933
	1.155000	0.415940
	1.160000	0.323856
	1.165000	0.468560
	1.170000	0.563933
	1.175000	0.415940
	1.180000	0.320567
	1.185000	0.468560
	1.190000	0.560644
	1.195000	0.412651
	1.200000	0.320567
	1.205000	0.468560
	1.210000	0.563933
	1.215000	0.412651
	1.220000	0.320567
	1.225000	0.468560
	1.230000	0.560644
	1.235000	0.415940
	1.240000	0.320567
	1.245000	0.468560
	1.250000	0.557355
	1.255000	0.412651
	1.260000	0.320567
	1.265000	0.461982
	1.270000	0.557355
	1.275000	0.415940
	1.280000	0.313990
	1.285000	0.465271
	1.290000	0.557355
	1.295000	0.412651
	1.300000	0.320567
	1.305000	0.468560
	1.310000	0.554066
	1.315000	0.412651
	1.320000	0.320567
	1.325000	0.461982
	1.330000	0.554066
	1.335000	0.409363
	1.340000	0.313990
	1.345000	0.458694
	1.350000	0.554066
	1.355000	0.412651
	1.360000	0.320567
	1.365000	0.458694
	1.370000	0.554066
	1.375000	0.412651
	1.380000	0.313990
	1.385000	0.455405
	1.390000	0.554066
	1.395000	0.406074
	1.400000	0.317278
	1.405000	0.455405
	1.410000	0.550778
	1.415000	0.406074
	1.420000	0.310701
	1.425000	0.448827
	1.430000	0.550778
	1.435000	0.409363
	1.440000	0.310701
	1.445000	0.452116
	1.450000	0.550778
	1.455000	0.409363
	1.460000	0.307412
	1.465000	0.448827
	1.470000	0.550778
	1.475000	0.406074
	1.480000	0.307412
	1.485000	0.445539
	1.490000	0.544200
	1.495000	0.406074
	1.500000	0.304124
	1.505000	0.452116
	1.510000	0.547489
	1.515000	0.406074
	1.520000	0.300835
	1.525000	0.445539
	1.530000	0.550778
	1.535000	0.409363
	1.540000	0.304124
	1.545000	0.452116
	1.550000	0.547489
	1.555000	0.409363
	1.560000	0.304124
	1.565000	0.445539
	1.570000	0.550778
	1.575000	0.409363
	1.580000	0.304124
	1.585000	0.445539
	1.590000	0.550778
	1.595000	0.409363
	1.600000	0.307412
	1.605000	0.448827
	1.610000	0.557355
	1.615000	0.415940
	1.620000	0.313990
	1.625000	0.455405
	1.630000	0.570510
	1.635000	0.429095
	1.640000	0.330433
	1.645000	0.478426
	1.650000	0.590242
	1.655000	0.452116
	1.660000	0.350166
	1.665000	0.498158
	1.670000	0.606686
	1.675000	0.465271
	1.680000	0.366609
	1.685000	0.508024
	1.690000	0.613263
	1.695000	0.481715
	1.700000	0.366609
	1.705000	0.511313
	1.710000	0.619841
	1.715000	0.478426
	1.720000	0.369898
	1.725000	0.508024
	1.730000	0.613263
	1.735000	0.475137
	1.740000	0.360032
	1.745000	0.504736
	1.750000	0.603397
	1.755000	0.458694
	1.760000	0.343588
	1.765000	0.485003
	1.770000	0.586954
	1.775000	0.445539
	1.780000	0.333722
	1.785000	0.471848
	1.790000	0.580376
	1.795000	0.435672
	1.800000	0.320567
	1.805000	0.465271
	1.810000	0.577088
	1.815000	0.435672
	1.820000	0.320567
	1.825000	0.455405
	1.830000	0.570510
	1.835000	0.438961
	1.840000	0.320567
	1.845000	0.458694
	1.850000	0.570510
	1.855000	0.432384
	1.860000	0.323856
	1.865000	0.458694
	1.870000	0.577088
	1.875000	0.432384
	1.880000	0.320567
	1.885000	0.458694
	1.890000	0.570510
	1.895000	0.435672
	1.900000	0.320567
	1.905000	0.458694
	1.910000	0.577088
	1.915000	0.438961
	1.920000	0.317278
	1.925000	0.458694
	1.930000	0.577088
	1.935000	0.438961
	1.940000	0.323856
	1.945000	0.461982
	1.950000	0.580376
	1.955000	0.438961
	1.960000	0.327145
	1.965000	0.458694
	1.970000	0.577088
	1.975000	0.435672
	1.980000	0.323856
	1.985000	0.455405
	1.990000	0.570510
	1.995000	0.432384
	2.000000	0.310701
	2.005000	0.445539
	2.010000	0.560644
	2.015000	0.422518
	2.020000	0.304124
	2.025000	0.432384
	2.030000	0.550778
	2.035000	0.415940
	2.040000	0.294257
	2.045000	0.425806
	2.050000	0.537623
	2.055000	0.399496
	2.060000	0.267948
	2.065000	0.402785
	2.070000	0.517891
	2.075000	0.379764
	2.080000	0.254793
	2.085000	0.383053
	2.090000	0.501447
	2.095000	0.366609
	2.100000	0.244927
	2.105000	0.376475
	2.110000	0.488292
	2.115000	0.353454
	2.120000	0.231772
	2.125000	0.356743
	2.130000	0.475137
	2.135000	0.337011
	2.140000	0.212039
	2.145000	0.333722
	2.150000	0.442250
	2.155000	0.307412
	2.160000	0.182441
	2.165000	0.300835
	2.170000	0.412651
	2.175000	0.284391
	2.180000	0.152842
	2.185000	0.277814
	2.190000	0.392919
	2.195000	0.264659
	2.200000	0.139687
	2.205000	0.264659
	2.210000	0.383053
	2.215000	0.254793
	2.220000	0.139687
	2.225000	0.258081
	2.230000	0.379764
	2.235000	0.248215
	2.240000	0.129821
	2.245000	0.258081
	2.250000	0.379764
	2.255000	0.258081
	2.260000	0.133110
	2.265000	0.261370
	2.270000	0.383053
	2.275000	0.264659
	2.280000	0.142976
	2.285000	0.264659
	2.290000	0.383053
	2.295000	0.261370
	2.300000	0.146265
	2.305000	0.264659
	2.310000	0.389630
	2.315000	0.267948
	2.320000	0.142976
	2.325000	0.271236
	2.330000	0.392919
	2.335000	0.271236
	2.340000	0.149554
	2.345000	0.274525
	2.350000	0.399496
	2.355000	0.274525
	2.360000	0.159420
	2.365000	0.281102
	2.370000	0.409363
	2.375000	0.281102
	2.380000	0.169286
	2.385000	0.287680
	2.390000	0.409363
	2.395000	0.294257
	2.400000	0.169286
	2.405000	0.297546
	2.410000	0.425806
	2.415000	0.304124
	2.420000	0.179152
	2.425000	0.300835
	2.430000	0.425806
	2.435000	0.307412
	2.440000	0.189018
	2.445000	0.310701
	2.450000	0.432384
	2.455000	0.320567
	2.460000	0.195596
	2.465000	0.313990
	2.470000	0.445539
	2.475000	0.327145
	2.480000	0.202173
	2.485000	0.323856
	2.490000	0.448827
	2.495000	0.327145
	2.500000	0.205462
	2.505000	0.330433
	2.510000	0.452116
	2.515000	0.330433
	2.520000	0.205462
	2.525000	0.327145
	2.530000	0.455405
	2.535000	0.337011
	2.540000	0.208751
	2.545000	0.333722
	2.550000	0.461982
	2.555000	0.337011
	2.560000	0.212039
	2.565000	0.330433
	2.570000	0.452116
	2.575000	0.340299
	2.580000	0.218617
	2.585000	0.327145
	2.590000	0.458694
	2.595000	0.333722
	2.600000	0.205462
	2.605000	0.327145
	2.610000	0.445539
	2.615000	0.333722
	2.620000	0.202173
	2.625000	0.317278
	2.630000	0.442250
	2.635000	0.327145
	2.640000	0.198884
	2.645000	0.304124
	2.650000	0.438961
	2.655000	0.320567
	2.660000	0.185730
	2.665000	0.297546
	2.670000	0.432384
	2.675000	0.317278
	2.680000	0.189018
	2.685000	0.300835
	2.690000	0.429095
	2.695000	0.317278
	2.700000	0.185730
	2.705000	0.300835
	2.710000	0.432384
	2.715000	0.313990
	2.720000	0.189018
	2.725000	0.300835
	2.730000	0.429095
	2.735000	0.320567
	2.740000	0.189018
	2.745000	0.297546
	2.750000	0.435672
	2.755000	0.320567
	2.760000	0.189018
	2.765000	0.297546
	2.770000	0.432384
	2.775000	0.317278
	2.780000	0.182441
	2.785000	0.297546
	2.790000	0.429095
	2.795000	0.313990
	2.800000	0.182441
	2.805000	0.290969
	2.810000	0.425806
	2.815000	0.317278
	2.820000	0.175863
	2.825000	0.294257
	2.830000	0.425806
	2.835000	0.310701
	2.840000	0.179152
	2.845000	0.287680
	2.850000	0.422518
	2.855000	0.313990
	2.860000	0.179152
	2.865000	0.290969
	2.870000	0.419229
	2.875000	0.307412
	2.880000	0.175863
	2.885000	0.284391
	2.890000	0.415940
	2.895000	0.304124
	2.900000	0.169286
	2.905000	0.281102
	2.910000	0.409363
	2.915000	0.304124
	2.920000	0.175863
	2.925000	0.274525
	2.930000	0.412651
	2.935000	0.304124
	2.940000	0.172575
	2.945000	0.281102
	2.950000	0.412651
	2.955000	0.307412
	2.960000	0.172575
	2.965000	0.281102
	2.970000	0.422518
	2.975000	0.313990
	2.980000	0.175863
	2.985000	0.290969
	2.990000	0.422518
	2.995000	0.313990
	3.000000	0.182441
	3.005000	0.287680
	3.010000	0.419229
	3.015000	0.313990
	3.020000	0.182441
	3.025000	0.294257
	3.030000	0.425806
	3.035000	0.320567
	3.040000	0.185730
	3.045000	0.287680
	3.050000	0.425806
	3.055000	0.323856
	3.060000	0.182441
	3.065000	0.294257
	3.070000	0.429095
	3.075000	0.323856
	3.080000	0.185730
	3.085000	0.287680
	3.090000	0.429095
	3.095000	0.327145
	3.100000	0.185730
	3.105000	0.290969
	3.110000	0.432384
	3.115000	0.327145
	3.120000	0.189018
	3.125000	0.290969
	3.130000	0.432384
	3.135000	0.330433
	3.140000	0.189018
	3.145000	0.290969
	3.150000	0.432384
	3.155000	0.333722
	3.160000	0.189018
	3.165000	0.290969
	3.170000	0.432384
	3.175000	0.327145
	3.180000	0.189018
	3.185000	0.290969
	3.190000	0.435672
	3.195000	0.333722
	3.200000	0.185730
	3.205000	0.290969
	3.210000	0.435672
	3.215000	0.330433
	3.220000	0.192307
	3.225000	0.290969
	3.230000	0.435672
	3.235000	0.333722
	3.240000	0.192307
	3.245000	0.294257
	3.250000	0.435672
	3.255000	0.330433
	3.260000	0.189018
	3.265000	0.287680
	3.270000	0.429095
	3.275000	0.333722
	3.280000	0.189018
	3.285000	0.287680
	3.290000	0.432384
	3.295000	0.333722
	3.300000	0.189018
	3.305000	0.287680
	3.310000	0.432384
	3.315000	0.337011
	3.320000	0.195596
	3.325000	0.287680
	3.330000	0.429095
	3.335000	0.333722
	3.340000	0.192307
	3.345000	0.290969
	3.350000	0.432384
	3.355000	0.337011
	3.360000	0.189018
	3.365000	0.287680
	3.370000	0.432384
	3.375000	0.333722
	3.380000	0.195596
	3.385000	0.287680
	3.390000	0.432384
	3.395000	0.343588
	3.400000	0.192307
	3.405000	0.297546
	3.410000	0.435672
	3.415000	0.346877
	3.420000	0.202173
	3.425000	0.300835
	3.430000	0.448827
	3.435000	0.356743
	3.440000	0.212039
	3.445000	0.310701
	3.450000	0.461982
	3.455000	0.373187
	3.460000	0.221905
	3.465000	0.323856
	3.470000	0.471848
	3.475000	0.386342
	3.480000	0.248215
	3.485000	0.343588
	3.490000	0.501447
	3.495000	0.412651
	3.500000	0.267948
	3.505000	0.360032
	3.510000	0.517891
	3.515000	0.429095
	3.520000	0.281102
	3.525000	0.376475
	3.530000	0.527757
	3.535000	0.435672
	3.540000	0.287680
	3.545000	0.379764
	3.550000	0.534334
	3.555000	0.445539
	3.560000	0.294257
	3.565000	0.389630
	3.570000	0.544200
	3.575000	0.452116
	3.580000	0.297546
	3.585000	0.392919
	3.590000	0.544200
	3.595000	0.455405
	3.600000	0.300835
	3.605000	0.383053
	3.610000	0.540912
	3.615000	0.438961
	3.620000	0.287680
	3.625000	0.373187
	3.630000	0.527757
	3.635000	0.432384
	3.640000	0.274525
	3.645000	0.369898
	3.650000	0.521179
	3.655000	0.432384
	3.660000	0.274525
	3.665000	0.356743
	3.670000	0.517891
	3.675000	0.425806
	3.680000	0.267948
	3.685000	0.360032
	3.690000	0.517891
	3.695000	0.425806
	3.700000	0.267948
	3.705000	0.363321
	3.710000	0.511313
	3.715000	0.425806
	3.720000	0.264659
	3.725000	0.360032
	3.730000	0.517891
	3.735000	0.429095
	3.740000	0.271236
	3.745000	0.360032
	3.750000	0.521179
	3.755000	0.432384
	3.760000	0.274525
	3.765000	0.363321
	3.770000	0.524468
	3.775000	0.442250
	3.780000	0.281102
	3.785000	0.373187
	3.790000	0.531045
	3.795000	0.445539
	3.800000	0.290969
	3.805000	0.376475
	3.810000	0.537623
	3.815000	0.452116
	3.820000	0.287680
	3.825000	0.376475
	3.830000	0.537623
	3.835000	0.452116
	3.840000	0.287680
	3.845000	0.376475
	3.850000	0.537623
	3.855000	0.455405
	3.860000	0.290969
	3.865000	0.376475
	3.870000	0.537623
	3.875000	0.452116
	3.880000	0.290969
	3.885000	0.373187
	3.890000	0.537623
	3.895000	0.452116
	3.900000	0.287680
	3.905000	0.366609
	3.910000	0.531045
	3.915000	0.448827
	3.920000	0.281102
	3.925000	0.363321
	3.930000	0.517891
	3.935000	0.432384
	3.940000	0.267948
	3.945000	0.350166
	3.950000	0.508024
	3.955000	0.425806
	3.960000	0.258081
	3.965000	0.333722
	3.970000	0.498158
	3.975000	0.412651
	3.980000	0.251504
	3.985000	0.320567
	3.990000	0.485003
	3.995000	0.399496
	4.000000	0.238349
	4.005000	0.310701
	4.010000	0.471848
	4.015000	0.392919
	4.020000	0.225194
	4.025000	0.304124
	4.030000	0.458694
	4.035000	0.376475
	4.040000	0.212039
	4.045000	0.284391
	4.050000	0.438961
	4.055000	0.356743
	4.060000	0.189018
	4.065000	0.258081
	4.070000	0.409363
	4.075000	0.327145
	4.080000	0.162708
	4.085000	0.225194
	4.090000	0.376475
	4.095000	0.287680
	4.100000	0.123244
	4.105000	0.182441
	4.110000	0.327145
	4.115000	0.238349
	4.120000	0.060758
	4.125000	0.116666
	4.130000	0.264659
	4.135000	0.175863
	4.140000	0.001561
	4.145000	0.067335
	4.150000	0.218617
	4.155000	0.142976
	4.160000	-0.018171
	4.165000	0.047603
	4.170000	0.208751
	4.175000	0.136399
	4.180000	-0.018171
	4.185000	0.054181
	4.190000	0.212039
	4.195000	0.146265
	4.200000	-0.014883
	4.205000	0.064047
	4.210000	0.221905
	4.215000	0.156131
	4.220000	-0.001728
	4.225000	0.067335
	4.230000	0.231772
	4.235000	0.162708
	4.240000	0.004850
	4.245000	0.077202
	4.250000	0.238349
	4.255000	0.172575
	4.260000	0.011427
	4.265000	0.077202
	4.270000	0.241638
	4.275000	0.172575
	4.280000	0.018005
	4.285000	0.087068
	4.290000	0.241638
	4.295000	0.179152
	4.300000	0.018005
	4.305000	0.087068
	4.310000	0.244927
	4.315000	0.179152
	4.320000	0.018005
	4.325000	0.087068
	4.330000	0.248215
	4.335000	0.189018
	4.340000	0.024582
	4.345000	0.090357
	4.350000	0.248215
	4.355000	0.189018
	4.360000	0.031160
	4.365000	0.093645
	4.370000	0.258081
	4.375000	0.198884
	4.380000	0.037737
	4.385000	0.106800
	4.390000	0.261370
	4.395000	0.202173
	4.400000	0.044314
	4.405000	0.106800
	4.410000	0.267948
	4.415000	0.208751
	4.420000	0.047603
	4.425000	0.113378
	4.430000	0.277814
	4.435000	0.215328
	4.440000	0.054181
	4.445000	0.110089
	4.450000	0.277814
	4.455000	0.221905
	4.460000	0.064047
	4.465000	0.129821
	4.470000	0.287680
	4.475000	0.228483
	4.480000	0.067335
	4.485000	0.136399
	4.490000	0.294257
	4.495000	0.235060
	4.500000	0.077202
	4.505000	0.136399
	4.510000	0.297546
	4.515000	0.248215
	4.520000	0.080490
	4.525000	0.139687
	4.530000	0.307412
	4.535000	0.248215
	4.540000	0.087068
	4.545000	0.149554
	4.550000	0.310701
	4.555000	0.251504
	4.560000	0.093645
	4.565000	0.149554
	4.570000	0.313990
	4.575000	0.251504
	4.580000	0.093645
	4.585000	0.152842
	4.590000	0.313990
	4.595000	0.254793
	4.600000	0.093645
	4.605000	0.149554
	4.610000	0.304124
	4.615000	0.254793
	4.620000	0.087068
	4.625000	0.139687
	4.630000	0.300835
	4.635000	0.244927
	4.640000	0.070624
	4.645000	0.126533
	4.650000	0.284391
	4.655000	0.228483
	4.660000	0.060758
	4.665000	0.116666
	4.670000	0.274525
	4.675000	0.218617
	4.680000	0.054181
	4.685000	0.110089
	4.690000	0.271236
	4.695000	0.221905
	4.700000	0.054181
	4.705000	0.106800
	4.710000	0.271236
	4.715000	0.215328
	4.720000	0.057469
	4.725000	0.106800
	4.730000	0.271236
	4.735000	0.221905
	4.740000	0.057469
	4.745000	0.106800
	4.750000	0.274525
	4.755000	0.218617
	4.760000	0.050892
	4.765000	0.106800
	4.770000	0.271236
	4.775000	0.212039
	4.780000	0.054181
	4.785000	0.100223
	4.790000	0.267948
	4.795000	0.215328
	4.800000	0.047603
	4.805000	0.100223
	4.810000	0.261370
	4.815000	0.218617
	4.820000	0.050892
	4.825000	0.103511
	4.830000	0.267948
	4.835000	0.215328
	4.840000	0.047603
	4.845000	0.096934
	4.850000	0.264659
	4.855000	0.215328
	4.860000	0.054181
	4.865000	0.103511
	4.870000	0.271236
	4.875000	0.218617
	4.880000	0.050892
	4.885000	0.103511
	4.890000	0.274525
	4.895000	0.231772
	4.900000	0.057469
	4.905000	0.103511
	4.910000	0.274525
	4.915000	0.235060
	4.920000	0.064047
	4.925000	0.110089
	4.930000	0.284391
	4.935000	0.235060
	4.940000	0.067335
	4.945000	0.113378
	4.950000	0.287680
	4.955000	0.235060
	4.960000	0.073913
	4.965000	0.116666
	4.970000	0.281102
	4.975000	0.238349
	4.980000	0.070624
	4.985000	0.113378
	4.990000	0.281102
	4.995000	0.235060
	5.000000	0.067335
	5.005000	0.113378
	5.010000	0.281102
	5.015000	0.235060
	5.020000	0.070624
	5.025000	0.116666
	5.030000	0.281102
	5.035000	0.241638
	5.040000	0.070624
	5.045000	0.116666
	5.050000	0.281102
	5.055000	0.238349
	5.060000	0.070624
	5.065000	0.119955
	5.070000	0.290969
	5.075000	0.248215
	5.080000	0.077202
	5.085000	0.119955
	5.090000	0.287680
	5.095000	0.251504
	5.100000	0.083779
	5.105000	0.123244
	5.110000	0.294257
	5.115000	0.254793
	5.120000	0.087068
	5.125000	0.126533
	5.130000	0.294257
	5.135000	0.254793
	5.140000	0.090357
	5.145000	0.129821
	5.150000	0.297546
	5.155000	0.264659
	5.160000	0.093645
	5.165000	0.133110
	5.170000	0.300835
	5.175000	0.264659
	5.180000	0.096934
	5.185000	0.133110
	5.190000	0.300835
	5.195000	0.264659
	5.200000	0.096934
	5.205000	0.133110
	5.210000	0.300835
	5.215000	0.261370
	5.220000	0.093645
	5.225000	0.126533
	5.230000	0.294257
	5.235000	0.258081
	5.240000	0.087068
	5.245000	0.129821
	5.250000	0.290969
	5.255000	0.254793
	5.260000	0.083779
	5.265000	0.126533
	5.270000	0.290969
	5.275000	0.258081
	5.280000	0.090357
	5.285000	0.133110
	5.290000	0.300835
	5.295000	0.264659
	5.300000	0.096934
	5.305000	0.139687
	5.310000	0.313990
	5.315000	0.287680
	5.320000	0.116666
	5.325000	0.159420
	5.330000	0.340299
	5.335000	0.317278
	5.340000	0.152842
	5.345000	0.192307
	5.350000	0.373187
	5.355000	0.350166
	5.360000	0.185730
	5.365000	0.235060
	5.370000	0.425806
	5.375000	0.396208
	5.380000	0.231772
	5.385000	0.274525
	5.390000	0.455405
	5.395000	0.422518
	5.400000	0.254793
	5.405000	0.281102
	5.410000	0.461982
	5.415000	0.429095
	5.420000	0.251504
	5.425000	0.287680
	5.430000	0.461982
	5.435000	0.432384
	5.440000	0.254793
	5.445000	0.287680
	5.450000	0.465271
	5.455000	0.435672
	5.460000	0.258081
	5.465000	0.290969
	5.470000	0.468560
	5.475000	0.435672
	5.480000	0.261370
	5.485000	0.290969
	5.490000	0.471848
	5.495000	0.438961
	5.500000	0.264659
	5.505000	0.294257
	5.510000	0.468560
	5.515000	0.445539
	5.520000	0.264659
	5.525000	0.294257
	5.530000	0.475137
	5.535000	0.445539
	5.540000	0.267948
	5.545000	0.294257
	5.550000	0.478426
	5.555000	0.455405
	5.560000	0.277814
	5.565000	0.300835
	5.570000	0.488292
	5.575000	0.458694
	5.580000	0.281102
	5.585000	0.307412
	5.590000	0.491581
	5.595000	0.465271
	5.600000	0.290969
	5.605000	0.310701
	5.610000	0.494869
	5.615000	0.475137
	5.620000	0.290969
	5.625000	0.313990
	5.630000	0.498158
	5.635000	0.475137
	5.640000	0.294257
	5.645000	0.320567
	5.650000	0.504736
	5.655000	0.488292
	5.660000	0.307412
	5.665000	0.330433
	5.670000	0.514602
	5.675000	0.501447
	5.680000	0.317278
	5.685000	0.340299
	5.690000	0.531045
	5.695000	0.504736
	5.700000	0.330433
	5.705000	0.353454
	5.710000	0.534334
	5.715000	0.514602
	5.720000	0.333722
	5.725000	0.353454
	5.730000	0.540912
	5.735000	0.517891
	5.740000	0.327145
	5.745000	0.350166
	5.750000	0.534334
	5.755000	0.521179
	5.760000	0.330433
	5.765000	0.350166
	5.770000	0.531045
	5.775000	0.514602
	5.780000	0.323856
	5.785000	0.340299
	5.790000	0.521179
	5.795000	0.501447
	5.800000	0.317278
	5.805000	0.327145
	5.810000	0.511313
	5.815000	0.491581
	5.820000	0.300835
	5.825000	0.317278
	5.830000	0.494869
	5.835000	0.481715
	5.840000	0.284391
	5.845000	0.300835
	5.850000	0.478426
	5.855000	0.452116
	5.860000	0.261370
	5.865000	0.274525
	5.870000	0.455405
	5.875000	0.435672
	5.880000	0.251504
	5.885000	0.261370
	5.890000	0.435672
	5.895000	0.422518
	5.900000	0.231772
	5.905000	0.244927
	5.910000	0.422518
	5.915000	0.409363
	5.920000	0.221905
	5.925000	0.235060
	5.930000	0.409363
	5.935000	0.399496
	5.940000	0.215328
	5.945000	0.221905
	5.950000	0.402785
	5.955000	0.383053
	5.960000	0.205462
	5.965000	0.215328
	5.970000	0.389630
	5.975000	0.376475
	5.980000	0.195596
	5.985000	0.202173
	5.990000	0.383053
	5.995000	0.373187
	6.000000	0.185730
	6.005000	0.195596
	6.010000	0.369898
	6.015000	0.360032
	6.020000	0.172575
	6.025000	0.185730
	6.030000	0.363321
	6.035000	0.353454
	6.040000	0.162708
	6.045000	0.172575
	6.050000	0.343588
	6.055000	0.327145
	6.060000	0.139687
	6.065000	0.136399
	6.070000	0.304124
	6.075000	0.284391
	6.080000	0.093645
	6.085000	0.090357
	6.090000	0.251504
	6.095000	0.235060
	6.100000	0.041026
	6.105000	0.034448
	6.110000	0.192307
	6.115000	0.172575
	6.120000	-0.021460
	6.125000	-0.028037
	6.130000	0.139687
	6.135000	0.123244
	6.140000	-0.051059
	6.145000	-0.057636
	6.150000	0.116666
	6.155000	0.103511
	6.160000	-0.070791
	6.165000	-0.067502
	6.170000	0.103511
	6.175000	0.103511
	6.180000	-0.070791
	6.185000	-0.064213
	6.190000	0.113378
	6.195000	0.113378
	6.200000	-0.060925
	6.205000	-0.054347
	6.210000	0.123244
	6.215000	0.123244
	6.220000	-0.047770
	6.225000	-0.041192
	6.230000	0.129821
	6.235000	0.129821
	6.240000	-0.037904
	6.245000	-0.034615
	6.250000	0.139687
	6.255000	0.142976
	6.260000	-0.028037
	6.265000	-0.024749
	6.270000	0.152842
	6.275000	0.156131
	6.280000	-0.014883
	6.285000	-0.011594
	6.290000	0.159420
	6.295000	0.162708
	6.300000	-0.001728
	6.305000	-0.008305
	6.310000	0.169286
	6.315000	0.175863
	6.320000	0.001561
	6.325000	0.004850
	6.330000	0.179152
	6.335000	0.185730
	6.340000	0.008138
	6.345000	0.004850
	6.350000	0.189018
	6.355000	0.189018
	6.360000	0.018005
	6.365000	0.021293
	6.370000	0.192307
	6.375000	0.202173
	6.380000	0.027871
	6.385000	0.027871
	6.390000	0.205462
	6.395000	0.202173
	6.400000	0.034448
	6.405000	0.034448
	6.410000	0.208751
	6.415000	0.212039
	6.420000	0.037737
	6.425000	0.041026
	6.430000	0.215328
	6.435000	0.218617
	6.440000	0.050892
	6.445000	0.047603
	6.450000	0.221905
	6.455000	0.225194
	6.460000	0.057469
	6.465000	0.050892
	6.470000	0.225194
	6.475000	0.231772
	6.480000	0.060758
	6.485000	0.054181
	6.490000	0.231772
	6.495000	0.235060
	6.500000	0.067335
	6.505000	0.060758
	6.510000	0.241638
	6.515000	0.241638
	6.520000	0.073913
	6.525000	0.060758
	6.530000	0.241638
	6.535000	0.248215
	6.540000	0.073913
	6.545000	0.070624
	6.550000	0.241638
	6.555000	0.248215
	6.560000	0.080490
	6.565000	0.067335
	6.570000	0.244927
	6.575000	0.248215
	6.580000	0.083779
	6.585000	0.073913
	6.590000	0.244927
	6.595000	0.251504
	6.600000	0.083779
	6.605000	0.077202
	6.610000	0.244927
	6.615000	0.254793
	6.620000	0.087068
	6.625000	0.070624
	6.630000	0.244927
	6.635000	0.254793
	6.640000	0.083779
	6.645000	0.070624
	6.650000	0.241638
	6.655000	0.254793
	6.660000	0.083779
	6.665000	0.067335
	6.670000	0.238349
	6.675000	0.251504
	6.680000	0.083779
	6.685000	0.067335
	6.690000	0.235060
	6.695000	0.251504
	6.700000	0.077202
	6.705000	0.064047
	6.710000	0.238349
	6.715000	0.251504
	6.720000	0.080490
	6.725000	0.067335
	6.730000	0.235060
	6.735000	0.248215
	6.740000	0.080490
	6.745000	0.060758
	6.750000	0.235060
	6.755000	0.254793
	6.760000	0.080490
	6.765000	0.067335
	6.770000	0.235060
	6.775000	0.254793
	6.780000	0.080490
	6.785000	0.060758
	6.790000	0.231772
	6.795000	0.248215
	6.800000	0.070624
	6.805000	0.067335
	6.810000	0.238349
	6.815000	0.251504
	6.820000	0.080490
	6.825000	0.064047
	6.830000	0.241638
	6.835000	0.258081
	6.840000	0.083779
	6.845000	0.064047
	6.850000	0.238349
	6.855000	0.261370
	6.860000	0.093645
	6.865000	0.064047
	6.870000	0.238349
	6.875000	0.254793
	6.880000	0.090357
	6.885000	0.070624
	6.890000	0.241638
	6.895000	0.261370
	6.900000	0.090357
	6.905000	0.073913
	6.910000	0.241638
	6.915000	0.264659
	6.920000	0.093645
	6.925000	0.077202
	6.930000	0.238349
	6.935000	0.264659
	6.940000	0.100223
	6.945000	0.073913
	6.950000	0.248215
	6.955000	0.267948
	6.960000	0.100223
	6.965000	0.077202
	6.970000	0.244927
	6.975000	0.274525
	6.980000	0.100223
	6.985000	0.077202
	6.990000	0.251504
	6.995000	0.274525
	7.000000	0.103511
	7.005000	0.083779
	7.010000	0.254793
	7.015000	0.281102
	7.020000	0.110089
	7.025000	0.087068
	7.030000	0.258081
	7.035000	0.281102
	7.040000	0.110089
	7.045000	0.087068
	7.050000	0.261370
	7.055000	0.287680
	7.060000	0.116666
	7.065000	0.090357
	7.070000	0.264659
	7.075000	0.294257
	7.080000	0.116666
	7.085000	0.090357
	7.090000	0.261370
	7.095000	0.297546
	7.100000	0.123244
	7.105000	0.096934
	7.110000	0.271236
	7.115000	0.297546
	7.120000	0.126533
	7.125000	0.100223
	7.130000	0.274525
	7.135000	0.294257
	7.140000	0.126533
	7.145000	0.100223
	7.150000	0.271236
	7.155000	0.297546
	7.160000	0.129821
	7.165000	0.103511
	7.170000	0.277814
	7.175000	0.310701
	7.180000	0.142976
	7.185000	0.113378
	7.190000	0.287680
	7.195000	0.327145
	7.200000	0.169286
	7.205000	0.142976
	7.210000	0.333722
	7.215000	0.379764
	7.220000	0.218617
	7.225000	0.208751
	7.230000	0.396208
	7.235000	0.442250
	7.240000	0.284391
	7.245000	0.267948
	7.250000	0.448827
	7.255000	0.491581
	7.260000	0.323856
	7.265000	0.297546
	7.270000	0.475137
	7.275000	0.514602
	7.280000	0.340299
	7.285000	0.304124
	7.290000	0.475137
	7.295000	0.504736
	7.300000	0.327145
	7.305000	0.297546
	7.310000	0.471848
	7.315000	0.508024
	7.320000	0.333722
	7.325000	0.297546
	7.330000	0.475137
	7.335000	0.511313
	7.340000	0.337011
	7.345000	0.300835
	7.350000	0.471848
	7.355000	0.511313
	7.360000	0.330433
	7.365000	0.297546
	7.370000	0.461982
	7.375000	0.498158
	7.380000	0.320567
	7.385000	0.281102
	7.390000	0.458694
	7.395000	0.491581
	7.400000	0.313990
	7.405000	0.274525
	7.410000	0.448827
	7.415000	0.481715
	7.420000	0.307412
	7.425000	0.264659
	7.430000	0.435672
	7.435000	0.478426
	7.440000	0.300835
	7.445000	0.261370
	7.450000	0.432384
	7.455000	0.475137
	7.460000	0.300835
	7.465000	0.258081
	7.470000	0.435672
	7.475000	0.471848
	7.480000	0.304124
	7.485000	0.258081
	7.490000	0.432384
	7.495000	0.475137
	7.500000	0.300835
	7.505000	0.254793
	7.510000	0.432384
	7.515000	0.468560
	7.520000	0.294257
	7.525000	0.251504
	7.530000	0.432384
	7.535000	0.475137
	7.540000	0.294257
	7.545000	0.258081
	7.550000	0.429095
	7.555000	0.471848
	7.560000	0.294257
	7.565000	0.251504
	7.570000	0.422518
	7.575000	0.468560
	7.580000	0.290969
	7.585000	0.248215
	7.590000	0.419229
	7.595000	0.465271
	7.600000	0.290969
	7.605000	0.244927
	7.610000	0.419229
	7.615000	0.461982
	7.620000	0.287680
	7.625000	0.244927
	7.630000	0.419229
	7.635000	0.465271
	7.640000	0.284391
	7.645000	0.244927
	7.650000	0.415940
	7.655000	0.458694
	7.660000	0.284391
	7.665000	0.235060
	7.670000	0.412651
	7.675000	0.458694
	7.680000	0.287680
	7.685000	0.238349
	7.690000	0.412651
	7.695000	0.455405
	7.700000	0.274525
	7.705000	0.231772
	7.710000	0.399496
	7.715000	0.448827
	7.720000	0.267948
	7.725000	0.208751
	7.730000	0.379764
	7.735000	0.419229
	7.740000	0.241638
	7.745000	0.189018
	7.750000	0.353454
	7.755000	0.392919
	7.760000	0.221905
	7.765000	0.165997
	7.770000	0.323856
	7.775000	0.363321
	7.780000	0.192307
	7.785000	0.129821
	7.790000	0.284391
	7.795000	0.333722
	7.800000	0.156131
	7.805000	0.103511
	7.810000	0.261370
	7.815000	0.300835
	7.820000	0.133110
	7.825000	0.070624
	7.830000	0.221905
	7.835000	0.267948
	7.840000	0.090357
	7.845000	0.031160
	7.850000	0.182441
	7.855000	0.221905
	7.860000	0.044314
	7.865000	-0.024749
	7.870000	0.129821
	7.875000	0.156131
	7.880000	-0.024749
	7.885000	-0.087234
	7.890000	0.060758
	7.895000	0.096934
	7.900000	-0.070791
	7.905000	-0.129988
	7.910000	0.027871
	7.915000	0.077202
	7.920000	-0.080657
	7.925000	-0.133277
	7.930000	0.024582
	7.935000	0.070624
	7.940000	-0.083946
	7.945000	-0.139854
	7.950000	0.024582
	7.955000	0.083779
	7.960000	-0.080657
	7.965000	-0.129988
	7.970000	0.034448
	7.975000	0.090357
	7.980000	-0.070791
	7.985000	-0.123410
	7.990000	0.034448
	7.995000	0.087068
	8.000000	-0.067502
	8.005000	-0.116833
	8.010000	0.044314
	8.015000	0.100223
	8.020000	-0.060925
	8.025000	-0.110256
	8.030000	0.057469
	8.035000	0.106800
	8.040000	-0.051059
	8.045000	-0.103678
	8.050000	0.060758
	8.055000	0.116666
	8.060000	-0.034615
	8.065000	-0.090523
	8.070000	0.070624
	8.075000	0.129821
	8.080000	-0.024749
	8.085000	-0.077368
	8.090000	0.083779
	8.095000	0.139687
	8.100000	-0.011594
	8.105000	-0.064213
	8.110000	0.090357
	8.115000	0.156131
	8.120000	0.001561
	8.125000	-0.054347
	8.130000	0.103511
	8.135000	0.169286
	8.140000	0.008138
	8.145000	-0.044481
	8.150000	0.116666
	8.155000	0.172575
	8.160000	0.024582
	8.165000	-0.041192
	8.170000	0.129821
	8.175000	0.182441
	8.180000	0.031160
	8.185000	-0.028037
	8.190000	0.133110
	8.195000	0.198884
	8.200000	0.041026
	8.205000	-0.014883
	8.210000	0.146265
	8.215000	0.208751
	8.220000	0.050892
	8.225000	-0.005016
	8.230000	0.156131
	8.235000	0.218617
	8.240000	0.057469
	8.245000	0.001561
	8.250000	0.159420
	8.255000	0.225194
	8.260000	0.070624
	8.265000	0.018005
	8.270000	0.175863
	8.275000	0.231772
	8.280000	0.077202
	8.285000	0.018005
	8.290000	0.175863
	8.295000	0.238349
	8.300000	0.080490
	8.305000	0.021293
	8.310000	0.175863
	8.315000	0.231772
	8.320000	0.080490
	8.325000	0.018005
	8.330000	0.172575
	8.335000	0.238349
	8.340000	0.077202
	8.345000	0.011427
	8.350000	0.169286
	8.355000	0.228483
	8.360000	0.070624
	8.365000	0.011427
	8.370000	0.162708
	8.375000	0.228483
	8.380000	0.067335
	8.385000	0.001561
	8.390000	0.159420
	8.395000	0.225194
	8.400000	0.067335
	8.405000	0.008138
	8.410000	0.159420
	8.415000	0.225194
	8.420000	0.073913
	8.425000	0.011427
	8.430000	0.159420
	8.435000	0.225194
	8.440000	0.070624
	8.445000	0.011427
	8.450000	0.165997
	8.455000	0.231772
	8.460000	0.077202
	8.465000	0.008138
	8.470000	0.162708
	8.475000	0.238349
	8.480000	0.073913
	8.485000	0.011427
	8.490000	0.165997
	8.495000	0.228483
	8.500000	0.083779
	8.505000	0.011427
	8.510000	0.165997
	8.515000	0.228483
	8.520000	0.070624
	8.525000	0.004850
	8.530000	0.159420
	8.535000	0.225194
	8.540000	0.070624
	8.545000	0.001561
	8.550000	0.156131
	8.555000	0.225194
	8.560000	0.077202
	8.565000	0.001561
	8.570000	0.156131
	8.575000	0.225194
	8.580000	0.073913
	8.585000	0.001561
	8.590000	0.149554
	8.595000	0.225194
	8.600000	0.070624
	8.605000	0.001561
	8.610000	0.156131
	8.615000	0.225194
	8.620000	0.073913
	8.625000	0.004850
	8.630000	0.156131
	8.635000	0.225194
	8.640000	0.073913
	8.645000	0.004850
	8.650000	0.159420
	8.655000	0.228483
	8.660000	0.083779
	8.665000	0.011427
	8.670000	0.162708
	8.675000	0.235060
	8.680000	0.083779
	8.685000	0.008138
	8.690000	0.162708
	8.695000	0.238349
	8.700000	0.087068
	8.705000	0.014716
	8.710000	0.165997
	8.715000	0.241638
	8.720000	0.087068
	8.725000	0.014716
	8.730000	0.162708
	8.735000	0.241638
	8.740000	0.090357
	8.745000	0.014716
	8.750000	0.165997
	8.755000	0.241638
	8.760000	0.093645
	8.765000	0.018005
	8.770000	0.169286
	8.775000	0.244927
	8.780000	0.093645
	8.785000	0.018005
	8.790000	0.172575
	8.795000	0.251504
	8.800000	0.100223
	8.805000	0.024582
	8.810000	0.172575
	8.815000	0.251504
	8.820000	0.103511
	8.825000	0.024582
	8.830000	0.175863
	8.835000	0.254793
	8.840000	0.103511
	8.845000	0.027871
	8.850000	0.172575
	8.855000	0.258081
	8.860000	0.106800
	8.865000	0.031160
	8.870000	0.179152
	8.875000	0.254793
	8.880000	0.110089
	8.885000	0.031160
	8.890000	0.182441
	8.895000	0.261370
	8.900000	0.113378
	8.905000	0.034448
	8.910000	0.182441
	8.915000	0.264659
	8.920000	0.113378
	8.925000	0.041026
	8.930000	0.182441
	8.935000	0.264659
	8.940000	0.119955
	8.945000	0.037737
	8.950000	0.185730
	8.955000	0.264659
	8.960000	0.119955
	8.965000	0.037737
	8.970000	0.179152
	8.975000	0.264659
	8.980000	0.126533
	8.985000	0.041026
	8.990000	0.185730
	8.995000	0.271236
	9.000000	0.119955
	9.005000	0.041026
	9.010000	0.182441
	9.015000	0.267948
	9.020000	0.126533
	9.025000	0.041026
	9.030000	0.185730
	9.035000	0.267948
	9.040000	0.123244
	9.045000	0.044314
	9.050000	0.185730
	9.055000	0.274525
	9.060000	0.133110
	9.065000	0.041026
	9.070000	0.185730
	9.075000	0.274525
	9.080000	0.133110
	9.085000	0.047603
	9.090000	0.185730
	9.095000	0.277814
	9.100000	0.133110
	9.105000	0.047603
	9.110000	0.192307
	9.115000	0.281102
	9.120000	0.133110
	9.125000	0.050892
	9.130000	0.195596
	9.135000	0.287680
	9.140000	0.146265
	9.145000	0.060758
	9.150000	0.208751
	9.155000	0.300835
	9.160000	0.169286
	9.165000	0.077202
	9.170000	0.241638
	9.175000	0.340299
	9.180000	0.202173
	9.185000	0.123244
	9.190000	0.287680
	9.195000	0.396208
	9.200000	0.261370
	9.205000	0.182441
	9.210000	0.340299
	9.215000	0.442250
	9.220000	0.313990
	9.225000	0.235060
	9.230000	0.383053
	9.235000	0.485003
	9.240000	0.343588
	9.245000	0.258081
	9.250000	0.409363
	9.255000	0.511313
	9.260000	0.369898
	9.265000	0.281102
	9.270000	0.425806
	9.275000	0.524468
	9.280000	0.379764
	9.285000	0.281102
	9.290000	0.422518
	9.295000	0.514602
	9.300000	0.366609
	9.305000	0.281102
	9.310000	0.422518
	9.315000	0.514602
	9.320000	0.369898
	9.325000	0.271236
	9.330000	0.419229
	9.335000	0.517891
	9.340000	0.369898
	9.345000	0.271236
	9.350000	0.419229
	9.355000	0.511313
	9.360000	0.363321
	9.365000	0.267948
	9.370000	0.415940
	9.375000	0.514602
	9.380000	0.363321
	9.385000	0.261370
	9.390000	0.406074
	9.395000	0.504736
	9.400000	0.353454
	9.405000	0.248215
	9.410000	0.396208
	9.415000	0.498158
	9.420000	0.353454
	9.425000	0.241638
	9.430000	0.389630
	9.435000	0.485003
	9.440000	0.343588
	9.445000	0.238349
	9.450000	0.383053
	9.455000	0.488292
	9.460000	0.343588
	9.465000	0.235060
	9.470000	0.376475
	9.475000	0.485003
	9.480000	0.333722
	9.485000	0.231772
	9.490000	0.373187
	9.495000	0.481715
	9.500000	0.337011
	9.505000	0.231772
	9.510000	0.376475
	9.515000	0.485003
	9.520000	0.343588
	9.525000	0.241638
	9.530000	0.386342
	9.535000	0.498158
	9.540000	0.353454
	9.545000	0.244927
	9.550000	0.399496
	9.555000	0.504736
	9.560000	0.360032
	9.565000	0.244927
	9.570000	0.402785
	9.575000	0.511313
	9.580000	0.360032
	9.585000	0.248215
	9.590000	0.392919
	9.595000	0.508024
	9.600000	0.360032
	9.605000	0.241638
	9.610000	0.396208
	9.615000	0.501447
	9.620000	0.346877
	9.625000	0.235060
	9.630000	0.366609
	9.635000	0.488292
	9.640000	0.337011
	9.645000	0.208751
	9.650000	0.356743
	9.655000	0.461982
	9.660000	0.313990
	9.665000	0.195596
	9.670000	0.337011
	9.675000	0.445539
	9.680000	0.297546
	9.685000	0.185730
	9.690000	0.327145
	9.695000	0.442250
	9.700000	0.304124
	9.705000	0.195596
	9.710000	0.333722
	9.715000	0.448827
	9.720000	0.313990
	9.725000	0.205462
	9.730000	0.343588
	9.735000	0.448827
	9.740000	0.310701
	9.745000	0.192307
	9.750000	0.327145
	9.755000	0.435672
	9.760000	0.287680
	9.765000	0.169286
	9.770000	0.300835
	9.775000	0.406074
	9.780000	0.261370
	9.785000	0.146265
	9.790000	0.271236
	9.795000	0.369898
	9.800000	0.228483
	9.805000	0.103511
	9.810000	0.225194
	9.815000	0.330433
	9.820000	0.182441
	9.825000	0.064047
	9.830000	0.182441
	9.835000	0.284391
	9.840000	0.136399
	9.845000	0.011427
	9.850000	0.126533
	9.855000	0.221905
	9.860000	0.070624
	9.865000	-0.060925
	9.870000	0.044314
	9.875000	0.119955
	9.880000	-0.037904
	9.885000	-0.179319
	9.890000	-0.080657
	9.895000	0.014716
	9.900000	-0.136565
	9.905000	-0.251671
	9.910000	-0.136565
	9.915000	-0.028037
	9.920000	-0.153009
	9.925000	-0.264826
	9.930000	-0.139854
	9.935000	-0.028037
	9.940000	-0.153009
	9.945000	-0.261537
	9.950000	-0.126699
	9.955000	-0.008305
	9.960000	-0.133277
	9.965000	-0.241804
	9.970000	-0.110256
	9.975000	0.011427
	9.980000	-0.120122
	9.985000	-0.222072
	9.990000	-0.093812
	9.995000	0.018005
	10.000000	-0.100389
	10.005000	-0.205628
	10.010000	-0.080657
	10.015000	0.041026
	10.020000	-0.083946
	10.025000	-0.189185
	10.030000	-0.064213
	10.035000	0.057469
	10.040000	-0.064213
	10.045000	-0.169453
	10.050000	-0.044481
	10.055000	0.070624
	10.060000	-0.051059
	10.065000	-0.159586
	10.070000	-0.028037
	10.075000	0.090357
	10.080000	-0.024749
	10.085000	-0.143143
	10.090000	-0.008305
	10.095000	0.106800
	10.100000	-0.008305
	10.105000	-0.123410
	10.110000	0.004850
	10.115000	0.123244
	10.120000	0.004850
	10.125000	-0.106967
	10.130000	0.018005
	10.135000	0.133110
	10.140000	0.018005
	10.145000	-0.093812
	10.150000	0.024582
	10.155000	0.146265
	10.160000	0.031160
	10.165000	-0.083946
	10.170000	0.041026
	10.175000	0.162708
	10.180000	0.041026
	10.185000	-0.074080
	10.190000	0.050892
	10.195000	0.172575
	10.200000	0.057469
	10.205000	-0.060925
	10.210000	0.060758
	10.215000	0.185730
	10.220000	0.067335
	10.225000	-0.051059
	10.230000	0.073913
	10.235000	0.195596
	10.240000	0.077202
	10.245000	-0.037904
	10.250000	0.087068
	10.255000	0.205462
	10.260000	0.093645
	10.265000	-0.028037
	10.270000	0.093645
	10.275000	0.212039
	10.280000	0.096934
	10.285000	-0.028037
	10.290000	0.093645
	10.295000	0.208751
	10.300000	0.100223
	10.305000	-0.021460
	10.310000	0.093645
	10.315000	0.218617
	10.320000	0.100223
	10.325000	-0.024749
	10.330000	0.087068
	10.335000	0.215328
	10.340000	0.096934
	10.345000	-0.028037
	10.350000	0.090357
	10.355000	0.208751
	10.360000	0.096934
	10.365000	-0.028037
	10.370000	0.090357
	10.375000	0.208751
	10.380000	0.096934
	10.385000	-0.028037
	10.390000	0.090357
	10.395000	0.212039
	10.400000	0.100223
	10.405000	-0.024749
	10.410000	0.093645
	10.415000	0.215328
	10.420000	0.103511
	10.425000	-0.021460
	10.430000	0.090357
	10.435000	0.215328
	10.440000	0.106800
	10.445000	-0.018171
	10.450000	0.096934
	10.455000	0.218617
	10.460000	0.103511
	10.465000	-0.021460
	10.470000	0.090357
	10.475000	0.218617
	10.480000	0.100223
	10.485000	-0.021460
	10.490000	0.090357
	10.495000	0.218617
	10.500000	0.103511
	10.505000	-0.018171
	10.510000	0.090357
	10.515000	0.215328
	10.520000	0.103511
	10.525000	-0.024749
	10.530000	0.090357
	10.535000	0.215328
	10.540000	0.103511
	10.545000	-0.024749
	10.550000	0.090357
	10.555000	0.215328
	10.560000	0.106800
	10.565000	-0.021460
	10.570000	0.090357
	10.575000	0.218617
	10.580000	0.106800
	10.585000	-0.021460
	10.590000	0.093645
	10.595000	0.221905
	10.600000	0.113378
	10.605000	-0.014883
	10.610000	0.090357
	10.615000	0.225194
	10.620000	0.119955
	10.625000	-0.011594
	10.630000	0.100223
	10.635000	0.228483
	10.640000	0.119955
	10.645000	-0.008305
	10.650000	0.096934
	10.655000	0.235060
	10.660000	0.123244
	10.665000	-0.008305
	10.670000	0.106800
	10.675000	0.231772
	10.680000	0.126533
	10.685000	-0.005016
	10.690000	0.106800
	10.695000	0.235060
	10.700000	0.129821
	10.705000	-0.001728
	10.710000	0.106800
	10.715000	0.238349
	10.720000	0.133110
	10.725000	0.004850
	10.730000	0.106800
	10.735000	0.241638
	10.740000	0.136399
	10.745000	0.004850
	10.750000	0.110089
	10.755000	0.248215
	10.760000	0.136399
	10.765000	0.004850
	10.770000	0.113378
	10.775000	0.248215
	10.780000	0.146265
	10.785000	0.011427
	10.790000	0.116666
	10.795000	0.248215
	10.800000	0.146265
	10.805000	0.011427
	10.810000	0.116666
	10.815000	0.251504
	10.820000	0.149554
	10.825000	0.018005
	10.830000	0.116666
	10.835000	0.254793
	10.840000	0.156131
	10.845000	0.018005
	10.850000	0.126533
	10.855000	0.254793
	10.860000	0.159420
	10.865000	0.027871
	10.870000	0.126533
	10.875000	0.258081
	10.880000	0.162708
	10.885000	0.024582
	10.890000	0.129821
	10.895000	0.261370
	10.900000	0.165997
	10.905000	0.034448
	10.910000	0.133110
	10.915000	0.261370
	10.920000	0.165997
	10.925000	0.034448
	10.930000	0.129821
	10.935000	0.267948
	10.940000	0.162708
	10.945000	0.031160
	10.950000	0.129821
	10.955000	0.264659
	10.960000	0.165997
	10.965000	0.024582
	10.970000	0.129821
	10.975000	0.261370
	10.980000	0.165997
	10.985000	0.027871
	10.990000	0.133110
	10.995000	0.267948
	11.000000	0.162708
	11.005000	0.024582
	11.010000	0.123244
	11.015000	0.261370
	11.020000	0.169286
	11.025000	0.024582
	11.030000	0.123244
	11.035000	0.264659
	11.040000	0.162708
	11.045000	0.027871
	11.050000	0.126533
	11.055000	0.267948
	11.060000	0.169286
	11.065000	0.031160
	11.070000	0.126533
	11.075000	0.264659
	11.080000	0.172575
	11.085000	0.037737
	11.090000	0.129821
	11.095000	0.274525
	11.100000	0.182441
	11.105000	0.044314
	11.110000	0.136399
	11.115000	0.277814
	11.120000	0.189018
	11.125000	0.047603
	11.130000	0.142976
	11.135000	0.287680
	11.140000	0.195596
	11.145000	0.057469
	11.150000	0.146265
	11.155000	0.290969
	11.160000	0.205462
	11.165000	0.064047
	11.170000	0.159420
	11.175000	0.304124
	11.180000	0.218617
	11.185000	0.080490
	11.190000	0.182441
	11.195000	0.327145
	11.200000	0.241638
	11.205000	0.119955
	11.210000	0.221905
	11.215000	0.379764
	11.220000	0.297546
	11.225000	0.169286
	11.230000	0.274525
	11.235000	0.432384
	11.240000	0.353454
	11.245000	0.218617
	11.250000	0.327145
	11.255000	0.481715
	11.260000	0.399496
	11.265000	0.261370
	11.270000	0.356743
	11.275000	0.514602
	11.280000	0.432384
	11.285000	0.294257
	11.290000	0.392919
	11.295000	0.544200
	11.300000	0.458694
	11.305000	0.307412
	11.310000	0.406074
	11.315000	0.547489
	11.320000	0.452116
	11.325000	0.300835
	11.330000	0.389630
	11.335000	0.531045
	11.340000	0.445539
	11.345000	0.294257
	11.350000	0.379764
	11.355000	0.534334
	11.360000	0.438961
	11.365000	0.284391
	11.370000	0.373187
	11.375000	0.524468
	11.380000	0.435672
	11.385000	0.281102
	11.390000	0.373187
	11.395000	0.521179
	11.400000	0.438961
	11.405000	0.281102
	11.410000	0.366609
	11.415000	0.514602
	11.420000	0.429095
	11.425000	0.274525
	11.430000	0.356743
	11.435000	0.504736
	11.440000	0.422518
	11.445000	0.274525
	11.450000	0.350166
	11.455000	0.504736
	11.460000	0.419229
	11.465000	0.264659
	11.470000	0.343588
	11.475000	0.498158
	11.480000	0.409363
	11.485000	0.254793
	11.490000	0.337011
	11.495000	0.491581
	11.500000	0.399496
	11.505000	0.248215
	11.510000	0.330433
	11.515000	0.478426
	11.520000	0.399496
	11.525000	0.235060
	11.530000	0.320567
	11.535000	0.485003
	11.540000	0.392919
	11.545000	0.235060
	11.550000	0.317278
	11.555000	0.478426
	11.560000	0.392919
	11.565000	0.231772
	11.570000	0.313990
	11.575000	0.475137
	11.580000	0.392919
	11.585000	0.235060
	11.590000	0.310701
	11.595000	0.475137
	11.600000	0.392919
	11.605000	0.225194
	11.610000	0.310701
	11.615000	0.465271
	11.620000	0.386342
	11.625000	0.228483
	11.630000	0.300835
	11.635000	0.458694
	11.640000	0.376475
	11.645000	0.215328
	11.650000	0.297546
	11.655000	0.455405
	11.660000	0.369898
	11.665000	0.208751
	11.670000	0.284391
	11.675000	0.448827
	11.680000	0.360032
	11.685000	0.195596
	11.690000	0.277814
	11.695000	0.435672
	11.700000	0.360032
	11.705000	0.195596
	11.710000	0.274525
	11.715000	0.435672
	11.720000	0.360032
	11.725000	0.198884
	11.730000	0.277814
	11.735000	0.435672
	11.740000	0.360032
	11.745000	0.202173
	11.750000	0.267948
	11.755000	0.429095
	11.760000	0.356743
	11.765000	0.189018
	11.770000	0.254793
	11.775000	0.415940
	11.780000	0.333722
	11.785000	0.165997
	11.790000	0.235060
	11.795000	0.383053
	11.800000	0.310701
	11.805000	0.136399
	11.810000	0.205462
	11.815000	0.353454
	11.820000	0.264659
	11.825000	0.096934
	11.830000	0.156131
	11.835000	0.304124
	11.840000	0.228483
	11.845000	0.060758
	11.850000	0.123244
	11.855000	0.271236
	11.860000	0.189018
	11.865000	0.031160
	11.870000	0.090357
	11.875000	0.241638
	11.880000	0.159420
	11.885000	-0.005016
	11.890000	0.050892
	11.895000	0.198884
	11.900000	0.116666
	11.905000	-0.057636
	11.910000	-0.005016
	11.915000	0.133110
	11.920000	0.044314
	11.925000	-0.136565
	11.930000	-0.097101
	11.935000	0.041026
	11.940000	-0.044481
	11.945000	-0.215495
	11.950000	-0.169453
	11.955000	-0.021460
	11.960000	-0.093812
	11.965000	-0.254959
	11.970000	-0.195762
	11.975000	-0.034615
	11.980000	-0.100389
	11.985000	-0.251671
	11.990000	-0.189185
	11.995000	-0.028037
	12.000000	-0.093812
	12.005000	-0.248382
	12.010000	-0.182607
	12.015000	-0.028037
	12.020000	-0.083946
	12.025000	-0.231938
	12.030000	-0.172741
	12.035000	-0.014883
	12.040000	-0.067502
	12.045000	-0.225361
	12.050000	-0.162875
	12.055000	-0.001728
	12.060000	-0.060925
	12.065000	-0.208917
	12.070000	-0.149720
	12.075000	0.011427
	12.080000	-0.041192
	12.085000	-0.195762
	12.090000	-0.136565
	12.095000	0.024582
	12.100000	-0.037904
	12.105000	-0.185896
	12.110000	-0.123410
	12.115000	0.037737
	12.120000	-0.014883
	12.125000	-0.169453
	12.130000	-0.103678
	12.135000	0.054181
	12.140000	-0.001728
	12.145000	-0.159586
	12.150000	-0.097101
	12.155000	0.070624
	12.160000	0.011427
	12.165000	-0.143143
	12.170000	-0.080657
	12.175000	0.077202
	12.180000	0.031160
	12.185000	-0.129988
	12.190000	-0.067502
	12.195000	0.090357
	12.200000	0.041026
	12.205000	-0.113544
	12.210000	-0.060925
	12.215000	0.103511
	12.220000	0.050892
	12.225000	-0.106967
	12.230000	-0.044481
	12.235000	0.110089
	12.240000	0.064047
	12.245000	-0.097101
	12.250000	-0.037904
	12.255000	0.123244
	12.260000	0.070624
	12.265000	-0.083946
	12.270000	-0.031326
	12.275000	0.136399
	12.280000	0.083779
	12.285000	-0.080657
	12.290000	-0.024749
	12.295000	0.136399
	12.300000	0.083779
	12.305000	-0.067502
	12.310000	-0.021460
	12.315000	0.139687
	12.320000	0.090357
	12.325000	-0.067502
	12.330000	-0.014883
	12.335000	0.142976
	12.340000	0.093645
	12.345000	-0.067502
	12.350000	-0.018171
	12.355000	0.142976
	12.360000	0.083779
	12.365000	-0.067502
	12.370000	-0.024749
	12.375000	0.136399
	12.380000	0.087068
	12.385000	-0.074080
	12.390000	-0.024749
	12.395000	0.136399
	12.400000	0.080490
	12.405000	-0.077368
	12.410000	-0.031326
	12.415000	0.129821
	12.420000	0.080490
	12.425000	-0.077368
	12.430000	-0.034615
	12.435000	0.129821
	12.440000	0.080490
	12.445000	-0.074080
	12.450000	-0.031326
	12.455000	0.129821
	12.460000	0.083779
	12.465000	-0.077368
	12.470000	-0.031326
	12.475000	0.126533
	12.480000	0.083779
	12.485000	-0.080657
	12.490000	-0.031326
	12.495000	0.129821
	12.500000	0.087068
	12.505000	-0.080657
	12.510000	-0.034615
	12.515000	0.129821
	12.520000	0.087068
	12.525000	-0.080657
	12.530000	-0.034615
	12.535000	0.126533
	12.540000	0.083779
	12.545000	-0.087234
	12.550000	-0.034615
	12.555000	0.126533
	12.560000	0.077202
	12.565000	-0.080657
	12.570000	-0.041192
	12.575000	0.123244
	12.580000	0.080490
	12.585000	-0.083946
	12.590000	-0.037904
	12.595000	0.126533
	12.600000	0.087068
	12.605000	-0.070791
	12.610000	-0.031326
	12.615000	0.133110
	12.620000	0.090357
	12.625000	-0.070791
	12.630000	-0.031326
	12.635000	0.136399
	12.640000	0.093645
	12.645000	-0.067502
	12.650000	-0.021460
	12.655000	0.133110
	12.660000	0.096934
	12.665000	-0.064213
	12.670000	-0.024749
	12.675000	0.136399
	12.680000	0.106800
	12.685000	-0.067502
	12.690000	-0.021460
	12.695000	0.136399
	12.700000	0.100223
	12.705000	-0.060925
	12.710000	-0.024749
	12.715000	0.142976
	12.720000	0.103511
	12.725000	-0.060925
	12.730000	-0.024749
	12.735000	0.142976
	12.740000	0.106800
	12.745000	-0.060925
	12.750000	-0.021460
	12.755000	0.146265
	12.760000	0.106800
	12.765000	-0.051059
	12.770000	-0.014883
	12.775000	0.149554
	12.780000	0.116666
	12.785000	-0.051059
	12.790000	-0.014883
	12.795000	0.146265
	12.800000	0.119955
	12.805000	-0.047770
	12.810000	-0.011594
	12.815000	0.152842
	12.820000	0.123244
	12.825000	-0.044481
	12.830000	-0.005016
	12.835000	0.156131
	12.840000	0.126533
	12.845000	-0.041192
	12.850000	-0.005016
	12.855000	0.162708
	12.860000	0.126533
	12.865000	-0.034615
	12.870000	0.001561
	12.875000	0.159420
	12.880000	0.129821
	12.885000	-0.037904
	12.890000	-0.001728
	12.895000	0.162708
	12.900000	0.133110
	12.905000	-0.031326
	12.910000	-0.005016
	12.915000	0.165997
	12.920000	0.133110
	12.925000	-0.031326
	12.930000	0.001561
	12.935000	0.165997
	12.940000	0.133110
	12.945000	-0.031326
	12.950000	0.001561
	12.955000	0.165997
	12.960000	0.136399
	12.965000	-0.034615
	12.970000	-0.005016
	12.975000	0.169286
	12.980000	0.133110
	12.985000	-0.037904
	12.990000	-0.005016
	12.995000	0.159420
	13.000000	0.133110
	13.005000	-0.034615
	13.010000	0.004850
	13.015000	0.159420
	13.020000	0.139687
	13.025000	-0.031326
	13.030000	-0.001728
	13.035000	0.162708
	13.040000	0.136399
	13.045000	-0.024749
	13.050000	-0.001728
	13.055000	0.162708
	13.060000	0.142976
	13.065000	-0.028037
	13.070000	0.004850
	13.075000	0.169286
	13.080000	0.139687
	13.085000	-0.024749
	13.090000	0.001561
	13.095000	0.169286
	13.100000	0.139687
	13.105000	-0.021460
	13.110000	-0.001728
	13.115000	0.169286
	13.120000	0.149554
	13.125000	-0.018171
	13.130000	0.001561
	13.135000	0.172575
	13.140000	0.149554
	13.145000	-0.005016
	13.150000	0.014716
	13.155000	0.189018
	13.160000	0.175863
	13.165000	0.011427
	13.170000	0.041026
	13.175000	0.218617
	13.180000	0.212039
	13.185000	0.057469
	13.190000	0.090357
	13.195000	0.267948
	13.200000	0.261370
	13.205000	0.113378
	13.210000	0.156131
	13.215000	0.340299
	13.220000	0.340299
	13.225000	0.192307
	13.230000	0.231772
	13.235000	0.412651
	13.240000	0.402785
	13.245000	0.248215
	13.250000	0.274525
	13.255000	0.448827
	13.260000	0.438961
	13.265000	0.267948
	13.270000	0.294257
	13.275000	0.465271
	13.280000	0.452116
	13.285000	0.281102
	13.290000	0.300835
	13.295000	0.475137
	13.300000	0.458694
	13.305000	0.281102
	13.310000	0.297546
	13.315000	0.471848
	13.320000	0.452116
	13.325000	0.277814
	13.330000	0.290969
	13.335000	0.461982
	13.340000	0.445539
	13.345000	0.274525
	13.350000	0.287680
	13.355000	0.465271
	13.360000	0.448827
	13.365000	0.274525
	13.370000	0.287680
	13.375000	0.465271
	13.380000	0.448827
	13.385000	0.267948
	13.390000	0.284391
	13.395000	0.458694
	13.400000	0.438961
	13.405000	0.264659
	13.410000	0.274525
	13.415000	0.452116
	13.420000	0.432384
	13.425000	0.258081
	13.430000	0.267948
	13.435000	0.442250
	13.440000	0.422518
	13.445000	0.254793
	13.450000	0.261370
	13.455000	0.442250
	13.460000	0.422518
	13.465000	0.244927
	13.470000	0.254793
	13.475000	0.429095
	13.480000	0.422518
	13.485000	0.241638
	13.490000	0.248215
	13.495000	0.422518
	13.500000	0.412651
	13.505000	0.238349
	13.510000	0.244927
	13.515000	0.419229
	13.520000	0.409363
	13.525000	0.231772
	13.530000	0.235060
	13.535000	0.415940
	13.540000	0.406074
	13.545000	0.225194
	13.550000	0.231772
	13.555000	0.412651
	13.560000	0.406074
	13.565000	0.225194
	13.570000	0.235060
	13.575000	0.419229
	13.580000	0.406074
	13.585000	0.225194
	13.590000	0.235060
	13.595000	0.419229
	13.600000	0.412651
	13.605000	0.231772
	13.610000	0.231772
	13.615000	0.422518
	13.620000	0.409363
	13.625000	0.228483
	13.630000	0.238349
	13.635000	0.419229
	13.640000	0.409363
	13.645000	0.225194
	13.650000	0.228483
	13.655000	0.409363
	13.660000	0.406074
	13.665000	0.225194
	13.670000	0.225194
	13.675000	0.402785
	13.680000	0.402785
	13.685000	0.215328
	13.690000	0.215328
	13.695000	0.402785
	13.700000	0.399496
	13.705000	0.215328
	13.710000	0.212039
	13.715000	0.392919
	13.720000	0.389630
	13.725000	0.205462
	13.730000	0.202173
	13.735000	0.379764
	13.740000	0.379764
	13.745000	0.195596
	13.750000	0.189018
	13.755000	0.373187
	13.760000	0.369898
	13.765000	0.185730
	13.770000	0.182441
	13.775000	0.363321
	13.780000	0.360032
	13.785000	0.179152
	13.790000	0.179152
	13.795000	0.353454
	13.800000	0.350166
	13.805000	0.172575
	13.810000	0.169286
	13.815000	0.350166
	13.820000	0.350166
	13.825000	0.165997
	13.830000	0.162708
	13.835000	0.333722
	13.840000	0.340299
	13.845000	0.149554
	13.850000	0.142976
	13.855000	0.313990
	13.860000	0.310701
	13.865000	0.129821
	13.870000	0.119955
	13.875000	0.290969
	13.880000	0.281102
	13.885000	0.100223
	13.890000	0.083779
	13.895000	0.251504
	13.900000	0.238349
	13.905000	0.054181
	13.910000	0.037737
	13.915000	0.198884
	13.920000	0.189018
	13.925000	0.004850
	13.930000	-0.014883
	13.935000	0.152842
	13.940000	0.139687
	13.945000	-0.041192
	13.950000	-0.064213
	13.955000	0.093645
	13.960000	0.077202
	13.965000	-0.106967
	13.970000	-0.136565
	13.975000	0.018005
	13.980000	0.004850
	13.985000	-0.182607
	13.990000	-0.212206
	13.995000	-0.060925
	14.000000	-0.064213
	14.005000	-0.245093
	14.010000	-0.271403
	14.015000	-0.106967
	14.020000	-0.103678
	14.025000	-0.281269
	14.030000	-0.294424
	14.035000	-0.129988
	14.040000	-0.116833
	14.045000	-0.287847
	14.050000	-0.301001
	14.055000	-0.133277
	14.060000	-0.116833
	14.065000	-0.284558
	14.070000	-0.294424
	14.075000	-0.129988
	14.080000	-0.113544
	14.085000	-0.277980
	14.090000	-0.287847
	14.095000	-0.120122
	14.100000	-0.106967
	14.105000	-0.274692
	14.110000	-0.277980
	14.115000	-0.110256
	14.120000	-0.087234
	14.125000	-0.261537
	14.130000	-0.268114
	14.135000	-0.100389
	14.140000	-0.080657
	14.145000	-0.248382
	14.150000	-0.258248
	14.155000	-0.090523
	14.160000	-0.070791
	14.165000	-0.228650
	14.170000	-0.245093
	14.175000	-0.074080
	14.180000	-0.051059
	14.185000	-0.215495
	14.190000	-0.225361
	14.195000	-0.051059
	14.200000	-0.031326
	14.205000	-0.195762
	14.210000	-0.208917
	14.215000	-0.031326
	14.220000	-0.018171
	14.225000	-0.176030
	14.230000	-0.189185
	14.235000	-0.018171
	14.240000	-0.001728
	14.245000	-0.159586
	14.250000	-0.176030
	14.255000	-0.008305
	14.260000	0.018005
	14.265000	-0.146431
	14.270000	-0.162875
	14.275000	0.011427
	14.280000	0.027871
	14.285000	-0.139854
	14.290000	-0.146431
	14.295000	0.018005
	14.300000	0.041026
	14.305000	-0.126699
	14.310000	-0.139854
	14.315000	0.031160
	14.320000	0.050892
	14.325000	-0.106967
	14.330000	-0.123410
	14.335000	0.044314
	14.340000	0.060758
	14.345000	-0.093812
	14.350000	-0.116833
	14.355000	0.054181
	14.360000	0.077202
	14.365000	-0.083946
	14.370000	-0.103678
	14.375000	0.060758
	14.380000	0.090357
	14.385000	-0.077368
	14.390000	-0.100389
	14.395000	0.070624
	14.400000	0.090357
	14.405000	-0.074080
	14.410000	-0.097101
	14.415000	0.070624
	14.420000	0.100223
	14.425000	-0.074080
	14.430000	-0.093812
	14.435000	0.070624
	14.440000	0.100223
	14.445000	-0.074080
	14.450000	-0.093812
	14.455000	0.070624
	14.460000	0.096934
	14.465000	-0.067502
	14.470000	-0.093812
	14.475000	0.073913
	14.480000	0.096934
	14.485000	-0.067502
	14.490000	-0.090523
	14.495000	0.080490
	14.500000	0.106800
	14.505000	-0.054347
	14.510000	-0.083946
	14.515000	0.090357
	14.520000	0.106800
	14.525000	-0.057636
	14.530000	-0.080657
	14.535000	0.083779
	14.540000	0.113378
	14.545000	-0.047770
	14.550000	-0.074080
	14.555000	0.087068
	14.560000	0.119955
	14.565000	-0.041192
	14.570000	-0.070791
	14.575000	0.093645
	14.580000	0.123244
	14.585000	-0.041192
	14.590000	-0.067502
	14.595000	0.100223
	14.600000	0.126533
	14.605000	-0.037904
	14.610000	-0.070791
	14.615000	0.103511
	14.620000	0.129821
	14.625000	-0.037904
	14.630000	-0.064213
	14.635000	0.103511
	14.640000	0.129821
	14.645000	-0.031326
	14.650000	-0.060925
	14.655000	0.100223
	14.660000	0.136399
	14.665000	-0.028037
	14.670000	-0.054347
	14.675000	0.106800
	14.680000	0.136399
	14.685000	-0.028037
	14.690000	-0.054347
	14.695000	0.113378
	14.700000	0.142976
	14.705000	-0.018171
	14.710000	-0.051059
	14.715000	0.116666
	14.720000	0.149554
	14.725000	-0.014883
	14.730000	-0.047770
	14.735000	0.119955
	14.740000	0.156131
	14.745000	-0.011594
	14.750000	-0.044481
	14.755000	0.119955
	14.760000	0.156131
	14.765000	-0.011594
	14.770000	-0.041192
	14.775000	0.119955
	14.780000	0.159420
	14.785000	-0.008305
	14.790000	-0.041192
	14.795000	0.126533
	14.800000	0.162708
	14.805000	-0.001728
	14.810000	-0.034615
	14.815000	0.126533
	14.820000	0.162708
	14.825000	-0.001728
	14.830000	-0.037904
	14.835000	0.129821
	14.840000	0.169286
	14.845000	0.008138
	14.850000	-0.028037
	14.855000	0.133110
	14.860000	0.175863
	14.865000	0.011427
	14.870000	-0.028037
	14.875000	0.133110
	14.880000	0.175863
	14.885000	0.014716
	14.890000	-0.021460
	14.895000	0.142976
	14.900000	0.182441
	14.905000	0.021293
	14.910000	-0.014883
	14.915000	0.146265
	14.920000	0.189018
	14.925000	0.027871
	14.930000	-0.014883
	14.935000	0.149554
	14.940000	0.189018
	14.945000	0.034448
	14.950000	-0.008305
	14.955000	0.149554
	14.960000	0.195596
	14.965000	0.027871
	14.970000	-0.005016
	14.975000	0.159420
	14.980000	0.198884
	14.985000	0.031160
	14.990000	-0.011594
	14.995000	0.156131
	15.000000	0.198884
	15.005000	0.037737
	15.010000	-0.005016
	15.015000	0.152842
	15.020000	0.195596
	15.025000	0.037737
	15.030000	-0.008305
	15.035000	0.156131
	15.040000	0.195596
	15.045000	0.034448
	15.050000	-0.008305
	15.055000	0.152842
	15.060000	0.198884
	15.065000	0.037737
	15.070000	-0.008305
	15.075000	0.152842
	15.080000	0.202173
	15.085000	0.037737
	15.090000	-0.008305
	15.095000	0.149554
	15.100000	0.195596
	15.105000	0.037737
	15.110000	-0.011594
	15.115000	0.156131
	15.120000	0.198884
	15.125000	0.041026
	15.130000	-0.005016
	15.135000	0.149554
	15.140000	0.195596
	15.145000	0.041026
	15.150000	-0.011594
	15.155000	0.149554
	15.160000	0.198884
	15.165000	0.037737
	15.170000	-0.011594
	15.175000	0.152842
	15.180000	0.198884
	15.185000	0.037737
	15.190000	-0.011594
	15.195000	0.149554
	15.200000	0.202173
	15.205000	0.037737
	15.210000	-0.008305
	15.215000	0.149554
	15.220000	0.198884
	15.225000	0.037737
	15.230000	-0.011594
	15.235000	0.152842
	15.240000	0.198884
	15.245000	0.041026
	15.250000	-0.005016
	15.255000	0.152842
	15.260000	0.205462
	15.265000	0.041026
	15.270000	-0.005016
	15.275000	0.156131
	15.280000	0.208751
	15.285000	0.054181
	15.290000	-0.001728
	15.295000	0.159420
	15.300000	0.215328
	15.305000	0.057469
	15.310000	0.011427
	15.315000	0.169286
	15.320000	0.221905
	15.325000	0.070624
	15.330000	0.018005
	15.335000	0.185730
	15.340000	0.244927
	15.345000	0.087068
	15.350000	0.044314
	15.355000	0.215328
	15.360000	0.274525
	15.365000	0.129821
	15.370000	0.080490
	15.375000	0.251504
	15.380000	0.313990
	15.385000	0.159420
	15.390000	0.113378
	15.395000	0.281102
	15.400000	0.337011
	15.405000	0.189018
	15.410000	0.142976
	15.415000	0.310701
	15.420000	0.369898
	15.425000	0.212039
	15.430000	0.169286
	15.435000	0.330433
	15.440000	0.396208
	15.445000	0.241638
	15.450000	0.185730
	15.455000	0.356743
	15.460000	0.422518
	15.465000	0.267948
	15.470000	0.218617
	15.475000	0.383053
	15.480000	0.445539
	15.485000	0.287680
	15.490000	0.238349
	15.495000	0.406074
	15.500000	0.468560
	15.505000	0.310701
	15.510000	0.254793
	15.515000	0.425806
	15.520000	0.491581
	15.525000	0.333722
	15.530000	0.277814
	15.535000	0.448827
	15.540000	0.511313
	15.545000	0.360032
	15.550000	0.300835
	15.555000	0.465271
	15.560000	0.531045
	15.565000	0.369898
	15.570000	0.304124
	15.575000	0.461982
	15.580000	0.527757
	15.585000	0.366609
	15.590000	0.307412
	15.595000	0.468560
	15.600000	0.531045
	15.605000	0.369898
	15.610000	0.300835
	15.615000	0.465271
	15.620000	0.531045
	15.625000	0.366609
	15.630000	0.304124
	15.635000	0.465271
	15.640000	0.531045
	15.645000	0.366609
	15.650000	0.300835
	15.655000	0.461982
	15.660000	0.531045
	15.665000	0.363321
	15.670000	0.297546
	15.675000	0.455405
	15.680000	0.517891
	15.685000	0.356743
	15.690000	0.287680
	15.695000	0.448827
	15.700000	0.514602
	15.705000	0.353454
	15.710000	0.281102
	15.715000	0.442250
	15.720000	0.504736
	15.725000	0.340299
	15.730000	0.271236
	15.735000	0.429095
	15.740000	0.504736
	15.745000	0.337011
	15.750000	0.267948
	15.755000	0.429095
	15.760000	0.501447
	15.765000	0.337011
	15.770000	0.267948
	15.775000	0.432384
	15.780000	0.494869
	15.785000	0.337011
	15.790000	0.267948
	15.795000	0.429095
	15.800000	0.498158
	15.805000	0.337011
	15.810000	0.264659
	15.815000	0.425806
	15.820000	0.494869
	15.825000	0.333722
	15.830000	0.261370
	15.835000	0.419229
	15.840000	0.494869
	15.845000	0.337011
	15.850000	0.261370
	15.855000	0.419229
	15.860000	0.498158
	15.865000	0.333722
	15.870000	0.258081
	15.875000	0.422518
	15.880000	0.494869
	15.885000	0.337011
	15.890000	0.258081
	15.895000	0.412651
	15.900000	0.488292
	15.905000	0.327145
	15.910000	0.248215
	15.915000	0.406074
	15.920000	0.488292
	15.925000	0.320567
	15.930000	0.241638
	15.935000	0.402785
	15.940000	0.478426
	15.945000	0.313990
	15.950000	0.238349
	15.955000	0.392919
	15.960000	0.465271
	15.965000	0.310701
	15.970000	0.221905
	15.975000	0.379764
	15.980000	0.461982
	15.985000	0.300835
	15.990000	0.215328
	15.995000	0.369898
	16.000000	0.445539
	16.005000	0.287680
	16.010000	0.205462
	16.015000	0.360032
	16.020000	0.435672
	16.025000	0.274525
	16.030000	0.195596
	16.035000	0.346877
	16.040000	0.425806
	16.045000	0.264659
	16.050000	0.185730
	16.055000	0.340299
	16.060000	0.415940
	16.065000	0.254793
	16.070000	0.175863
	16.075000	0.327145
	16.080000	0.402785
	16.085000	0.241638
	16.090000	0.162708
	16.095000	0.313990
	16.100000	0.389630
	16.105000	0.228483
	16.110000	0.146265
	16.115000	0.297546
	16.120000	0.369898
	16.125000	0.208751
	16.130000	0.126533
	16.135000	0.264659
	16.140000	0.337011
	16.145000	0.175863
	16.150000	0.083779
	16.155000	0.221905
	16.160000	0.290969
	16.165000	0.126533
	16.170000	0.034448
	16.175000	0.175863
	16.180000	0.238349
	16.185000	0.064047
	16.190000	-0.031326
	16.195000	0.096934
	16.200000	0.142976
	16.205000	-0.034615
	16.210000	-0.159586
	16.215000	-0.044481
	16.220000	0.001561
	16.225000	-0.176030
	16.230000	-0.277980
	16.235000	-0.153009
	16.240000	-0.080657
	16.245000	-0.231938
	16.250000	-0.320734
	16.255000	-0.179319
	16.260000	-0.090523
	16.265000	-0.238516
	16.270000	-0.317445
	16.275000	-0.166164
	16.280000	-0.077368
	16.285000	-0.222072
	16.290000	-0.301001
	16.295000	-0.146431
	16.300000	-0.057636
	16.305000	-0.202340
	16.310000	-0.281269
	16.315000	-0.129988
	16.320000	-0.037904
	16.325000	-0.179319
	16.330000	-0.261537
	16.335000	-0.106967
	16.340000	-0.021460
	16.345000	-0.162875
	16.350000	-0.238516
	16.355000	-0.093812
	16.360000	-0.001728
	16.365000	-0.146431
	16.370000	-0.225361
	16.375000	-0.077368
	16.380000	0.008138
	16.385000	-0.133277
	16.390000	-0.212206
	16.395000	-0.064213
	16.400000	0.018005
	16.405000	-0.113544
	16.410000	-0.199051
	16.415000	-0.054347
	16.420000	0.034448
	16.425000	-0.097101
	16.430000	-0.182607
	16.435000	-0.037904
	16.440000	0.054181
	16.445000	-0.083946
	16.450000	-0.166164
	16.455000	-0.021460
	16.460000	0.073913
	16.465000	-0.067502
	16.470000	-0.149720
	16.475000	-0.001728
	16.480000	0.090357
	16.485000	-0.051059
	16.490000	-0.136565
	16.495000	0.011427
	16.500000	0.103511
	16.505000	-0.037904
	16.510000	-0.120122
	16.515000	0.024582
	16.520000	0.116666
	16.525000	-0.021460
	16.530000	-0.106967
	16.535000	0.031160
	16.540000	0.129821
	16.545000	-0.014883
	16.550000	-0.097101
	16.555000	0.050892
	16.560000	0.139687
	16.565000	-0.001728
	16.570000	-0.087234
	16.575000	0.060758
	16.580000	0.149554
	16.585000	0.011427
	16.590000	-0.070791
	16.595000	0.067335
	16.600000	0.162708
	16.605000	0.018005
	16.610000	-0.067502
	16.615000	0.077202
	16.620000	0.169286
	16.625000	0.031160
	16.630000	-0.060925
	16.635000	0.077202
	16.640000	0.169286
	16.645000	0.037737
	16.650000	-0.054347
	16.655000	0.090357
	16.660000	0.182441
	16.665000	0.041026
	16.670000	-0.047770
	16.675000	0.093645
	16.680000	0.182441
	16.685000	0.047603
	16.690000	-0.044481
	16.695000	0.090357
	16.700000	0.185730
	16.705000	0.044314
	16.710000	-0.044481
	16.715000	0.096934
	16.720000	0.192307
	16.725000	0.050892
	16.730000	-0.041192
	16.735000	0.096934
	16.740000	0.192307
	16.745000	0.050892
	16.750000	-0.041192
	16.755000	0.100223
	16.760000	0.189018
	16.765000	0.057469
	16.770000	-0.034615
	16.775000	0.100223
	16.780000	0.195596
	16.785000	0.057469
	16.790000	-0.034615
	16.795000	0.106800
	16.800000	0.198884
	16.805000	0.060758
	16.810000	-0.034615
	16.815000	0.103511
	16.820000	0.202173
	16.825000	0.064047
	16.830000	-0.031326
	16.835000	0.106800
	16.840000	0.202173
	16.845000	0.057469
	16.850000	-0.031326
	16.855000	0.110089
	16.860000	0.202173
	16.865000	0.067335
	16.870000	-0.034615
	16.875000	0.106800
	16.880000	0.198884
	16.885000	0.067335
	16.890000	-0.031326
	16.895000	0.106800
	16.900000	0.205462
	16.905000	0.067335
	16.910000	-0.028037
	16.915000	0.110089
	16.920000	0.205462
	16.925000	0.070624
	16.930000	-0.028037
	16.935000	0.103511
	16.940000	0.208751
	16.945000	0.073913
	16.950000	-0.024749
	16.955000	0.106800
	16.960000	0.208751
	16.965000	0.077202
	16.970000	-0.018171
	16.975000	0.110089
	16.980000	0.212039
	16.985000	0.080490
	16.990000	-0.024749
	16.995000	0.113378
	17.000000	0.212039
	17.005000	0.083779
	17.010000	-0.021460
	17.015000	0.116666
	17.020000	0.221905
	17.025000	0.087068
	17.030000	-0.018171
	17.035000	0.119955
	17.040000	0.218617
	17.045000	0.090357
	17.050000	-0.005016
	17.055000	0.119955
	17.060000	0.225194
	17.065000	0.090357
	17.070000	-0.011594
	17.075000	0.126533
	17.080000	0.225194
	17.085000	0.096934
	17.090000	-0.005016
	17.095000	0.126533
	17.100000	0.228483
	17.105000	0.103511
	17.110000	-0.005016
	17.115000	0.129821
	17.120000	0.228483
	17.125000	0.103511
	17.130000	0.001561
	17.135000	0.136399
	17.140000	0.235060
	17.145000	0.110089
	17.150000	-0.001728
	17.155000	0.136399
	17.160000	0.238349
	17.165000	0.106800
	17.170000	0.001561
	17.175000	0.136399
	17.180000	0.244927
	17.185000	0.119955
	17.190000	0.011427
	17.195000	0.142976
	17.200000	0.241638
	17.205000	0.119955
	17.210000	0.011427
	17.215000	0.142976
	17.220000	0.251504
	17.225000	0.123244
	17.230000	0.014716
	17.235000	0.146265
	17.240000	0.251504
	17.245000	0.119955
	17.250000	0.018005
	17.255000	0.142976
	17.260000	0.251504
	17.265000	0.119955
	17.270000	0.021293
	17.275000	0.152842
	17.280000	0.258081
	17.285000	0.126533
	17.290000	0.024582
	17.295000	0.149554
	17.300000	0.258081
	17.305000	0.133110
	17.310000	0.021293
	17.315000	0.142976
	17.320000	0.261370
	17.325000	0.133110
	17.330000	0.018005
	17.335000	0.146265
	17.340000	0.261370
	17.345000	0.133110
	17.350000	0.024582
	17.355000	0.149554
	17.360000	0.261370
	17.365000	0.139687
	17.370000	0.024582
	17.375000	0.146265
	17.380000	0.258081
	17.385000	0.133110
	17.390000	0.021293
	17.395000	0.156131
	17.400000	0.261370
	17.405000	0.142976
	17.410000	0.027871
	17.415000	0.152842
	17.420000	0.264659
	17.425000	0.142976
	17.430000	0.027871
	17.435000	0.152842
	17.440000	0.264659
	17.445000	0.142976
	17.450000	0.034448
	17.455000	0.156131
	17.460000	0.274525
	17.465000	0.149554
	17.470000	0.037737
	17.475000	0.162708
	17.480000	0.281102
	17.485000	0.162708
	17.490000	0.050892
	17.495000	0.179152
	17.500000	0.290969
	17.505000	0.175863
	17.510000	0.067335
	17.515000	0.202173
	17.520000	0.320567
	17.525000	0.205462
	17.530000	0.106800
	17.535000	0.235060
	17.540000	0.356743
	17.545000	0.238349
	17.550000	0.129821
	17.555000	0.261370
	17.560000	0.379764
	17.565000	0.271236
	17.570000	0.156131
	17.575000	0.287680
	17.580000	0.419229
	17.585000	0.304124
	17.590000	0.198884
	17.595000	0.327145
	17.600000	0.465271
	17.605000	0.346877
	17.610000	0.241638
	17.615000	0.369898
	17.620000	0.508024
	17.625000	0.392919
	17.630000	0.271236
	17.635000	0.402785
	17.640000	0.531045
	17.645000	0.409363
	17.650000	0.294257
	17.655000	0.415940
	17.660000	0.540912
	17.665000	0.419229
	17.670000	0.294257
	17.675000	0.412651
	17.680000	0.537623
	17.685000	0.419229
	17.690000	0.297546
	17.695000	0.422518
	17.700000	0.544200
	17.705000	0.422518
	17.710000	0.294257
	17.715000	0.419229
	17.720000	0.544200
	17.725000	0.419229
	17.730000	0.294257
	17.735000	0.422518
	17.740000	0.540912
	17.745000	0.422518
	17.750000	0.290969
	17.755000	0.419229
	17.760000	0.547489
	17.765000	0.422518
	17.770000	0.300835
	17.775000	0.425806
	17.780000	0.550778
	17.785000	0.425806
	17.790000	0.307412
	17.795000	0.432384
	17.800000	0.550778
	17.805000	0.432384
	17.810000	0.304124
	17.815000	0.425806
	17.820000	0.550778
	17.825000	0.429095
	17.830000	0.297546
	17.835000	0.422518
	17.840000	0.550778
	17.845000	0.425806
	17.850000	0.294257
	17.855000	0.415940
	17.860000	0.547489
	17.865000	0.425806
	17.870000	0.290969
	17.875000	0.412651
	17.880000	0.547489
	17.885000	0.422518
	17.890000	0.290969
	17.895000	0.415940
	17.900000	0.550778
	17.905000	0.432384
	17.910000	0.297546
	17.915000	0.422518
	17.920000	0.563933
	17.925000	0.438961
	17.930000	0.307412
	17.935000	0.432384
	17.940000	0.573799
	17.945000	0.448827
	17.950000	0.317278
	17.955000	0.438961
	17.960000	0.583665
	17.965000	0.461982
	17.970000	0.320567
	17.975000	0.442250
	17.980000	0.586954
	17.985000	0.455405
	17.990000	0.313990
	17.995000	0.435672
	18.000000	0.577088
	18.005000	0.452116
	18.010000	0.304124
	18.015000	0.429095
	18.020000	0.563933
	18.025000	0.435672
	18.030000	0.290969
	18.035000	0.406074
	18.040000	0.550778
	18.045000	0.425806
	18.050000	0.277814
	18.055000	0.392919
	18.060000	0.531045
	18.065000	0.406074
	18.070000	0.258081
	18.075000	0.376475
	18.080000	0.514602
	18.085000	0.386342
	18.090000	0.241638
	18.095000	0.360032
	18.100000	0.501447
	18.105000	0.379764
	18.110000	0.228483
	18.115000	0.346877
	18.120000	0.491581
	18.125000	0.360032
	18.130000	0.215328
	18.135000	0.323856
	18.140000	0.465271
	18.145000	0.340299
	18.150000	0.185730
	18.155000	0.300835
	18.160000	0.432384
	18.165000	0.307412
	18.170000	0.165997
	18.175000	0.274525
	18.180000	0.412651
	18.185000	0.294257
	18.190000	0.156131
	18.195000	0.274525
	18.200000	0.415940
	18.205000	0.300835
	18.210000	0.152842
	18.215000	0.264659
	18.220000	0.392919
	18.225000	0.281102
	18.230000	0.139687
	18.235000	0.241638
	18.240000	0.369898
	18.245000	0.258081
	18.250000	0.113378
	18.255000	0.215328
	18.260000	0.353454
	18.265000	0.231772
	18.270000	0.090357
	18.275000	0.195596
	18.280000	0.327145
	18.285000	0.212039
	18.290000	0.067335
	18.295000	0.172575
	18.300000	0.297546
	18.305000	0.175863
	18.310000	0.031160
	18.315000	0.116666
	18.320000	0.241638
	18.325000	0.126533
	18.330000	-0.028037
	18.335000	0.064047
	18.340000	0.182441
	18.345000	0.067335
	18.350000	-0.080657
	18.355000	0.004850
	18.360000	0.116666
	18.365000	-0.014883
	18.370000	-0.182607
	18.375000	-0.123410
	18.380000	-0.024749
	18.385000	-0.172741
	18.390000	-0.340466
	18.395000	-0.277980
	18.400000	-0.162875
	18.405000	-0.281269
	18.410000	-0.425973
	18.415000	-0.330600
	18.420000	-0.202340
	18.425000	-0.291135
	18.430000	-0.422684
	18.435000	-0.317445
	18.440000	-0.172741
	18.445000	-0.268114
	18.450000	-0.393086
	18.455000	-0.291135
	18.460000	-0.146431
	18.465000	-0.235227
	18.470000	-0.370065
	18.475000	-0.264826
	18.480000	-0.123410
	18.485000	-0.215495
	18.490000	-0.343755
	18.495000	-0.241804
	18.500000	-0.103678
	18.505000	-0.195762
	18.510000	-0.327311
	18.515000	-0.218783
	18.520000	-0.083946
	18.525000	-0.176030
	18.530000	-0.301001
	18.535000	-0.205628
	18.540000	-0.060925
	18.545000	-0.156298
	18.550000	-0.281269
	18.555000	-0.185896
	18.560000	-0.047770
	18.565000	-0.133277
	18.570000	-0.264826
	18.575000	-0.166164
	18.580000	-0.024749
	18.585000	-0.116833
	18.590000	-0.248382
	18.595000	-0.149720
	18.600000	-0.008305
	18.605000	-0.093812
	18.610000	-0.231938
	18.615000	-0.136565
	18.620000	0.011427
	18.625000	-0.083946
	18.630000	-0.218783
	18.635000	-0.123410
	18.640000	0.024582
	18.645000	-0.067502
	18.650000	-0.202340
	18.655000	-0.103678
	18.660000	0.034448
	18.665000	-0.051059
	18.670000	-0.182607
	18.675000	-0.090523
	18.680000	0.054181
	18.685000	-0.037904
	18.690000	-0.176030
	18.695000	-0.080657
	18.700000	0.067335
	18.705000	-0.028037
	18.710000	-0.166164
	18.715000	-0.070791
	18.720000	0.073913
	18.725000	-0.018171
	18.730000	-0.153009
	18.735000	-0.060925
	18.740000	0.083779
	18.745000	-0.008305
	18.750000	-0.136565
	18.755000	-0.047770
	18.760000	0.096934
	18.765000	0.008138
	18.770000	-0.129988
	18.775000	-0.041192
	18.780000	0.103511
	18.785000	0.014716
	18.790000	-0.126699
	18.795000	-0.031326
	18.800000	0.106800
	18.805000	0.024582
	18.810000	-0.120122
	18.815000	-0.028037
	18.820000	0.110089
	18.825000	0.024582
	18.830000	-0.123410
	18.835000	-0.031326
	18.840000	0.116666
	18.845000	0.027871
	18.850000	-0.116833
	18.855000	-0.028037
	18.860000	0.119955
	18.865000	0.027871
	18.870000	-0.113544
	18.875000	-0.024749
	18.880000	0.113378
	18.885000	0.031160
	18.890000	-0.113544
	18.895000	-0.024749
	18.900000	0.119955
	18.905000	0.034448
	18.910000	-0.103678
	18.915000	-0.021460
	18.920000	0.126533
	18.925000	0.041026
	18.930000	-0.106967
	18.935000	-0.018171
	18.940000	0.126533
	18.945000	0.044314
	18.950000	-0.100389
	18.955000	-0.014883
	18.960000	0.126533
	18.965000	0.041026
	18.970000	-0.100389
	18.975000	-0.014883
	18.980000	0.133110
	18.985000	0.044314
	18.990000	-0.097101
	18.995000	-0.011594
	19.000000	0.136399
	19.005000	0.050892
	19.010000	-0.093812
	19.015000	-0.008305
	19.020000	0.136399
	19.025000	0.050892
	19.030000	-0.090523
	19.035000	-0.011594
	19.040000	0.133110
	19.045000	0.054181
	19.050000	-0.093812
	19.055000	-0.005016
	19.060000	0.139687
	19.065000	0.060758
	19.070000	-0.090523
	19.075000	-0.005016
	19.080000	0.139687
	19.085000	0.054181
	19.090000	-0.087234
	19.095000	-0.008305
	19.100000	0.142976
	19.105000	0.060758
	19.110000	-0.083946
	19.115000	-0.001728
	19.120000	0.146265
	19.125000	0.064047
	19.130000	-0.080657
	19.135000	-0.001728
	19.140000	0.149554
	19.145000	0.070624
	19.150000	-0.074080
	19.155000	0.004850
	19.160000	0.149554
	19.165000	0.070624
	19.170000	-0.077368
	19.175000	0.004850
	19.180000	0.152842
	19.185000	0.077202
	19.190000	-0.070791
	19.195000	0.011427
	19.200000	0.156131
	19.205000	0.083779
	19.210000	-0.064213
	19.215000	0.014716
	19.220000	0.159420
	19.225000	0.080490
	19.230000	-0.060925
	19.235000	0.011427
	19.240000	0.162708
	19.245000	0.090357
	19.250000	-0.057636
	19.255000	0.014716
	19.260000	0.165997
	19.265000	0.090357
	19.270000	-0.057636
	19.275000	0.024582
	19.280000	0.169286
	19.285000	0.093645
	19.290000	-0.051059
	19.295000	0.027871
	19.300000	0.175863
	19.305000	0.103511
	19.310000	-0.047770
	19.315000	0.031160
	19.320000	0.185730
	19.325000	0.106800
	19.330000	-0.041192
	19.335000	0.037737
	19.340000	0.182441
	19.345000	0.110089
	19.350000	-0.034615
	19.355000	0.041026
	19.360000	0.192307
	19.365000	0.123244
	19.370000	-0.031326
	19.375000	0.047603
	19.380000	0.198884
	19.385000	0.126533
	19.390000	-0.024749
	19.395000	0.050892
	19.400000	0.202173
	19.405000	0.126533
	19.410000	-0.018171
	19.415000	0.054181
	19.420000	0.205462
	19.425000	0.136399
	19.430000	-0.018171
	19.435000	0.054181
	19.440000	0.205462
	19.445000	0.136399
	19.450000	-0.018171
	19.455000	0.054181
	19.460000	0.205462
	19.465000	0.133110
	19.470000	-0.018171
	19.475000	0.054181
	19.480000	0.202173
	19.485000	0.136399
	19.490000	-0.018171
	19.495000	0.050892
	19.500000	0.205462
	19.505000	0.133110
	19.510000	-0.011594
	19.515000	0.060758
	19.520000	0.212039
	19.525000	0.139687
	19.530000	-0.008305
	19.535000	0.057469
	19.540000	0.208751
	19.545000	0.146265
	19.550000	-0.008305
	19.555000	0.064047
	19.560000	0.221905
	19.565000	0.146265
	19.570000	-0.001728
	19.575000	0.070624
	19.580000	0.225194
	19.585000	0.162708
	19.590000	0.014716
	19.595000	0.090357
	19.600000	0.258081
	19.605000	0.212039
	19.610000	0.077202
	19.615000	0.162708
	19.620000	0.353454
	19.625000	0.327145
	19.630000	0.205462
	19.635000	0.317278
	19.640000	0.514602
	19.645000	0.481715
	19.650000	0.346877
	19.655000	0.432384
	19.660000	0.603397
	19.665000	0.554066
	19.670000	0.406074
	19.675000	0.485003
	19.680000	0.642862
	19.685000	0.586954
	19.690000	0.419229
	19.695000	0.485003
	19.700000	0.636285
	19.705000	0.570510
	19.710000	0.399496
	19.715000	0.458694
	19.720000	0.616552
	19.725000	0.550778
	19.730000	0.376475
	19.735000	0.438961
	19.740000	0.596820
	19.745000	0.527757
	19.750000	0.363321
	19.755000	0.419229
	19.760000	0.577088
	19.765000	0.517891
	19.770000	0.343588
	19.775000	0.406074
	19.780000	0.563933
	19.785000	0.501447
	19.790000	0.333722
	19.795000	0.392919
	19.800000	0.554066
	19.805000	0.494869
	19.810000	0.323856
	19.815000	0.386342
	19.820000	0.547489
	19.825000	0.481715
	19.830000	0.317278
	19.835000	0.379764
	19.840000	0.531045
	19.845000	0.475137
	19.850000	0.307412
	19.855000	0.363321
	19.860000	0.527757
	19.865000	0.465271
	19.870000	0.297546
	19.875000	0.356743
	19.880000	0.521179
	19.885000	0.461982
	19.890000	0.290969
	19.895000	0.350166
	19.900000	0.514602
	19.905000	0.455405
	19.910000	0.287680
	19.915000	0.343588
	19.920000	0.511313
	19.925000	0.445539
	19.930000	0.284391
	19.935000	0.333722
	19.940000	0.498158
	19.945000	0.442250
	19.950000	0.274525
	19.955000	0.333722
	19.960000	0.494869
	19.965000	0.435672
	19.970000	0.267948
	19.975000	0.327145
	19.980000	0.488292
	19.985000	0.432384
	19.990000	0.261370
	19.995000	0.320567
	20.000000	0.488292
	20.005000	0.435672
	20.010000	0.264659
	20.015000	0.310701
	20.020000	0.481715
	20.025000	0.429095
	20.030000	0.258081
	20.035000	0.307412
	20.040000	0.478426
	20.045000	0.422518
	20.050000	0.248215
	20.055000	0.300835
	20.060000	0.471848
	20.065000	0.419229
	20.070000	0.241638
	20.075000	0.297546
	20.080000	0.465271
	20.085000	0.406074
	20.090000	0.235060
	20.095000	0.290969
	20.100000	0.458694
	20.105000	0.406074
	20.110000	0.228483
	20.115000	0.281102
	20.120000	0.448827
	20.125000	0.399496
	20.130000	0.221905
	20.135000	0.267948
	20.140000	0.438961
	20.145000	0.386342
	20.150000	0.208751
	20.155000	0.258081
	20.160000	0.432384
	20.165000	0.379764
	20.170000	0.208751
	20.175000	0.254793
	20.180000	0.422518
	20.185000	0.369898
	20.190000	0.198884
	20.195000	0.241638
	20.200000	0.409363
	20.205000	0.356743
	20.210000	0.185730
	20.215000	0.225194
	20.220000	0.389630
	20.225000	0.343588
	20.230000	0.172575
	20.235000	0.212039
	20.240000	0.379764
	20.245000	0.330433
	20.250000	0.159420
	20.255000	0.205462
	20.260000	0.366609
	20.265000	0.317278
	20.270000	0.146265
	20.275000	0.192307
	20.280000	0.356743
	20.285000	0.307412
	20.290000	0.136399
	20.295000	0.175863
	20.300000	0.343588
	20.305000	0.290969
	20.310000	0.113378
	20.315000	0.149554
	20.320000	0.310701
	20.325000	0.261370
	20.330000	0.077202
	20.335000	0.116666
	20.340000	0.281102
	20.345000	0.221905
	20.350000	0.050892
	20.355000	0.083779
	20.360000	0.244927
	20.365000	0.195596
	20.370000	0.018005
	20.375000	0.044314
	20.380000	0.205462
	20.385000	0.152842
	20.390000	-0.034615
	20.395000	-0.005016
	20.400000	0.149554
	20.405000	0.093645
	20.410000	-0.097101
	20.415000	-0.080657
	20.420000	0.057469
	20.425000	-0.018171
	20.430000	-0.215495
	20.435000	-0.215495
	20.440000	-0.083946
	20.445000	-0.143143
	20.450000	-0.327311
	20.455000	-0.310868
	20.460000	-0.156298
	20.465000	-0.202340
	20.470000	-0.370065
	20.475000	-0.337177
	20.480000	-0.172741
	20.485000	-0.208917
	20.490000	-0.370065
	20.495000	-0.330600
	20.500000	-0.166164
	20.505000	-0.202340
	20.510000	-0.356910
	20.515000	-0.320734
	20.520000	-0.143143
	20.525000	-0.182607
	20.530000	-0.337177
	20.535000	-0.301001
	20.540000	-0.133277
	20.545000	-0.162875
	20.550000	-0.320734
	20.555000	-0.281269
	20.560000	-0.116833
	20.565000	-0.146431
	20.570000	-0.307579
	20.575000	-0.261537
	20.580000	-0.093812
	20.585000	-0.123410
	20.590000	-0.284558
	20.595000	-0.248382
	20.600000	-0.080657
	20.605000	-0.110256
	20.610000	-0.271403
	20.615000	-0.231938
	20.620000	-0.064213
	20.625000	-0.093812
	20.630000	-0.251671
	20.635000	-0.212206
	20.640000	-0.047770
	20.645000	-0.077368
	20.650000	-0.231938
	20.655000	-0.199051
	20.660000	-0.031326
	20.665000	-0.060925
	20.670000	-0.215495
	20.675000	-0.182607
	20.680000	-0.011594
	20.685000	-0.034615
	20.690000	-0.199051
	20.695000	-0.162875
	20.700000	0.001561
	20.705000	-0.024749
	20.710000	-0.185896
	20.715000	-0.146431
	20.720000	0.018005
	20.725000	-0.008305
	20.730000	-0.166164
	20.735000	-0.133277
	20.740000	0.027871
	20.745000	0.011427
	20.750000	-0.153009
	20.755000	-0.123410
	20.760000	0.044314
	20.765000	0.018005
	20.770000	-0.143143
	20.775000	-0.113544
	20.780000	0.054181
	20.785000	0.027871
	20.790000	-0.139854
	20.795000	-0.110256
	20.800000	0.057469
	20.805000	0.031160
	20.810000	-0.129988
	20.815000	-0.106967
	20.820000	0.060758
	20.825000	0.041026
	20.830000	-0.126699
	20.835000	-0.106967
	20.840000	0.060758
	20.845000	0.034448
	20.850000	-0.133277
	20.855000	-0.106967
	20.860000	0.057469
	20.865000	0.031160
	20.870000	-0.133277
	20.875000	-0.106967
	20.880000	0.057469
	20.885000	0.041026
	20.890000	-0.126699
	20.895000	-0.097101
	20.900000	0.067335
	20.905000	0.041026
	20.910000	-0.126699
	20.915000	-0.093812
	20.920000	0.070624
	20.925000	0.050892
	20.930000	-0.113544
	20.935000	-0.093812
	20.940000	0.077202
	20.945000	0.057469
	20.950000	-0.106967
	20.955000	-0.090523
	20.960000	0.077202
	20.965000	0.060758
	20.970000	-0.103678
	20.975000	-0.083946
	20.980000	0.087068
	20.985000	0.060758
	20.990000	-0.103678
	20.995000	-0.080657
	21.000000	0.090357
	21.005000	0.067335
	21.010000	-0.100389
	21.015000	-0.077368
	21.020000	0.087068
	21.025000	0.067335
	21.030000	-0.097101
	21.035000	-0.077368
	21.040000	0.090357
	21.045000	0.073913
	21.050000	-0.093812
	21.055000	-0.080657
	21.060000	0.090357
	21.065000	0.077202
	21.070000	-0.090523
	21.075000	-0.077368
	21.080000	0.087068
	21.085000	0.077202
	21.090000	-0.087234
	21.095000	-0.070791
	21.100000	0.093645
	21.105000	0.080490
	21.110000	-0.080657
	21.115000	-0.064213
	21.120000	0.103511
	21.125000	0.087068
	21.130000	-0.080657
	21.135000	-0.060925
	21.140000	0.103511
	21.145000	0.093645
	21.150000	-0.077368
	21.155000	-0.057636
	21.160000	0.106800
	21.165000	0.093645
	21.170000	-0.070791
	21.175000	-0.054347
	21.180000	0.113378
	21.185000	0.103511
	21.190000	-0.067502
	21.195000	-0.054347
	21.200000	0.116666
	21.205000	0.103511
	21.210000	-0.060925
	21.215000	-0.044481
	21.220000	0.116666
	21.225000	0.103511
	21.230000	-0.057636
	21.235000	-0.044481
	21.240000	0.123244
	21.245000	0.116666
	21.250000	-0.057636
	21.255000	-0.041192
	21.260000	0.126533
	21.265000	0.110089
	21.270000	-0.051059
	21.275000	-0.041192
	21.280000	0.129821
	21.285000	0.119955
	21.290000	-0.051059
	21.295000	-0.034615
	21.300000	0.133110
	21.305000	0.123244
	21.310000	-0.041192
	21.315000	-0.031326
	21.320000	0.129821
	21.325000	0.126533
	21.330000	-0.037904
	21.335000	-0.028037
	21.340000	0.136399
	21.345000	0.123244
	21.350000	-0.034615
	21.355000	-0.024749
	21.360000	0.142976
	21.365000	0.133110
	21.370000	-0.028037
	21.375000	-0.021460
	21.380000	0.142976
	21.385000	0.142976
	21.390000	-0.024749
	21.395000	-0.014883
	21.400000	0.152842
	21.405000	0.142976
	21.410000	-0.018171
	21.415000	-0.014883
	21.420000	0.152842
	21.425000	0.146265
	21.430000	-0.018171
	21.435000	-0.011594
	21.440000	0.156131
	21.445000	0.149554
	21.450000	-0.011594
	21.455000	-0.008305
	21.460000	0.156131
	21.465000	0.156131
	21.470000	-0.011594
	21.475000	-0.011594
	21.480000	0.156131
	21.485000	0.152842
	21.490000	-0.008305
	21.495000	-0.008305
	21.500000	0.162708
	21.505000	0.152842
	21.510000	-0.011594
	21.515000	-0.008305
	21.520000	0.156131
	21.525000	0.156131
	21.530000	-0.011594
	21.535000	-0.008305
	21.540000	0.159420
	21.545000	0.159420
	21.550000	-0.008305
	21.555000	-0.011594
	21.560000	0.159420
	21.565000	0.159420
	21.570000	-0.011594
	21.575000	-0.008305
	21.580000	0.156131
	21.585000	0.156131
	21.590000	-0.014883
	21.595000	-0.008305
	21.600000	0.156131
	21.605000	0.159420
	21.610000	-0.008305
	21.615000	-0.011594
	21.620000	0.159420
	21.625000	0.156131
	21.630000	-0.005016
	21.635000	-0.008305
	21.640000	0.159420
	21.645000	0.162708
	21.650000	-0.008305
	21.655000	-0.011594
	21.660000	0.159420
	21.665000	0.159420
	21.670000	-0.008305
	21.675000	-0.008305
	21.680000	0.159420
	21.685000	0.162708
	21.690000	-0.005016
	21.695000	-0.011594
	21.700000	0.156131
	21.705000	0.162708
	21.710000	-0.005016
	21.715000	-0.005016
	21.720000	0.162708
	21.725000	0.165997
	21.730000	-0.001728
	21.735000	-0.005016
	21.740000	0.162708
	21.745000	0.169286
	21.750000	0.001561
	21.755000	-0.001728
	21.760000	0.169286
	21.765000	0.175863
	21.770000	0.001561
	21.775000	0.001561
	21.780000	0.172575
	21.785000	0.182441
	21.790000	0.018005
	21.795000	0.011427
	21.800000	0.182441
	21.805000	0.198884
	21.810000	0.034448
	21.815000	0.037737
	21.820000	0.212039
	21.825000	0.241638
	21.830000	0.087068
	21.835000	0.106800
	21.840000	0.300835
	21.845000	0.327145
	21.850000	0.189018
	21.855000	0.212039
	21.860000	0.412651
	21.865000	0.455405
	21.870000	0.310701
	21.875000	0.313990
	21.880000	0.504736
	21.885000	0.527757
	21.890000	0.363321
	21.895000	0.363321
	21.900000	0.537623
	21.905000	0.554066
	21.910000	0.389630
	21.915000	0.376475
	21.920000	0.550778
	21.925000	0.557355
	21.930000	0.379764
	21.935000	0.369898
	21.940000	0.531045
	21.945000	0.544200
	21.950000	0.369898
	21.955000	0.343588
	21.960000	0.514602
	21.965000	0.524468
	21.970000	0.350166
	21.975000	0.330433
	21.980000	0.498158
	21.985000	0.511313
	21.990000	0.333722
	21.995000	0.313990
	22.000000	0.485003
	22.005000	0.498158
	22.010000	0.323856
	22.015000	0.307412
	22.020000	0.475137
	22.025000	0.485003
	22.030000	0.310701
	22.035000	0.290969
	22.040000	0.461982
	22.045000	0.471848
	22.050000	0.297546
	22.055000	0.277814
	22.060000	0.452116
	22.065000	0.475137
	22.070000	0.294257
	22.075000	0.277814
	22.080000	0.445539
	22.085000	0.465271
	22.090000	0.290969
	22.095000	0.271236
	22.100000	0.448827
	22.105000	0.468560
	22.110000	0.294257
	22.115000	0.274525
	22.120000	0.445539
	22.125000	0.461982
	22.130000	0.290969
	22.135000	0.271236
	22.140000	0.442250
	22.145000	0.465271
	22.150000	0.287680
	22.155000	0.267948
	22.160000	0.442250
	22.165000	0.465271
	22.170000	0.284391
	22.175000	0.264659
	22.180000	0.435672
	22.185000	0.455405
	22.190000	0.284391
	22.195000	0.261370
	22.200000	0.435672
	22.205000	0.455405
	22.210000	0.277814
	22.215000	0.254793
	22.220000	0.432384
	22.225000	0.452116
	22.230000	0.274525
	22.235000	0.244927
	22.240000	0.422518
	22.245000	0.442250
	22.250000	0.264659
	22.255000	0.238349
	22.260000	0.415940
	22.265000	0.435672
	22.270000	0.261370
	22.275000	0.231772
	22.280000	0.406074
	22.285000	0.432384
	22.290000	0.261370
	22.295000	0.228483
	22.300000	0.402785
	22.305000	0.432384
	22.310000	0.254793
	22.315000	0.225194
	22.320000	0.399496
	22.325000	0.425806
	22.330000	0.248215
	22.335000	0.221905
	22.340000	0.392919
	22.345000	0.419229
	22.350000	0.238349
	22.355000	0.208751
	22.360000	0.386342
	22.365000	0.415940
	22.370000	0.235060
	22.375000	0.208751
	22.380000	0.379764
	22.385000	0.412651
	22.390000	0.231772
	22.395000	0.205462
	22.400000	0.376475
	22.405000	0.406074
	22.410000	0.231772
	22.415000	0.198884
	22.420000	0.366609
	22.425000	0.396208
	22.430000	0.215328
	22.435000	0.185730
	22.440000	0.350166
	22.445000	0.386342
	22.450000	0.198884
	22.455000	0.169286
	22.460000	0.343588
	22.465000	0.369898
	22.470000	0.192307
	22.475000	0.156131
	22.480000	0.320567
	22.485000	0.350166
	22.490000	0.169286
	22.495000	0.133110
	22.500000	0.300835
	22.505000	0.327145
	22.510000	0.146265
	22.515000	0.106800
	22.520000	0.274525
	22.525000	0.287680
	22.530000	0.106800
	22.535000	0.067335
	22.540000	0.221905
	22.545000	0.244927
	22.550000	0.067335
	22.555000	0.018005
	22.560000	0.182441
	22.565000	0.208751
	22.570000	0.027871
	22.575000	-0.024749
	22.580000	0.133110
	22.585000	0.162708
	22.590000	-0.018171
	22.595000	-0.074080
	22.600000	0.080490
	22.605000	0.093645
	22.610000	-0.090523
	22.615000	-0.146431
	22.620000	-0.001728
	22.625000	0.004850
	22.630000	-0.192474
	22.635000	-0.261537
	22.640000	-0.126699
	22.645000	-0.110256
	22.650000	-0.297713
	22.655000	-0.347044
	22.660000	-0.199051
	22.665000	-0.172741
	22.670000	-0.350332
	22.675000	-0.389797
	22.680000	-0.235227
	22.685000	-0.195762
	22.690000	-0.356910
	22.695000	-0.389797
	22.700000	-0.225361
	22.705000	-0.185896
	22.710000	-0.340466
	22.715000	-0.376642
	22.720000	-0.208917
	22.725000	-0.162875
	22.730000	-0.320734
	22.735000	-0.356910
	22.740000	-0.192474
	22.745000	-0.143143
	22.750000	-0.304290
	22.755000	-0.340466
	22.760000	-0.172741
	22.765000	-0.129988
	22.770000	-0.281269
	22.775000	-0.314156
	22.780000	-0.153009
	22.785000	-0.106967
	22.790000	-0.261537
	22.795000	-0.297713
	22.800000	-0.136565
	22.805000	-0.083946
	22.810000	-0.241804
	22.815000	-0.277980
	22.820000	-0.110256
	22.825000	-0.060925
	22.830000	-0.215495
	22.835000	-0.251671
	22.840000	-0.090523
	22.845000	-0.041192
	22.850000	-0.195762
	22.855000	-0.235227
	22.860000	-0.070791
	22.865000	-0.028037
	22.870000	-0.179319
	22.875000	-0.215495
	22.880000	-0.054347
	22.885000	-0.005016
	22.890000	-0.159586
	22.895000	-0.199051
	22.900000	-0.037904
	22.905000	0.004850
	22.910000	-0.143143
	22.915000	-0.185896
	22.920000	-0.021460
	22.925000	0.027871
	22.930000	-0.129988
	22.935000	-0.169453
	22.940000	-0.008305
	22.945000	0.044314
	22.950000	-0.113544
	22.955000	-0.153009
	22.960000	0.011427
	22.965000	0.060758
	22.970000	-0.097101
	22.975000	-0.146431
	22.980000	0.014716
	22.985000	0.070624
	22.990000	-0.090523
	22.995000	-0.126699
	23.000000	0.031160
	23.005000	0.083779
	23.010000	-0.064213
	23.015000	-0.113544
	23.020000	0.044314
	23.025000	0.100223
	23.030000	-0.057636
	23.035000	-0.103678
	23.040000	0.054181
	23.045000	0.110089
	23.050000	-0.044481
	23.055000	-0.093812
	23.060000	0.067335
	23.065000	0.116666
	23.070000	-0.041192
	23.075000	-0.087234
	23.080000	0.070624
	23.085000	0.123244
	23.090000	-0.037904
	23.095000	-0.083946
	23.100000	0.070624
	23.105000	0.123244
	23.110000	-0.037904
	23.115000	-0.087234
	23.120000	0.070624
	23.125000	0.123244
	23.130000	-0.031326
	23.135000	-0.083946
	23.140000	0.073913
	23.145000	0.129821
	23.150000	-0.031326
	23.155000	-0.087234
	23.160000	0.070624
	23.165000	0.129821
	23.170000	-0.031326
	23.175000	-0.080657
	23.180000	0.083779
	23.185000	0.136399
	23.190000	-0.024749
	23.195000	-0.077368
	23.200000	0.080490
	23.205000	0.133110
	23.210000	-0.018171
	23.215000	-0.070791
	23.220000	0.083779
	23.225000	0.142976
	23.230000	-0.014883
	23.235000	-0.067502
	23.240000	0.090357
	23.245000	0.146265
	23.250000	-0.011594
	23.255000	-0.067502
	23.260000	0.093645
	23.265000	0.142976
	23.270000	-0.008305
	23.275000	-0.060925
	23.280000	0.096934
	23.285000	0.156131
	23.290000	-0.001728
	23.295000	-0.060925
	23.300000	0.103511
	23.305000	0.159420
	23.310000	0.001561
	23.315000	-0.057636
	23.320000	0.100223
	23.325000	0.159420
	23.330000	0.001561
	23.335000	-0.057636
	23.340000	0.100223
	23.345000	0.162708
	23.350000	0.001561
	23.355000	-0.054347
	23.360000	0.106800
	23.365000	0.159420
	23.370000	0.008138
	23.375000	-0.054347
	23.380000	0.106800
	23.385000	0.165997
	23.390000	0.008138
	23.395000	-0.051059
	23.400000	0.103511
	23.405000	0.169286
	23.410000	0.011427
	23.415000	-0.047770
	23.420000	0.106800
	23.425000	0.169286
	23.430000	0.011427
	23.435000	-0.044481
	23.440000	0.113378
	23.445000	0.175863
	23.450000	0.018005
	23.455000	-0.044481
	23.460000	0.113378
	23.465000	0.175863
	23.470000	0.021293
	23.475000	-0.037904
	23.480000	0.116666
	23.485000	0.182441
	23.490000	0.027871
	23.495000	-0.031326
	23.500000	0.123244
	23.505000	0.182441
	23.510000	0.031160
	23.515000	-0.031326
	23.520000	0.126533
	23.525000	0.189018
	23.530000	0.034448
	23.535000	-0.024749
	23.540000	0.126533
	23.545000	0.195596
	23.550000	0.041026
	23.555000	-0.021460
	23.560000	0.129821
	23.565000	0.202173
	23.570000	0.047603
	23.575000	-0.018171
	23.580000	0.139687
	23.585000	0.202173
	23.590000	0.054181
	23.595000	-0.014883
	23.600000	0.139687
	23.605000	0.212039
	23.610000	0.057469
	23.615000	-0.011594
	23.620000	0.142976
	23.625000	0.215328
	23.630000	0.060758
	23.635000	-0.005016
	23.640000	0.149554
	23.645000	0.215328
	23.650000	0.064047
	23.655000	-0.001728
	23.660000	0.149554
	23.665000	0.215328
	23.670000	0.067335
	23.675000	-0.005016
	23.680000	0.156131
	23.685000	0.221905
	23.690000	0.067335
	23.695000	-0.001728
	23.700000	0.156131
	23.705000	0.225194
	23.710000	0.070624
	23.715000	-0.001728
	23.720000	0.152842
	23.725000	0.221905
	23.730000	0.077202
	23.735000	0.001561
	23.740000	0.152842
	23.745000	0.221905
	23.750000	0.070624
	23.755000	0.001561
	23.760000	0.152842
	23.765000	0.221905
	23.770000	0.070624
	23.775000	-0.001728
	23.780000	0.149554
	23.785000	0.221905
	23.790000	0.070624
	23.795000	-0.008305
	23.800000	0.142976
	23.805000	0.218617
	23.810000	0.070624
	23.815000	-0.008305
	23.820000	0.142976
	23.825000	0.218617
	23.830000	0.067335
	23.835000	-0.011594
	23.840000	0.146265
	23.845000	0.215328
	23.850000	0.070624
	23.855000	-0.005016
	23.860000	0.142976
	23.865000	0.218617
	23.870000	0.067335
	23.875000	-0.011594
	23.880000	0.139687
	23.885000	0.215328
	23.890000	0.064047
	23.895000	-0.011594
	23.900000	0.136399
	23.905000	0.215328
	23.910000	0.064047
	23.915000	-0.011594
	23.920000	0.133110
	23.925000	0.215328
	23.930000	0.060758
	23.935000	-0.018171
	23.940000	0.133110
	23.945000	0.215328
	23.950000	0.060758
	23.955000	-0.018171
	23.960000	0.133110
	23.965000	0.215328
	23.970000	0.064047
	23.975000	-0.014883
	23.980000	0.126533
	23.985000	0.205462
	23.990000	0.060758
	23.995000	-0.018171
	24.000000	0.129821
	24.005000	0.212039
	24.010000	0.064047
	24.015000	-0.014883
	24.020000	0.129821
	24.025000	0.205462
	24.030000	0.060758
	24.035000	-0.014883
	24.040000	0.136399
	24.045000	0.215328
	24.050000	0.067335
	24.055000	-0.014883
	24.060000	0.136399
	24.065000	0.218617
	24.070000	0.073913
	24.075000	-0.005016
	24.080000	0.146265
	24.085000	0.238349
	24.090000	0.096934
	24.095000	0.024582
	24.100000	0.189018
	24.105000	0.297546
	24.110000	0.202173
	24.115000	0.175863
	24.120000	0.392919
	24.125000	0.534334
	24.130000	0.429095
	24.135000	0.363321
	24.140000	0.524468
	24.145000	0.613263
	24.150000	0.478426
	24.155000	0.396208
	24.160000	0.540912
	24.165000	0.632996
	24.170000	0.478426
	24.175000	0.386342
	24.180000	0.537623
	24.185000	0.623130
	24.190000	0.471848
	24.195000	0.376475
	24.200000	0.534334
	24.205000	0.616552
	24.210000	0.465271
	24.215000	0.376475
	24.220000	0.521179
	24.225000	0.613263
	24.230000	0.465271
	24.235000	0.360032
	24.240000	0.511313
	24.245000	0.596820
	24.250000	0.445539
	24.255000	0.350166
	24.260000	0.501447
	24.265000	0.600109
	24.270000	0.445539
	24.275000	0.343588
	24.280000	0.501447
	24.285000	0.596820
	24.290000	0.445539
	24.295000	0.350166
	24.300000	0.511313
	24.305000	0.609975
	24.310000	0.455405
	24.315000	0.353454
	24.320000	0.514602
	24.325000	0.603397
	24.330000	0.448827
	24.335000	0.346877
	24.340000	0.501447
	24.345000	0.600109
	24.350000	0.438961
	24.355000	0.337011
	24.360000	0.491581
	24.365000	0.593531
	24.370000	0.438961
	24.375000	0.330433
	24.380000	0.485003
	24.385000	0.590242
	24.390000	0.429095
	24.395000	0.327145
	24.400000	0.485003
	24.405000	0.586954
	24.410000	0.425806
	24.415000	0.317278
	24.420000	0.481715
	24.425000	0.590242
	24.430000	0.429095
	24.435000	0.320567
	24.440000	0.485003
	24.445000	0.583665
	24.450000	0.422518
	24.455000	0.310701
	24.460000	0.468560
	24.465000	0.567221
	24.470000	0.406074
	24.475000	0.287680
	24.480000	0.438961
	24.485000	0.540912
	24.490000	0.379764
	24.495000	0.254793
	24.500000	0.412651
	24.505000	0.508024
	24.510000	0.350166
	24.515000	0.225194
	24.520000	0.379764
	24.525000	0.478426
	24.530000	0.320567
	24.535000	0.208751
	24.540000	0.353454
	24.545000	0.458694
	24.550000	0.294257
	24.555000	0.189018
	24.560000	0.337011
	24.565000	0.445539
	24.570000	0.307412
	24.575000	0.212039
	24.580000	0.376475
	24.585000	0.501447
	24.590000	0.379764
	24.595000	0.294257
	24.600000	0.461982
	24.605000	0.577088
	24.610000	0.435672
	24.615000	0.327145
	24.620000	0.452116
	24.625000	0.537623
	24.630000	0.376475
	24.635000	0.254793
	24.640000	0.386342
	24.645000	0.471848
	24.650000	0.320567
	24.655000	0.202173
	24.660000	0.327145
	24.665000	0.412651
	24.670000	0.261370
	24.675000	0.136399
	24.680000	0.258081
	24.685000	0.343588
	24.690000	0.182441
	24.695000	0.054181
	24.700000	0.169286
	24.705000	0.241638
	24.710000	0.067335
	24.715000	-0.077368
	24.720000	0.018005
	24.725000	0.067335
	24.730000	-0.123410
	24.735000	-0.274692
	24.740000	-0.185896
	24.745000	-0.116833
	24.750000	-0.277980
	24.755000	-0.399663
	24.760000	-0.277980
	24.765000	-0.179319
	24.770000	-0.314156
	24.775000	-0.416107
	24.780000	-0.277980
	24.785000	-0.172741
	24.790000	-0.297713
	24.795000	-0.393086
	24.800000	-0.251671
	24.805000	-0.146431
	24.810000	-0.271403
	24.815000	-0.363487
	24.820000	-0.231938
	24.825000	-0.120122
	24.830000	-0.245093
	24.835000	-0.340466
	24.840000	-0.208917
	24.845000	-0.100389
	24.850000	-0.218783
	24.855000	-0.317445
	24.860000	-0.182607
	24.865000	-0.074080
	24.870000	-0.195762
	24.875000	-0.297713
	24.880000	-0.159586
	24.885000	-0.051059
	24.890000	-0.172741
	24.895000	-0.277980
	24.900000	-0.139854
	24.905000	-0.028037
	24.910000	-0.153009
	24.915000	-0.261537
	24.920000	-0.126699
	24.925000	-0.014883
	24.930000	-0.143143
	24.935000	-0.241804
	24.940000	-0.106967
	24.945000	0.004850
	24.950000	-0.129988
	24.955000	-0.222072
	24.960000	-0.093812
	24.965000	0.021293
	24.970000	-0.106967
	24.975000	-0.208917
	24.980000	-0.070791
	24.985000	0.037737
	24.990000	-0.090523
	24.995000	-0.189185
	25.000000	-0.054347
	25.005000	0.054181
	25.010000	-0.074080
	25.015000	-0.172741
	25.020000	-0.041192
	25.025000	0.077202
	25.030000	-0.051059
	25.035000	-0.156298
	25.040000	-0.024749
	25.045000	0.087068
	25.050000	-0.037904
	25.055000	-0.136565
	25.060000	-0.008305
	25.065000	0.106800
	25.070000	-0.018171
	25.075000	-0.120122
	25.080000	0.008138
	25.085000	0.123244
	25.090000	0.001561
	25.095000	-0.106967
	25.100000	0.024582
	25.105000	0.139687
	25.110000	0.014716
	25.115000	-0.090523
	25.120000	0.034448
	25.125000	0.152842
	25.130000	0.031160
	25.135000	-0.080657
	25.140000	0.050892
	25.145000	0.162708
	25.150000	0.041026
	25.155000	-0.070791
	25.160000	0.054181
	25.165000	0.169286
	25.170000	0.047603
	25.175000	-0.060925
	25.180000	0.064047
	25.185000	0.179152
	25.190000	0.057469
	25.195000	-0.054347
	25.200000	0.067335
	25.205000	0.185730
	25.210000	0.060758
	25.215000	-0.051059
	25.220000	0.073913
	25.225000	0.189018
	25.230000	0.067335
	25.235000	-0.047770
	25.240000	0.077202
	25.245000	0.192307
	25.250000	0.073913
	25.255000	-0.041192
	25.260000	0.080490
	25.265000	0.195596
	25.270000	0.080490
	25.275000	-0.041192
	25.280000	0.083779
	25.285000	0.198884
	25.290000	0.080490
	25.295000	-0.034615
	25.300000	0.090357
	25.305000	0.198884
	25.310000	0.087068
	25.315000	-0.031326
	25.320000	0.087068
	25.325000	0.205462
	25.330000	0.087068
	25.335000	-0.034615
	25.340000	0.087068
	25.345000	0.205462
	25.350000	0.083779
	25.355000	-0.034615
	25.360000	0.087068
	25.365000	0.202173
	25.370000	0.087068
	25.375000	-0.031326
	25.380000	0.087068
	25.385000	0.208751
	25.390000	0.087068
	25.395000	-0.031326
	25.400000	0.083779
	25.405000	0.202173
	25.410000	0.090357
	25.415000	-0.028037
	25.420000	0.090357
	25.425000	0.215328
	25.430000	0.096934
	25.435000	-0.024749
	25.440000	0.090357
	25.445000	0.212039
	25.450000	0.096934
	25.455000	-0.021460
	25.460000	0.093645
	25.465000	0.212039
	25.470000	0.100223
	25.475000	-0.028037
	25.480000	0.090357
	25.485000	0.212039
	25.490000	0.096934
	25.495000	-0.021460
	25.500000	0.093645
	25.505000	0.215328
	25.510000	0.096934
	25.515000	-0.018171
	25.520000	0.096934
	25.525000	0.215328
	25.530000	0.103511
	25.535000	-0.018171
	25.540000	0.096934
	25.545000	0.218617
	25.550000	0.110089
	25.555000	-0.014883
	25.560000	0.096934
	25.565000	0.221905
	25.570000	0.106800
	25.575000	-0.018171
	25.580000	0.100223
	25.585000	0.221905
	25.590000	0.110089
	25.595000	-0.014883
	25.600000	0.100223
	25.605000	0.228483
	25.610000	0.116666
	25.615000	-0.011594
	25.620000	0.106800
	25.625000	0.225194
	25.630000	0.116666
	25.635000	-0.005016
	25.640000	0.106800
	25.645000	0.231772
	25.650000	0.126533
	25.655000	-0.001728
	25.660000	0.116666
	25.665000	0.238349
	25.670000	0.123244
	25.675000	-0.001728
	25.680000	0.113378
	25.685000	0.241638
	25.690000	0.129821
	25.695000	0.004850
	25.700000	0.116666
	25.705000	0.241638
	25.710000	0.133110
	25.715000	0.011427
	25.720000	0.119955
	25.725000	0.248215
	25.730000	0.136399
	25.735000	0.011427
	25.740000	0.123244
	25.745000	0.251504
	25.750000	0.139687
	25.755000	0.021293
	25.760000	0.129821
	25.765000	0.254793
	25.770000	0.152842
	25.775000	0.021293
	25.780000	0.133110
	25.785000	0.261370
	25.790000	0.156131
	25.795000	0.031160
	25.800000	0.139687
	25.805000	0.264659
	25.810000	0.159420
	25.815000	0.031160
	25.820000	0.139687
	25.825000	0.271236
	25.830000	0.162708
	25.835000	0.037737
	25.840000	0.142976
	25.845000	0.274525
	25.850000	0.162708
	25.855000	0.037737
	25.860000	0.142976
	25.865000	0.274525
	25.870000	0.172575
	25.875000	0.041026
	25.880000	0.146265
	25.885000	0.274525
	25.890000	0.169286
	25.895000	0.037737
	25.900000	0.146265
	25.905000	0.277814
	25.910000	0.169286
	25.915000	0.041026
	25.920000	0.142976
	25.925000	0.277814
	25.930000	0.169286
	25.935000	0.041026
	25.940000	0.146265
	25.945000	0.277814
	25.950000	0.169286
	25.955000	0.037737
	25.960000	0.139687
	25.965000	0.281102
	25.970000	0.172575
	25.975000	0.037737
	25.980000	0.142976
	25.985000	0.274525
	25.990000	0.169286
	25.995000	0.034448
	26.000000	0.146265
	26.005000	0.274525
	26.010000	0.169286
	26.015000	0.037737
	26.020000	0.139687
	26.025000	0.277814
	26.030000	0.172575
	26.035000	0.037737
	26.040000	0.136399
	26.045000	0.274525
	26.050000	0.175863
	26.055000	0.034448
	26.060000	0.142976
	26.065000	0.274525
	26.070000	0.172575
	26.075000	0.037737
	26.080000	0.139687
	26.085000	0.274525
	26.090000	0.175863
	26.095000	0.037737
	26.100000	0.142976
	26.105000	0.267948
	26.110000	0.172575
	26.115000	0.037737
	26.120000	0.136399
	26.125000	0.274525
	26.130000	0.172575
	26.135000	0.041026
	26.140000	0.136399
	26.145000	0.271236
	26.150000	0.175863
	26.155000	0.041026
	26.160000	0.136399
	26.165000	0.274525
	26.170000	0.175863
	26.175000	0.041026
	26.180000	0.139687
	26.185000	0.277814
	26.190000	0.179152
	26.195000	0.041026
	26.200000	0.139687
	26.205000	0.277814
	26.210000	0.182441
	26.215000	0.044314
	26.220000	0.142976
	26.225000	0.277814
	26.230000	0.179152
	26.235000	0.047603
	26.240000	0.142976
	26.245000	0.281102
	26.250000	0.185730
	26.255000	0.050892
	26.260000	0.146265
	26.265000	0.284391
	26.270000	0.185730
	26.275000	0.054181
	26.280000	0.139687
	26.285000	0.284391
	26.290000	0.189018
	26.295000	0.050892
	26.300000	0.146265
	26.305000	0.287680
	26.310000	0.192307
	26.315000	0.054181
	26.320000	0.142976
	26.325000	0.287680
	26.330000	0.192307
	26.335000	0.050892
	26.340000	0.152842
	26.345000	0.297546
	26.350000	0.198884
	26.355000	0.047603
	26.360000	0.149554
	26.365000	0.284391
	26.370000	0.195596
	26.375000	0.057469
	26.380000	0.152842
	26.385000	0.290969
	26.390000	0.195596
	26.395000	0.057469
	26.400000	0.156131
	26.405000	0.294257
	26.410000	0.198884
	26.415000	0.060758
	26.420000	0.152842
	26.425000	0.297546
	26.430000	0.205462
	26.435000	0.060758
	26.440000	0.152842
	26.445000	0.300835
	26.450000	0.208751
	26.455000	0.070624
	26.460000	0.156131
	26.465000	0.300835
	26.470000	0.208751
	26.475000	0.070624
	26.480000	0.156131
	26.485000	0.300835
	26.490000	0.212039
	26.495000	0.064047
	26.500000	0.156131
	26.505000	0.300835
	26.510000	0.212039
	26.515000	0.064047
	26.520000	0.159420
	26.525000	0.300835
	26.530000	0.212039
	26.535000	0.067335
	26.540000	0.156131
	26.545000	0.297546
	26.550000	0.218617
	26.555000	0.070624
	26.560000	0.156131
	26.565000	0.300835
	26.570000	0.215328
	26.575000	0.070624
	26.580000	0.152842
	26.585000	0.300835
	26.590000	0.208751
	26.595000	0.064047
	26.600000	0.156131
	26.605000	0.307412
	26.610000	0.215328
	26.615000	0.067335
	26.620000	0.152842
	26.625000	0.297546
	26.630000	0.212039
	26.635000	0.067335
	26.640000	0.152842
	26.645000	0.297546
	26.650000	0.221905
	26.655000	0.070624
	26.660000	0.156131
	26.665000	0.304124
	26.670000	0.221905
	26.675000	0.073913
	26.680000	0.162708
	26.685000	0.317278
	26.690000	0.228483
	26.695000	0.083779
	26.700000	0.165997
	26.705000	0.327145
	26.710000	0.244927
	26.715000	0.106800
	26.720000	0.192307
	26.725000	0.343588
	26.730000	0.274525
	26.735000	0.133110
	26.740000	0.228483
	26.745000	0.389630
	26.750000	0.313990
	26.755000	0.175863
	26.760000	0.261370
	26.765000	0.415940
	26.770000	0.343588
	26.775000	0.208751
	26.780000	0.300835
	26.785000	0.461982
	26.790000	0.399496
	26.795000	0.267948
	26.800000	0.366609
	26.805000	0.544200
	26.810000	0.491581
	26.815000	0.363321
	26.820000	0.465271
	26.825000	0.639573
	26.830000	0.577088
	26.835000	0.445539
	26.840000	0.531045
	26.845000	0.702059
	26.850000	0.642862
	26.855000	0.491581
	26.860000	0.586954
	26.865000	0.741524
	26.870000	0.665883
	26.875000	0.514602
	26.880000	0.590242
	26.885000	0.741524
	26.890000	0.662594
	26.895000	0.498158
	26.900000	0.567221
	26.905000	0.721791
	26.910000	0.639573
	26.915000	0.475137
	26.920000	0.540912
	26.925000	0.698770
	26.930000	0.609975
	26.935000	0.452116
	26.940000	0.517891
	26.945000	0.669172
	26.950000	0.586954
	26.955000	0.422518
	26.960000	0.498158
	26.965000	0.646151
	26.970000	0.573799
	26.975000	0.406074
	26.980000	0.475137
	26.985000	0.629707
	26.990000	0.547489
	26.995000	0.379764
	27.000000	0.452116
	27.005000	0.606686
	27.010000	0.524468
	27.015000	0.360032
	27.020000	0.432384
	27.025000	0.583665
	27.030000	0.504736
	27.035000	0.340299
	27.040000	0.409363
	27.045000	0.570510
	27.050000	0.491581
	27.055000	0.330433
	27.060000	0.396208
	27.065000	0.554066
	27.070000	0.481715
	27.075000	0.313990
	27.080000	0.379764
	27.085000	0.537623
	27.090000	0.465271
	27.095000	0.300835
	27.100000	0.366609
	27.105000	0.524468
	27.110000	0.455405
	27.115000	0.290969
	27.120000	0.356743
	27.125000	0.524468
	27.130000	0.445539
	27.135000	0.281102
	27.140000	0.356743
	27.145000	0.514602
	27.150000	0.445539
	27.155000	0.281102
	27.160000	0.350166
	27.165000	0.511313
	27.170000	0.442250
	27.175000	0.277814
	27.180000	0.343588
	27.185000	0.501447
	27.190000	0.432384
	27.195000	0.267948
	27.200000	0.337011
	27.205000	0.498158
	27.210000	0.429095
	27.215000	0.261370
	27.220000	0.330433
	27.225000	0.494869
	27.230000	0.415940
	27.235000	0.251504
	27.240000	0.320567
	27.245000	0.485003
	27.250000	0.412651
	27.255000	0.251504
	27.260000	0.310701
	27.265000	0.475137
	27.270000	0.406074
	27.275000	0.238349
	27.280000	0.307412
	27.285000	0.468560
	27.290000	0.399496
	27.295000	0.231772
	27.300000	0.294257
	27.305000	0.458694
	27.310000	0.392919
	27.315000	0.228483
	27.320000	0.290969
	27.325000	0.455405
	27.330000	0.386342
	27.335000	0.225194
	27.340000	0.287680
	27.345000	0.455405
	27.350000	0.396208
	27.355000	0.225194
	27.360000	0.287680
	27.365000	0.452116
	27.370000	0.392919
	27.375000	0.228483
	27.380000	0.290969
	27.385000	0.458694
	27.390000	0.392919
	27.395000	0.228483
	27.400000	0.290969
	27.405000	0.448827
	27.410000	0.389630
	27.415000	0.228483
	27.420000	0.281102
	27.425000	0.442250
	27.430000	0.379764
	27.435000	0.215328
	27.440000	0.274525
	27.445000	0.429095
	27.450000	0.363321
	27.455000	0.185730
	27.460000	0.231772
	27.465000	0.379764
	27.470000	0.304124
	27.475000	0.126533
	27.480000	0.169286
	27.485000	0.310701
	27.490000	0.225194
	27.495000	0.044314
	27.500000	0.070624
	27.505000	0.202173
	27.510000	0.106800
	27.515000	-0.100389
	27.520000	-0.093812
	27.525000	0.004850
	27.530000	-0.113544
	27.535000	-0.324023
	27.540000	-0.310868
	27.545000	-0.176030
	27.550000	-0.245093
	27.555000	-0.416107
	27.560000	-0.370065
	27.565000	-0.218783
	27.570000	-0.264826
	27.575000	-0.416107
	27.580000	-0.366776
	27.585000	-0.192474
	27.590000	-0.241804
	27.595000	-0.396374
	27.600000	-0.337177
	27.605000	-0.179319
	27.610000	-0.218783
	27.615000	-0.366776
	27.620000	-0.314156
	27.625000	-0.153009
	27.630000	-0.192474
	27.635000	-0.343755
	27.640000	-0.287847
	27.645000	-0.120122
	27.650000	-0.166164
	27.655000	-0.320734
	27.660000	-0.264826
	27.665000	-0.103678
	27.670000	-0.143143
	27.675000	-0.297713
	27.680000	-0.248382
	27.685000	-0.080657
	27.690000	-0.123410
	27.695000	-0.274692
	27.700000	-0.225361
	27.705000	-0.054347
	27.710000	-0.100389
	27.715000	-0.254959
	27.720000	-0.202340
	27.725000	-0.041192
	27.730000	-0.083946
	27.735000	-0.235227
	27.740000	-0.189185
	27.745000	-0.021460
	27.750000	-0.067502
	27.755000	-0.215495
	27.760000	-0.159586
	27.765000	-0.001728
	27.770000	-0.034615
	27.775000	-0.199051
	27.780000	-0.143143
	27.785000	0.021293
	27.790000	-0.018171
	27.795000	-0.176030
	27.800000	-0.129988
	27.805000	0.037737
	27.810000	-0.001728
	27.815000	-0.156298
	27.820000	-0.110256
	27.825000	0.054181
	27.830000	0.011427
	27.835000	-0.143143
	27.840000	-0.090523
	27.845000	0.070624
	27.850000	0.034448
	27.855000	-0.123410
	27.860000	-0.077368
	27.865000	0.090357
	27.870000	0.044314
	27.875000	-0.106967
	27.880000	-0.067502
	27.885000	0.100223
	27.890000	0.064047
	27.895000	-0.097101
	27.900000	-0.054347
	27.905000	0.110089
	27.910000	0.073913
	27.915000	-0.087234
	27.920000	-0.044481
	27.925000	0.123244
	27.930000	0.077202
	27.935000	-0.080657
	27.940000	-0.037904
	27.945000	0.129821
	27.950000	0.087068
	27.955000	-0.074080
	27.960000	-0.028037
	27.965000	0.129821
	27.970000	0.090357
	27.975000	-0.067502
	27.980000	-0.024749
	27.985000	0.136399
	27.990000	0.096934
	27.995000	-0.060925
	28.000000	-0.024749
	28.005000	0.142976
	28.010000	0.103511
	28.015000	-0.057636
	28.020000	-0.018171
	28.025000	0.142976
	28.030000	0.103511
	28.035000	-0.051059
	28.040000	-0.014883
	28.045000	0.146265
	28.050000	0.110089
	28.055000	-0.051059
	28.060000	-0.018171
	28.065000	0.146265
	28.070000	0.113378
	28.075000	-0.051059
	28.080000	-0.011594
	28.085000	0.149554
	28.090000	0.110089
	28.095000	-0.044481
	28.100000	-0.011594
	28.105000	0.149554
	28.110000	0.113378
	28.115000	-0.047770
	28.120000	-0.011594
	28.125000	0.149554
	28.130000	0.116666
	28.135000	-0.044481
	28.140000	-0.011594
	28.145000	0.149554
	28.150000	0.119955
	28.155000	-0.041192
	28.160000	-0.011594
	28.165000	0.152842
	28.170000	0.116666
	28.175000	-0.041192
	28.180000	-0.011594
	28.185000	0.149554
	28.190000	0.116666
	28.195000	-0.044481
	28.200000	-0.008305
	28.205000	0.149554
	28.210000	0.119955
	28.215000	-0.037904
	28.220000	-0.005016
	28.225000	0.159420
	28.230000	0.129821
	28.235000	-0.034615
	28.240000	-0.005016
	28.245000	0.159420
	28.250000	0.133110
	28.255000	-0.028037
	28.260000	-0.001728
	28.265000	0.162708
	28.270000	0.136399
	28.275000	-0.028037
	28.280000	0.001561
	28.285000	0.169286
	28.290000	0.136399
	28.295000	-0.024749
	28.300000	0.008138
	28.305000	0.169286
	28.310000	0.139687
	28.315000	-0.021460
	28.320000	0.011427
	28.325000	0.175863
	28.330000	0.146265
	28.335000	-0.018171
	28.340000	0.011427
	28.345000	0.179152
	28.350000	0.146265
	28.355000	-0.011594
	28.360000	0.018005
	28.365000	0.175863
	28.370000	0.156131
	28.375000	-0.011594
	28.380000	0.018005
	28.385000	0.182441
	28.390000	0.159420
	28.395000	-0.001728
	28.400000	0.021293
	28.405000	0.182441
	28.410000	0.162708
	28.415000	-0.001728
	28.420000	0.021293
	28.425000	0.192307
	28.430000	0.165997
	28.435000	0.001561
	28.440000	0.024582
	28.445000	0.189018
	28.450000	0.165997
	28.455000	0.004850
	28.460000	0.027871
	28.465000	0.192307
	28.470000	0.169286
	28.475000	0.004850
	28.480000	0.031160
	28.485000	0.192307
	28.490000	0.175863
	28.495000	0.011427
	28.500000	0.031160
	28.505000	0.202173
	28.510000	0.175863
	28.515000	0.014716
	28.520000	0.034448
	28.525000	0.202173
	28.530000	0.182441
	28.535000	0.011427
	28.540000	0.037737
	28.545000	0.205462
	28.550000	0.179152
	28.555000	0.021293
	28.560000	0.037737
	28.565000	0.208751
	28.570000	0.185730
	28.575000	0.021293
	28.580000	0.044314
	28.585000	0.208751
	28.590000	0.189018
	28.595000	0.021293
	28.600000	0.044314
	28.605000	0.215328
	28.610000	0.195596
	28.615000	0.031160
	28.620000	0.044314
	28.625000	0.212039
	28.630000	0.192307
	28.635000	0.031160
	28.640000	0.044314
	28.645000	0.215328
	28.650000	0.195596
	28.655000	0.027871
	28.660000	0.050892
	28.665000	0.218617
	28.670000	0.195596
	28.675000	0.034448
	28.680000	0.054181
	28.685000	0.215328
	28.690000	0.195596
	28.695000	0.034448
	28.700000	0.050892
	28.705000	0.218617
	28.710000	0.202173
	28.715000	0.034448
	28.720000	0.050892
	28.725000	0.215328
	28.730000	0.205462
	28.735000	0.031160
	28.740000	0.050892
	28.745000	0.215328
	28.750000	0.202173
	28.755000	0.031160
	28.760000	0.050892
	28.765000	0.215328
	28.770000	0.202173
	28.775000	0.037737
	28.780000	0.047603
	28.785000	0.215328
	28.790000	0.202173
	28.795000	0.037737
	28.800000	0.047603
	28.805000	0.218617
	28.810000	0.202173
	28.815000	0.037737
	28.820000	0.044314
	28.825000	0.212039
	28.830000	0.205462
	28.835000	0.034448
	28.840000	0.050892
	28.845000	0.218617
	28.850000	0.205462
	28.855000	0.041026
	28.860000	0.047603
	28.865000	0.208751
	28.870000	0.205462
	28.875000	0.041026
	28.880000	0.050892
	28.885000	0.208751
	28.890000	0.202173
	28.895000	0.034448
	28.900000	0.044314
	28.905000	0.212039
	28.910000	0.208751
	28.915000	0.034448
	28.920000	0.041026
	28.925000	0.208751
	28.930000	0.208751
	28.935000	0.037737
	28.940000	0.044314
	28.945000	0.208751
	28.950000	0.208751
	28.955000	0.034448
	28.960000	0.044314
	28.965000	0.208751
	28.970000	0.202173
	28.975000	0.037737
	28.980000	0.044314
	28.985000	0.212039
	28.990000	0.208751
	28.995000	0.041026
	29.000000	0.044314
	29.005000	0.205462
	29.010000	0.208751
	29.015000	0.041026
	29.020000	0.047603
	29.025000	0.215328
	29.030000	0.212039
	29.035000	0.044314
	29.040000	0.047603
	29.045000	0.215328
	29.050000	0.215328
	29.055000	0.044314
	29.060000	0.047603
	29.065000	0.218617
	29.070000	0.218617
	29.075000	0.047603
	29.080000	0.054181
	29.085000	0.221905
	29.090000	0.218617
	29.095000	0.050892
	29.100000	0.050892
	29.105000	0.221905
	29.110000	0.218617
	29.115000	0.050892
	29.120000	0.054181
	29.125000	0.225194
	29.130000	0.221905
	29.135000	0.057469
	29.140000	0.057469
	29.145000	0.221905
	29.150000	0.225194
	29.155000	0.057469
	29.160000	0.060758
	29.165000	0.228483
	29.170000	0.225194
	29.175000	0.060758
	29.180000	0.057469
	29.185000	0.228483
	29.190000	0.228483
	29.195000	0.067335
	29.200000	0.060758
	29.205000	0.228483
	29.210000	0.228483
	29.215000	0.064047
	29.220000	0.064047
	29.225000	0.231772
	29.230000	0.235060
	29.235000	0.070624
	29.240000	0.064047
	29.245000	0.235060
	29.250000	0.235060
	29.255000	0.064047
	29.260000	0.067335
	29.265000	0.235060
	29.270000	0.231772
	29.275000	0.070624
	29.280000	0.067335
	29.285000	0.228483
	29.290000	0.235060
	29.295000	0.067335
	29.300000	0.060758
	29.305000	0.228483
	29.310000	0.238349
	29.315000	0.070624
	29.320000	0.064047
	29.325000	0.228483
	29.330000	0.235060
	29.335000	0.070624
	29.340000	0.064047
	29.345000	0.225194
	29.350000	0.231772
	29.355000	0.070624
	29.360000	0.060758
	29.365000	0.225194
	29.370000	0.238349
	29.375000	0.067335
	29.380000	0.064047
	29.385000	0.228483
	29.390000	0.235060
	29.395000	0.070624
	29.400000	0.060758
	29.405000	0.228483
	29.410000	0.235060
	29.415000	0.064047
	29.420000	0.054181
	29.425000	0.221905
	29.430000	0.231772
	29.435000	0.064047
	29.440000	0.057469
	29.445000	0.221905
	29.450000	0.235060
	29.455000	0.064047
	29.460000	0.054181
	29.465000	0.218617
	29.470000	0.231772
	29.475000	0.064047
	29.480000	0.050892
	29.485000	0.221905
	29.490000	0.235060
	29.495000	0.064047
	29.500000	0.054181
	29.505000	0.218617
	29.510000	0.231772
	29.515000	0.064047
	29.520000	0.050892
	29.525000	0.218617
	29.530000	0.235060
	29.535000	0.064047
	29.540000	0.054181
	29.545000	0.215328
	29.550000	0.228483
	29.555000	0.067335
	29.560000	0.050892
	29.565000	0.215328
	29.570000	0.228483
	29.575000	0.064047
	29.580000	0.044314
	29.585000	0.212039
	29.590000	0.228483
	29.595000	0.064047
	29.600000	0.050892
	29.605000	0.215328
	29.610000	0.228483
	29.615000	0.064047
	29.620000	0.044314
	29.625000	0.208751
	29.630000	0.228483
	29.635000	0.067335
	29.640000	0.044314
	29.645000	0.208751
	29.650000	0.231772
	29.655000	0.067335
	29.660000	0.044314
	29.665000	0.215328
	29.670000	0.231772
	29.675000	0.064047
	29.680000	0.047603
	29.685000	0.212039
	29.690000	0.228483
	29.695000	0.060758
	29.700000	0.044314
	29.705000	0.208751
	29.710000	0.228483
	29.715000	0.064047
	29.720000	0.050892
	29.725000	0.208751
	29.730000	0.231772
	29.735000	0.070624
	29.740000	0.047603
	29.745000	0.212039
	29.750000	0.238349
	29.755000	0.070624
	29.760000	0.054181
	29.765000	0.215328
	29.770000	0.238349
	29.775000	0.070624
	29.780000	0.050892
	29.785000	0.212039
	29.790000	0.238349
	29.795000	0.073913
	29.800000	0.050892
	29.805000	0.212039
	29.810000	0.241638
	29.815000	0.077202
	29.820000	0.047603
	29.825000	0.218617
	29.830000	0.241638
	29.835000	0.077202
	29.840000	0.050892
	29.845000	0.221905
	29.850000	0.254793
	29.855000	0.093645
	29.860000	0.070624
	29.865000	0.248215
	29.870000	0.287680
	29.875000	0.136399
	29.880000	0.129821
	29.885000	0.304124
	29.890000	0.353454
	29.895000	0.198884
	29.900000	0.189018
	29.905000	0.376475
	29.910000	0.425806
	29.915000	0.281102
	29.920000	0.274525
	29.925000	0.461982
	29.930000	0.508024
	29.935000	0.366609
	29.940000	0.350166
	29.945000	0.527757
	29.950000	0.577088
	29.955000	0.415940
	29.960000	0.392919
	29.965000	0.567221
	29.970000	0.606686
	29.975000	0.438961
	29.980000	0.412651
	29.985000	0.573799
	29.990000	0.609975
	29.995000	0.442250
	30.000000	0.409363
	30.005000	0.577088
	30.010000	0.600109
	30.015000	0.432384
	30.020000	0.399496
	30.025000	0.563933
	30.030000	0.593531
	30.035000	0.422518
	30.040000	0.383053
	30.045000	0.550778
	30.050000	0.583665
	30.055000	0.412651
	30.060000	0.369898
	30.065000	0.531045
	30.070000	0.570510
	30.075000	0.396208
	30.080000	0.353454
	30.085000	0.517891
	30.090000	0.550778
	30.095000	0.379764
	30.100000	0.340299
	30.105000	0.498158
	30.110000	0.534334
	30.115000	0.363321
	30.120000	0.317278
	30.125000	0.488292
	30.130000	0.524468
	30.135000	0.343588
	30.140000	0.310701
	30.145000	0.471848
	30.150000	0.508024
	30.155000	0.333722
	30.160000	0.297546
	30.165000	0.461982
	30.170000	0.501447
	30.175000	0.327145
	30.180000	0.287680
	30.185000	0.452116
	30.190000	0.488292
	30.195000	0.320567
	30.200000	0.274525
	30.205000	0.442250
	30.210000	0.485003
	30.215000	0.313990
	30.220000	0.261370
	30.225000	0.432384
	30.230000	0.475137
	30.235000	0.300835
	30.240000	0.251504
	30.245000	0.422518
	30.250000	0.461982
	30.255000	0.294257
	30.260000	0.248215
	30.265000	0.415940
	30.270000	0.458694
	30.275000	0.287680
	30.280000	0.241638
	30.285000	0.406074
	30.290000	0.445539
	30.295000	0.274525
	30.300000	0.228483
	30.305000	0.386342
	30.310000	0.422518
	30.315000	0.251504
	30.320000	0.202173
	30.325000	0.360032
	30.330000	0.396208
	30.335000	0.221905
	30.340000	0.165997
	30.345000	0.323856
	30.350000	0.356743
	30.355000	0.182441
	30.360000	0.133110
	30.365000	0.281102
	30.370000	0.313990
	30.375000	0.136399
	30.380000	0.087068
	30.385000	0.241638
	30.390000	0.277814
	30.395000	0.096934
	30.400000	0.044314
	30.405000	0.195596
	30.410000	0.221905
	30.415000	0.037737
	30.420000	-0.034615
	30.425000	0.106800
	30.430000	0.129821
	30.435000	-0.060925
	30.440000	-0.146431
	30.445000	-0.011594
	30.450000	0.011427
	30.455000	-0.176030
	30.460000	-0.245093
	30.465000	-0.100389
	30.470000	-0.070791
	30.475000	-0.238516
	30.480000	-0.294424
	30.485000	-0.143143
	30.490000	-0.100389
	30.495000	-0.258248
	30.500000	-0.310868
	30.505000	-0.156298
	30.510000	-0.103678
	30.515000	-0.254959
	30.520000	-0.304290
	30.525000	-0.143143
	30.530000	-0.087234
	30.535000	-0.241804
	30.540000	-0.287847
	30.545000	-0.126699
	30.550000	-0.070791
	30.555000	-0.231938
	30.560000	-0.271403
	30.565000	-0.103678
	30.570000	-0.054347
	30.575000	-0.208917
	30.580000	-0.251671
	30.585000	-0.093812
	30.590000	-0.034615
	30.595000	-0.182607
	30.600000	-0.235227
	30.605000	-0.074080
	30.610000	-0.021460
	30.615000	-0.162875
	30.620000	-0.218783
	30.625000	-0.051059
	30.630000	0.004850
	30.635000	-0.146431
	30.640000	-0.195762
	30.645000	-0.034615
	30.650000	0.024582
	30.655000	-0.129988
	30.660000	-0.172741
	30.665000	-0.011594
	30.670000	0.041026
	30.675000	-0.103678
	30.680000	-0.153009
	30.685000	0.001561
	30.690000	0.060758
	30.695000	-0.087234
	30.700000	-0.133277
	30.705000	0.024582
	30.710000	0.070624
	30.715000	-0.077368
	30.720000	-0.126699
	30.725000	0.034448
	30.730000	0.077202
	30.735000	-0.083946
	30.740000	-0.143143
	30.745000	-0.001728
	30.750000	0.041026
	30.755000	-0.110256
	30.760000	-0.166164
	30.765000	-0.021460
	30.770000	0.031160
	30.775000	-0.113544
	30.780000	-0.169453
	30.785000	-0.021460
	30.790000	0.027871
	30.795000	-0.116833
	30.800000	-0.159586
	30.805000	-0.021460
	30.810000	0.027871
	30.815000	-0.113544
	30.820000	-0.162875
	30.825000	-0.014883
	30.830000	0.031160
	30.835000	-0.110256
	30.840000	-0.153009
	30.845000	-0.018171
	30.850000	0.034448
	30.855000	-0.103678
	30.860000	-0.146431
	30.865000	-0.014883
	30.870000	0.034448
	30.875000	-0.103678
	30.880000	-0.146431
	30.885000	-0.014883
	30.890000	0.037737
	30.895000	-0.100389
	30.900000	-0.143143
	30.905000	-0.011594
	30.910000	0.037737
	30.915000	-0.093812
	30.920000	-0.143143
	30.925000	-0.008305
	30.930000	0.041026
	30.935000	-0.093812
	30.940000	-0.139854
	30.945000	-0.011594
	30.950000	0.041026
	30.955000	-0.093812
	30.960000	-0.139854
	30.965000	-0.005016
	30.970000	0.050892
	30.975000	-0.087234
	30.980000	-0.133277
	30.985000	0.004850
	30.990000	0.054181
	30.995000	-0.077368
	31.000000	-0.126699
	31.005000	0.004850
	31.010000	0.050892
	31.015000	-0.077368
	31.020000	-0.123410
	31.025000	0.004850
	31.030000	0.054181
	31.035000	-0.077368
	31.040000	-0.126699
	31.045000	0.001561
	31.050000	0.050892
	31.055000	-0.074080
	31.060000	-0.126699
	31.065000	0.001561
	31.070000	0.050892
	31.075000	-0.080657
	31.080000	-0.136565
	31.085000	-0.005016
	31.090000	0.050892
	31.095000	-0.080657
	31.100000	-0.136565
	31.105000	-0.001728
	31.110000	0.044314
	31.115000	-0.083946
	31.120000	-0.139854
	31.125000	-0.008305
	31.130000	0.037737
	31.135000	-0.083946
	31.140000	-0.143143
	31.145000	-0.014883
	31.150000	0.041026
	31.155000	-0.087234
	31.160000	-0.139854
	31.165000	-0.014883
	31.170000	0.041026
	31.175000	-0.090523
	31.180000	-0.146431
	31.185000	-0.024749
	31.190000	0.034448
	31.195000	-0.093812
	31.200000	-0.146431
	31.205000	-0.024749
	31.210000	0.034448
	31.215000	-0.097101
	31.220000	-0.149720
	31.225000	-0.021460
	31.230000	0.031160
	31.235000	-0.097101
	31.240000	-0.156298
	31.245000	-0.024749
	31.250000	0.024582
	31.255000	-0.097101
	31.260000	-0.153009
	31.265000	-0.034615
	31.270000	0.027871
	31.275000	-0.097101
	31.280000	-0.149720
	31.285000	-0.028037
	31.290000	0.031160
	31.295000	-0.100389
	31.300000	-0.156298
	31.305000	-0.028037
	31.310000	0.031160
	31.315000	-0.093812
	31.320000	-0.149720
	31.325000	-0.024749
	31.330000	0.037737
	31.335000	-0.090523
	31.340000	-0.149720
	31.345000	-0.024749
	31.350000	0.037737
	31.355000	-0.083946
	31.360000	-0.146431
	31.365000	-0.021460
	31.370000	0.044314
	31.375000	-0.087234
	31.380000	-0.139854
	31.385000	-0.018171
	31.390000	0.037737
	31.395000	-0.080657
	31.400000	-0.143143
	31.405000	-0.021460
	31.410000	0.044314
	31.415000	-0.080657
	31.420000	-0.139854
	31.425000	-0.014883
	31.430000	0.047603
	31.435000	-0.080657
	31.440000	-0.139854
	31.445000	-0.014883
	31.450000	0.047603
	31.455000	-0.074080
	31.460000	-0.139854
	31.465000	-0.011594
	31.470000	0.050892
	31.475000	-0.074080
	31.480000	-0.136565
	31.485000	-0.014883
	31.490000	0.050892
	31.495000	-0.074080
	31.500000	-0.136565
	31.505000	-0.011594
	31.510000	0.050892
	31.515000	-0.067502
	31.520000	-0.136565
	31.525000	-0.011594
	31.530000	0.054181
	31.535000	-0.064213
	31.540000	-0.133277
	31.545000	-0.005016
	31.550000	0.054181
	31.555000	-0.064213
	31.560000	-0.129988
	31.565000	-0.008305
	31.570000	0.057469
	31.575000	-0.067502
	31.580000	-0.129988
	31.585000	-0.005016
	31.590000	0.054181
	31.595000	-0.064213
	31.600000	-0.126699
	31.605000	-0.001728
	31.610000	0.054181
	31.615000	-0.064213
	31.620000	-0.136565
	31.625000	-0.014883
	31.630000	0.060758
	31.635000	-0.067502
	31.640000	-0.133277
	31.645000	-0.018171
	31.650000	0.047603
	31.655000	-0.067502
	31.660000	-0.136565
	31.665000	-0.018171
	31.670000	0.054181
	31.675000	-0.067502
	31.680000	-0.136565
	31.685000	-0.011594
	31.690000	0.054181
	31.695000	-0.067502
	31.700000	-0.136565
	31.705000	-0.011594
	31.710000	0.054181
	31.715000	-0.067502
	31.720000	-0.136565
	31.725000	-0.011594
	31.730000	0.057469
	31.735000	-0.067502
	31.740000	-0.139854
	31.745000	-0.014883
	31.750000	0.050892
	31.755000	-0.064213
	31.760000	-0.136565
	31.765000	-0.014883
	31.770000	0.057469
	31.775000	-0.064213
	31.780000	-0.133277
	31.785000	-0.018171
	31.790000	0.064047
	31.795000	-0.057636
	31.800000	-0.129988
	31.805000	-0.008305
	31.810000	0.057469
	31.815000	-0.057636
	31.820000	-0.133277
	31.825000	-0.014883
	31.830000	0.057469
	31.835000	-0.060925
	31.840000	-0.133277
	31.845000	-0.014883
	31.850000	0.057469
	31.855000	-0.064213
	31.860000	-0.136565
	31.865000	-0.018171
	31.870000	0.060758
	31.875000	-0.057636
	31.880000	-0.133277
	31.885000	-0.014883
	31.890000	0.060758
	31.895000	-0.057636
	31.900000	-0.133277
	31.905000	-0.018171
	31.910000	0.057469
	31.915000	-0.057636
	31.920000	-0.133277
	31.925000	-0.018171
	31.930000	0.057469
	31.935000	-0.060925
	31.940000	-0.133277
	31.945000	-0.014883
	31.950000	0.057469
	31.955000	-0.060925
	31.960000	-0.136565
	31.965000	-0.021460
	31.970000	0.060758
	31.975000	-0.054347
	31.980000	-0.133277
	31.985000	-0.018171
	31.990000	0.060758
	31.995000	-0.054347
	32.000000	-0.129988
	32.005000	-0.014883
	32.010000	0.064047
	32.015000	-0.051059
	32.020000	-0.133277
	32.025000	-0.014883
	32.030000	0.064047
	32.035000	-0.054347
	32.040000	-0.129988
	32.045000	-0.014883
	32.050000	0.064047
	32.055000	-0.051059
	32.060000	-0.126699
	32.065000	-0.011594
	32.070000	0.070624
	32.075000	-0.054347
	32.080000	-0.129988
	32.085000	-0.014883
	32.090000	0.067335
	32.095000	-0.041192
	32.100000	-0.123410
	32.105000	-0.008305
	32.110000	0.073913
	32.115000	-0.041192
	32.120000	-0.116833
	32.125000	-0.005016
	32.130000	0.077202
	32.135000	-0.041192
	32.140000	-0.116833
	32.145000	-0.001728
	32.150000	0.077202
	32.155000	-0.037904
	32.160000	-0.113544
	32.165000	-0.001728
	32.170000	0.077202
	32.175000	-0.031326
	32.180000	-0.120122
	32.185000	-0.005016
	32.190000	0.073913
	32.195000	-0.037904
	32.200000	-0.116833
	32.205000	-0.005016
	32.210000	0.080490
	32.215000	-0.034615
	32.220000	-0.113544
	32.225000	-0.001728
	32.230000	0.087068
	32.235000	-0.031326
	32.240000	-0.113544
	32.245000	-0.005016
	32.250000	0.083779
	32.255000	-0.031326
	32.260000	-0.116833
	32.265000	0.001561
	32.270000	0.083779
	32.275000	-0.028037
	32.280000	-0.113544
	32.285000	-0.005016
	32.290000	0.077202
	32.295000	-0.034615
	32.300000	-0.116833
	32.305000	-0.008305
	32.310000	0.073913
	32.315000	-0.034615
	32.320000	-0.120122
	32.325000	-0.008305
	32.330000	0.077202
	32.335000	-0.031326
	32.340000	-0.113544
	32.345000	-0.008305
	32.350000	0.080490
	32.355000	-0.028037
	32.360000	-0.116833
	32.365000	-0.008305
	32.370000	0.080490
	32.375000	-0.031326
	32.380000	-0.120122
	32.385000	-0.011594
	32.390000	0.077202
	32.395000	-0.031326
	32.400000	-0.123410
	32.405000	-0.011594
	32.410000	0.077202
	32.415000	-0.037904
	32.420000	-0.120122
	32.425000	-0.011594
	32.430000	0.070624
	32.435000	-0.037904
	32.440000	-0.116833
	32.445000	-0.011594
	32.450000	0.073913
	32.455000	-0.037904
	32.460000	-0.123410
	32.465000	-0.014883
	32.470000	0.073913
	32.475000	-0.034615
	32.480000	-0.123410
	32.485000	-0.018171
	32.490000	0.073913
	32.495000	-0.034615
	32.500000	-0.116833
	32.505000	-0.024749
	32.510000	0.077202
	32.515000	-0.037904
	32.520000	-0.126699
	32.525000	-0.014883
	32.530000	0.077202
	32.535000	-0.034615
	32.540000	-0.126699
	32.545000	-0.014883
	32.550000	0.070624
	32.555000	-0.034615
	32.560000	-0.126699
	32.565000	-0.021460
	32.570000	0.067335
	32.575000	-0.037904
	32.580000	-0.129988
	32.585000	-0.024749
	32.590000	0.067335
	32.595000	-0.037904
	32.600000	-0.133277
	32.605000	-0.034615
	32.610000	0.064047
	32.615000	-0.047770
	32.620000	-0.136565
	32.625000	-0.034615
	32.630000	0.060758
	32.635000	-0.041192
	32.640000	-0.136565
	32.645000	-0.034615
	32.650000	0.060758
	32.655000	-0.041192
	32.660000	-0.136565
	32.665000	-0.031326
	32.670000	0.060758
	32.675000	-0.047770
	32.680000	-0.139854
	32.685000	-0.034615
	32.690000	0.057469
	32.695000	-0.044481
	32.700000	-0.136565
	32.705000	-0.034615
	32.710000	0.057469
	32.715000	-0.041192
	32.720000	-0.139854
	32.725000	-0.031326
	32.730000	0.057469
	32.735000	-0.047770
	32.740000	-0.136565
	32.745000	-0.041192
	32.750000	0.057469
	32.755000	-0.041192
	32.760000	-0.143143
	32.765000	-0.034615
	32.770000	0.057469
	32.775000	-0.044481
	32.780000	-0.139854
	32.785000	-0.031326
	32.790000	0.057469
	32.795000	-0.037904
	32.800000	-0.139854
	32.805000	-0.028037
	32.810000	0.064047
	32.815000	-0.037904
	32.820000	-0.136565
	32.825000	-0.034615
	32.830000	0.067335
	32.835000	-0.041192
	32.840000	-0.129988
	32.845000	-0.034615
	32.850000	0.064047
	32.855000	-0.037904
	32.860000	-0.136565
	32.865000	-0.034615
	32.870000	0.064047
	32.875000	-0.037904
	32.880000	-0.143143
	32.885000	-0.037904
	32.890000	0.064047
	32.895000	-0.037904
	32.900000	-0.146431
	32.905000	-0.041192
	32.910000	0.050892
	32.915000	-0.051059
	32.920000	-0.153009
	32.925000	-0.054347
	32.930000	0.044314
	32.935000	-0.064213
	32.940000	-0.166164
	32.945000	-0.070791
	32.950000	0.027871
	32.955000	-0.074080
	32.960000	-0.185896
	32.965000	-0.083946
	32.970000	0.011427
	32.975000	-0.093812
	32.980000	-0.202340
	32.985000	-0.113544
	32.990000	-0.014883
	32.995000	-0.126699
	33.000000	-0.231938
	33.005000	-0.143143
	33.010000	-0.051059
	33.015000	-0.162875
	33.020000	-0.264826
	33.025000	-0.182607
	33.030000	-0.083946
	33.035000	-0.195762
	33.040000	-0.294424
	33.045000	-0.212206
	33.050000	-0.110256
	33.055000	-0.212206
	33.060000	-0.320734
	33.065000	-0.225361
	33.070000	-0.133277
	33.075000	-0.235227
	33.080000	-0.337177
	33.085000	-0.245093
	33.090000	-0.143143
	33.095000	-0.238516
	33.100000	-0.340466
	33.105000	-0.245093
	33.110000	-0.139854
	33.115000	-0.238516
	33.120000	-0.333889
	33.125000	-0.241804
	33.130000	-0.129988
	33.135000	-0.222072
	33.140000	-0.320734
	33.145000	-0.222072
	33.150000	-0.110256
	33.155000	-0.199051
	33.160000	-0.294424
	33.165000	-0.192474
	33.170000	-0.080657
	33.175000	-0.172741
	33.180000	-0.277980
	33.185000	-0.182607
	33.190000	-0.077368
	33.195000	-0.172741
	33.200000	-0.268114
	33.205000	-0.172741
	33.210000	-0.074080
	33.215000	-0.159586
	33.220000	-0.261537
	33.225000	-0.162875
	33.230000	-0.054347
	33.235000	-0.139854
	33.240000	-0.241804
	33.245000	-0.139854
	33.250000	-0.028037
	33.255000	-0.116833
	33.260000	-0.218783
	33.265000	-0.116833
	33.270000	-0.008305
	33.275000	-0.100389
	33.280000	-0.202340
	33.285000	-0.106967
	33.290000	-0.001728
	33.295000	-0.093812
	33.300000	-0.202340
	33.305000	-0.106967
	33.310000	0.004850
	33.315000	-0.090523
	33.320000	-0.192474
	33.325000	-0.100389
	33.330000	0.004850
	33.335000	-0.080657
	33.340000	-0.195762
	33.345000	-0.100389
	33.350000	0.008138
	33.355000	-0.083946
	33.360000	-0.185896
	33.365000	-0.100389
	33.370000	0.014716
	33.375000	-0.074080
	33.380000	-0.182607
	33.385000	-0.093812
	33.390000	0.014716
	33.395000	-0.077368
	33.400000	-0.176030
	33.405000	-0.087234
	33.410000	0.024582
	33.415000	-0.064213
	33.420000	-0.172741
	33.425000	-0.083946
	33.430000	0.031160
	33.435000	-0.054347
	33.440000	-0.166164
	33.445000	-0.083946
	33.450000	0.031160
	33.455000	-0.060925
	33.460000	-0.162875
	33.465000	-0.074080
	33.470000	0.037737
	33.475000	-0.054347
	33.480000	-0.162875
	33.485000	-0.070791
	33.490000	0.041026
	33.495000	-0.047770
	33.500000	-0.156298
	33.505000	-0.067502
	33.510000	0.041026
	33.515000	-0.047770
	33.520000	-0.153009
	33.525000	-0.067502
	33.530000	0.041026
	33.535000	-0.044481
	33.540000	-0.153009
	33.545000	-0.064213
	33.550000	0.047603
	33.555000	-0.034615
	33.560000	-0.153009
	33.565000	-0.054347
	33.570000	0.050892
	33.575000	-0.037904
	33.580000	-0.149720
	33.585000	-0.060925
	33.590000	0.054181
	33.595000	-0.034615
	33.600000	-0.146431
	33.605000	-0.057636
	33.610000	0.054181
	33.615000	-0.034615
	33.620000	-0.146431
	33.625000	-0.054347
	33.630000	0.054181
	33.635000	-0.028037
	33.640000	-0.143143
	33.645000	-0.054347
	33.650000	0.057469
	33.655000	-0.024749
	33.660000	-0.139854
	33.665000	-0.054347
	33.670000	0.060758
	33.675000	-0.028037
	33.680000	-0.136565
	33.685000	-0.054347
	33.690000	0.057469
	33.695000	-0.021460
	33.700000	-0.133277
	33.705000	-0.057636
	33.710000	0.060758
	33.715000	-0.024749
	33.720000	-0.136565
	33.725000	-0.057636
	33.730000	0.057469
	33.735000	-0.024749
	33.740000	-0.143143
	33.745000	-0.051059
	33.750000	0.057469
	33.755000	-0.031326
	33.760000	-0.143143
	33.765000	-0.054347
	33.770000	0.060758
	33.775000	-0.024749
	33.780000	-0.139854
	33.785000	-0.064213
	33.790000	0.050892
	33.795000	-0.028037
	33.800000	-0.146431
	33.805000	-0.064213
	33.810000	0.050892
	33.815000	-0.031326
	33.820000	-0.146431
	33.825000	-0.060925
	33.830000	0.050892
	33.835000	-0.031326
	33.840000	-0.149720
	33.845000	-0.067502
	33.850000	0.047603
	33.855000	-0.031326
	33.860000	-0.146431
	33.865000	-0.067502
	33.870000	0.050892
	33.875000	-0.028037
	33.880000	-0.149720
	33.885000	-0.067502
	33.890000	0.050892
	33.895000	-0.031326
	33.900000	-0.149720
	33.905000	-0.067502
	33.910000	0.047603
	33.915000	-0.028037
	33.920000	-0.146431
	33.925000	-0.074080
	33.930000	0.050892
	33.935000	-0.028037
	33.940000	-0.146431
	33.945000	-0.067502
	33.950000	0.050892
	33.955000	-0.028037
	33.960000	-0.143143
	33.965000	-0.060925
	33.970000	0.054181
	33.975000	-0.028037
	33.980000	-0.139854
	33.985000	-0.057636
	33.990000	0.067335
	33.995000	-0.001728
	34.000000	-0.120122
	34.005000	-0.024749
	34.010000	0.110089
	34.015000	0.060758
	34.020000	-0.034615
	34.025000	0.077202
	34.030000	0.221905
	34.035000	0.175863
	34.040000	0.080490
	34.045000	0.189018
	34.050000	0.330433
	34.055000	0.277814
	34.060000	0.172575
	34.065000	0.264659
	34.070000	0.399496
	34.075000	0.327145
	34.080000	0.208751
	34.085000	0.284391
	34.090000	0.412651
	34.095000	0.333722
	34.100000	0.208751
	34.105000	0.284391
	34.110000	0.399496
	34.115000	0.323856
	34.120000	0.195596
	34.125000	0.267948
	34.130000	0.389630
	34.135000	0.310701
	34.140000	0.182441
	34.145000	0.248215
	34.150000	0.373187
	34.155000	0.290969
	34.160000	0.162708
	34.165000	0.231772
	34.170000	0.353454
	34.175000	0.277814
	34.180000	0.146265
	34.185000	0.218617
	34.190000	0.333722
	34.195000	0.258081
	34.200000	0.129821
	34.205000	0.202173
	34.210000	0.313990
	34.215000	0.244927
	34.220000	0.110089
	34.225000	0.182441
	34.230000	0.310701
	34.235000	0.228483
	34.240000	0.100223
	34.245000	0.169286
	34.250000	0.290969
	34.255000	0.212039
	34.260000	0.090357
	34.265000	0.156131
	34.270000	0.277814
	34.275000	0.205462
	34.280000	0.077202
	34.285000	0.142976
	34.290000	0.271236
	34.295000	0.198884
	34.300000	0.064047
	34.305000	0.133110
	34.310000	0.261370
	34.315000	0.185730
	34.320000	0.057469
	34.325000	0.126533
	34.330000	0.248215
	34.335000	0.182441
	34.340000	0.047603
	34.345000	0.119955
	34.350000	0.244927
	34.355000	0.175863
	34.360000	0.044314
	34.365000	0.110089
	34.370000	0.238349
	34.375000	0.165997
	34.380000	0.034448
	34.385000	0.100223
	34.390000	0.231772
	34.395000	0.159420
	34.400000	0.021293
	34.405000	0.093645
	34.410000	0.221905
	34.415000	0.146265
	34.420000	0.021293
	34.425000	0.087068
	34.430000	0.208751
	34.435000	0.139687
	34.440000	0.001561
	34.445000	0.067335
	34.450000	0.192307
	34.455000	0.123244
	34.460000	-0.014883
	34.465000	0.047603
	34.470000	0.172575
	34.475000	0.093645
	34.480000	-0.037904
	34.485000	0.018005
	34.490000	0.136399
	34.495000	0.060758
	34.500000	-0.080657
	34.505000	-0.024749
	34.510000	0.090357
	34.515000	0.018005
	34.520000	-0.126699
	34.525000	-0.070791
	34.530000	0.044314
	34.535000	-0.044481
	34.540000	-0.182607
	34.545000	-0.133277
	34.550000	-0.031326
	34.555000	-0.120122
	34.560000	-0.284558
	34.565000	-0.258248
	34.570000	-0.166164
	34.575000	-0.254959
	34.580000	-0.402952
	34.585000	-0.363487
	34.590000	-0.245093
	34.595000	-0.304290
	34.600000	-0.442417
	34.605000	-0.383220
	34.610000	-0.248382
	34.615000	-0.304290
	34.620000	-0.429262
	34.625000	-0.360198
	34.630000	-0.231938
	34.635000	-0.284558
	34.640000	-0.402952
	34.645000	-0.340466
	34.650000	-0.212206
	34.655000	-0.264826
	34.660000	-0.386508
	34.665000	-0.320734
	34.670000	-0.189185
	34.675000	-0.245093
	34.680000	-0.370065
	34.685000	-0.304290
	34.690000	-0.169453
	34.695000	-0.222072
	34.700000	-0.350332
	34.705000	-0.287847
	34.710000	-0.156298
	34.715000	-0.208917
	34.720000	-0.337177
	34.725000	-0.271403
	34.730000	-0.139854
	34.735000	-0.192474
	34.740000	-0.317445
	34.745000	-0.261537
	34.750000	-0.123410
	34.755000	-0.176030
	34.760000	-0.304290
	34.765000	-0.245093
	34.770000	-0.113544
	34.775000	-0.162875
	34.780000	-0.291135
	34.785000	-0.228650
	34.790000	-0.100389
	34.795000	-0.149720
	34.800000	-0.271403
	34.805000	-0.212206
	34.810000	-0.087234
	34.815000	-0.133277
	34.820000	-0.261537
	34.825000	-0.199051
	34.830000	-0.070791
	34.835000	-0.120122
	34.840000	-0.248382
	34.845000	-0.192474
	34.850000	-0.057636
	34.855000	-0.113544
	34.860000	-0.235227
	34.865000	-0.179319
	34.870000	-0.047770
	34.875000	-0.100389
	34.880000	-0.228650
	34.885000	-0.166164
	34.890000	-0.041192
	34.895000	-0.087234
	34.900000	-0.215495
	34.905000	-0.162875
	34.910000	-0.031326
	34.915000	-0.080657
	34.920000	-0.208917
	34.925000	-0.153009
	34.930000	-0.024749
	34.935000	-0.074080
	34.940000	-0.205628
	34.945000	-0.153009
	34.950000	-0.018171
	34.955000	-0.064213
	34.960000	-0.195762
	34.965000	-0.146431
	34.970000	-0.011594
	34.975000	-0.064213
	34.980000	-0.192474
	34.985000	-0.139854
	34.990000	-0.008305
	34.995000	-0.057636
	35.000000	-0.192474
	35.005000	-0.143143
	35.010000	-0.011594
	35.015000	-0.054347
	35.020000	-0.189185
	35.025000	-0.143143
	35.030000	-0.011594
	35.035000	-0.057636
	35.040000	-0.185896
	35.045000	-0.133277
	35.050000	-0.001728
	35.055000	-0.054347
	35.060000	-0.182607
	35.065000	-0.136565
	35.070000	-0.001728
	35.075000	-0.054347
	35.080000	-0.182607
	35.085000	-0.129988
	35.090000	-0.001728
	35.095000	-0.047770
	35.100000	-0.172741
	35.105000	-0.133277
	35.110000	0.001561
	35.115000	-0.041192
	35.120000	-0.176030
	35.125000	-0.129988
	35.130000	0.004850
	35.135000	-0.041192
	35.140000	-0.172741
	35.145000	-0.126699
	35.150000	0.004850
	35.155000	-0.041192
	35.160000	-0.176030
	35.165000	-0.129988
	35.170000	0.001561
	35.175000	-0.041192
	35.180000	-0.169453
	35.185000	-0.129988
	35.190000	0.001561
	35.195000	-0.041192
	35.200000	-0.176030
	35.205000	-0.133277
	35.210000	0.001561
	35.215000	-0.041192
	35.220000	-0.172741
	35.225000	-0.133277
	35.230000	0.001561
	35.235000	-0.047770
	35.240000	-0.172741
	35.245000	-0.133277
	35.250000	-0.001728
	35.255000	-0.041192
	35.260000	-0.176030
	35.265000	-0.129988
	35.270000	0.001561
	35.275000	-0.037904
	35.280000	-0.172741
	35.285000	-0.129988
	35.290000	0.001561
	35.295000	-0.041192
	35.300000	-0.169453
	35.305000	-0.129988
	35.310000	0.001561
	35.315000	-0.037904
	35.320000	-0.172741
	35.325000	-0.133277
	35.330000	0.004850
	35.335000	-0.041192
	35.340000	-0.169453
	35.345000	-0.136565
	35.350000	0.001561
	35.355000	-0.041192
	35.360000	-0.169453
	35.365000	-0.133277
	35.370000	0.001561
	35.375000	-0.031326
	35.380000	-0.162875
	35.385000	-0.129988
	35.390000	0.004850
	35.395000	-0.034615
	35.400000	-0.166164
	35.405000	-0.123410
	35.410000	0.011427
	35.415000	-0.028037
	35.420000	-0.162875
	35.425000	-0.123410
	35.430000	0.014716
	35.435000	-0.028037
	35.440000	-0.159586
	35.445000	-0.123410
	35.450000	0.008138
	35.455000	-0.024749
	35.460000	-0.159586
	35.465000	-0.126699
	35.470000	0.014716
	35.475000	-0.018171
	35.480000	-0.153009
	35.485000	-0.123410
	35.490000	0.018005
	35.495000	-0.018171
	35.500000	-0.153009
	35.505000	-0.113544
	35.510000	0.018005
	35.515000	-0.011594
	35.520000	-0.156298
	35.525000	-0.113544
	35.530000	0.021293
	35.535000	-0.014883
	35.540000	-0.149720
	35.545000	-0.110256
	35.550000	0.021293
	35.555000	-0.011594
	35.560000	-0.146431
	35.565000	-0.113544
	35.570000	0.021293
	35.575000	-0.018171
	35.580000	-0.146431
	35.585000	-0.113544
	35.590000	0.024582
	35.595000	-0.008305
	35.600000	-0.146431
	35.605000	-0.113544
	35.610000	0.024582
	35.615000	-0.014883
	35.620000	-0.143143
	35.625000	-0.106967
	35.630000	0.024582
	35.635000	-0.005016
	35.640000	-0.143143
	35.645000	-0.106967
	35.650000	0.027871
	35.655000	-0.005016
	35.660000	-0.139854
	35.665000	-0.110256
	35.670000	0.027871
	35.675000	0.001561
	35.680000	-0.143143
	35.685000	-0.110256
	35.690000	0.031160
	35.695000	0.001561
	35.700000	-0.139854
	35.705000	-0.106967
	35.710000	0.027871
	35.715000	-0.001728
	35.720000	-0.139854
	35.725000	-0.110256
	35.730000	0.031160
	35.735000	-0.005016
	35.740000	-0.136565
	35.745000	-0.113544
	35.750000	0.027871
	35.755000	-0.001728
	35.760000	-0.136565
	35.765000	-0.113544
	35.770000	0.031160
	35.775000	-0.001728
	35.780000	-0.136565
	35.785000	-0.113544
	35.790000	0.027871
	35.795000	-0.001728
	35.800000	-0.139854
	35.805000	-0.110256
	35.810000	0.024582
	35.815000	0.001561
	35.820000	-0.136565
	35.825000	-0.106967
	35.830000	0.024582
	35.835000	0.001561
	35.840000	-0.139854
	35.845000	-0.116833
	35.850000	0.021293
	35.855000	-0.008305
	35.860000	-0.136565
	35.865000	-0.116833
	35.870000	0.027871
	35.875000	-0.001728
	35.880000	-0.139854
	35.885000	-0.113544
	35.890000	0.021293
	35.895000	0.001561
	35.900000	-0.136565
	35.905000	-0.116833
	35.910000	0.021293
	35.915000	-0.005016
	35.920000	-0.143143
	35.925000	-0.123410
	35.930000	0.018005
	35.935000	-0.005016
	35.940000	-0.146431
	35.945000	-0.123410
	35.950000	0.014716
	35.955000	-0.005016
	35.960000	-0.146431
	35.965000	-0.126699
	35.970000	0.014716
	35.975000	-0.005016
	35.980000	-0.146431
	35.985000	-0.129988
	35.990000	0.011427
	35.995000	-0.008305
	36.000000	-0.146431
	36.005000	-0.129988
	36.010000	0.014716
	36.015000	-0.005016
	36.020000	-0.149720
	36.025000	-0.126699
	36.030000	0.011427
	36.035000	-0.008305
	36.040000	-0.153009
	36.045000	-0.129988
	36.050000	0.014716
	36.055000	-0.011594
	36.060000	-0.153009
	36.065000	-0.129988
	36.070000	0.008138
	36.075000	-0.008305
	36.080000	-0.153009
	36.085000	-0.136565
	36.090000	0.014716
	36.095000	-0.001728
	36.100000	-0.153009
	36.105000	-0.133277
	36.110000	0.014716
	36.115000	0.001561
	36.120000	-0.146431
	36.125000	-0.133277
	36.130000	0.014716
	36.135000	0.001561
	36.140000	-0.146431
	36.145000	-0.133277
	36.150000	0.014716
	36.155000	-0.001728
	36.160000	-0.146431
	36.165000	-0.123410
	36.170000	0.024582
	36.175000	0.008138
	36.180000	-0.143143
	36.185000	-0.126699
	36.190000	0.027871
	36.195000	0.018005
	36.200000	-0.133277
	36.205000	-0.120122
	36.210000	0.037737
	36.215000	0.021293
	36.220000	-0.133277
	36.225000	-0.116833
	36.230000	0.041026
	36.235000	0.027871
	36.240000	-0.126699
	36.245000	-0.113544
	36.250000	0.047603
	36.255000	0.031160
	36.260000	-0.120122
	36.265000	-0.106967
	36.270000	0.054181
	36.275000	0.041026
	36.280000	-0.120122
	36.285000	-0.110256
	36.290000	0.057469
	36.295000	0.047603
	36.300000	-0.113544
	36.305000	-0.103678
	36.310000	0.060758
	36.315000	0.047603
	36.320000	-0.116833
	36.325000	-0.110256
	36.330000	0.064047
	36.335000	0.060758
	36.340000	-0.113544
	36.345000	-0.103678
	36.350000	0.064047
	36.355000	0.060758
	36.360000	-0.113544
	36.365000	-0.100389
	36.370000	0.067335
	36.375000	0.064047
	36.380000	-0.106967
	36.385000	-0.103678
	36.390000	0.067335
	36.395000	0.064047
	36.400000	-0.103678
	36.405000	-0.106967
	36.410000	0.064047
	36.415000	0.057469
	36.420000	-0.116833
	36.425000	-0.116833
	36.430000	0.054181
	36.435000	0.050892
	36.440000	-0.123410
	36.445000	-0.123410
	36.450000	0.050892
	36.455000	0.044314
	36.460000	-0.123410
	36.465000	-0.120122
	36.470000	0.054181
	36.475000	0.050892
	36.480000	-0.120122
	36.485000	-0.120122
	36.490000	0.054181
	36.495000	0.054181
	36.500000	-0.110256
	36.505000	-0.113544
	36.510000	0.054181
	36.515000	0.057469
	36.520000	-0.116833
	36.525000	-0.110256
	36.530000	0.054181
	36.535000	0.064047
	36.540000	-0.110256
	36.545000	-0.106967
	36.550000	0.060758
	36.555000	0.067335
	36.560000	-0.103678
	36.565000	-0.110256
	36.570000	0.064047
	36.575000	0.064047
	36.580000	-0.103678
	36.585000	-0.106967
	36.590000	0.067335
	36.595000	0.067335
	36.600000	-0.103678
	36.605000	-0.106967
	36.610000	0.067335
	36.615000	0.070624
	36.620000	-0.100389
	36.625000	-0.103678
	36.630000	0.067335
	36.635000	0.077202
	36.640000	-0.093812
	36.645000	-0.100389
	36.650000	0.070624
	36.655000	0.077202
	36.660000	-0.097101
	36.665000	-0.097101
	36.670000	0.070624
	36.675000	0.080490
	36.680000	-0.097101
	36.685000	-0.097101
	36.690000	0.070624
	36.695000	0.087068
	36.700000	-0.090523
	36.705000	-0.097101
	36.710000	0.073913
	36.715000	0.087068
	36.720000	-0.087234
	36.725000	-0.097101
	36.730000	0.073913
	36.735000	0.083779
	36.740000	-0.080657
	36.745000	-0.093812
	36.750000	0.080490
	36.755000	0.087068
	36.760000	-0.080657
	36.765000	-0.093812
	36.770000	0.070624
	36.775000	0.090357
	36.780000	-0.080657
	36.785000	-0.090523
	36.790000	0.073913
	36.795000	0.083779
	36.800000	-0.077368
	36.805000	-0.093812
	36.810000	0.077202
	36.815000	0.090357
	36.820000	-0.080657
	36.825000	-0.087234
	36.830000	0.080490
	36.835000	0.093645
	36.840000	-0.080657
	36.845000	-0.090523
	36.850000	0.077202
	36.855000	0.093645
	36.860000	-0.074080
	36.865000	-0.090523
	36.870000	0.080490
	36.875000	0.093645
	36.880000	-0.070791
	36.885000	-0.087234
	36.890000	0.083779
	36.895000	0.096934
	36.900000	-0.070791
	36.905000	-0.090523
	36.910000	0.087068
	36.915000	0.100223
	36.920000	-0.070791
	36.925000	-0.087234
	36.930000	0.087068
	36.935000	0.096934
	36.940000	-0.067502
	36.945000	-0.083946
	36.950000	0.083779
	36.955000	0.100223
	36.960000	-0.067502
	36.965000	-0.083946
	36.970000	0.090357
	36.975000	0.103511
	36.980000	-0.064213
	36.985000	-0.080657
	36.990000	0.090357
	36.995000	0.110089
	37.000000	-0.064213
	37.005000	-0.083946
	37.010000	0.090357
	37.015000	0.106800
	37.020000	-0.064213
	37.025000	-0.080657
	37.030000	0.087068
	37.035000	0.110089
	37.040000	-0.064213
	37.045000	-0.083946
	37.050000	0.087068
	37.055000	0.103511
	37.060000	-0.067502
	37.065000	-0.080657
	37.070000	0.083779
	37.075000	0.110089
	37.080000	-0.060925
	37.085000	-0.080657
	37.090000	0.087068
	37.095000	0.103511
	37.100000	-0.057636
	37.105000	-0.083946
	37.110000	0.087068
	37.115000	0.106800
	37.120000	-0.057636
	37.125000	-0.083946
	37.130000	0.083779
	37.135000	0.116666
	37.140000	-0.057636
	37.145000	-0.083946
	37.150000	0.080490
	37.155000	0.106800
	37.160000	-0.060925
	37.165000	-0.090523
	37.170000	0.080490
	37.175000	0.106800
	37.180000	-0.057636
	37.185000	-0.090523
	37.190000	0.080490
	37.195000	0.106800
	37.200000	-0.060925
	37.205000	-0.087234
	37.210000	0.083779
	37.215000	0.106800
	37.220000	-0.060925
	37.225000	-0.090523
	37.230000	0.083779
	37.235000	0.110089
	37.240000	-0.057636
	37.245000	-0.087234
	37.250000	0.083779
	37.255000	0.110089
	37.260000	-0.060925
	37.265000	-0.087234
	37.270000	0.083779
	37.275000	0.110089
	37.280000	-0.054347
	37.285000	-0.087234
	37.290000	0.087068
	37.295000	0.116666
	37.300000	-0.054347
	37.305000	-0.080657
	37.310000	0.083779
	37.315000	0.116666
	37.320000	-0.051059
	37.325000	-0.083946
