2024/7/21 	 8:45:58 
 This file comes from Vt only measurement 	 1.000000E-1 
 Voltage Sensitivity 	 0.000000E+0 
 Sampling rate 	 200 
 Number of samples per channel 	 -1 
 No filter from Labview 	 	 	 
 	 
 ***End_of_Header*** 
 	 Time 	  Voltage 	 Filtered Voltage 	 
	0.000000	-0.396374
	0.005000	-0.162875
	0.010000	-0.281269
	0.015000	-0.518057
	0.020000	-0.393086
	0.025000	-0.159586
	0.030000	-0.281269
	0.035000	-0.521346
	0.040000	-0.393086
	0.045000	-0.156298
	0.050000	-0.277980
	0.055000	-0.521346
	0.060000	-0.393086
	0.065000	-0.159586
	0.070000	-0.277980
	0.075000	-0.518057
	0.080000	-0.393086
	0.085000	-0.156298
	0.090000	-0.287847
	0.095000	-0.521346
	0.100000	-0.396374
	0.105000	-0.159586
	0.110000	-0.287847
	0.115000	-0.518057
	0.120000	-0.396374
	0.125000	-0.159586
	0.130000	-0.277980
	0.135000	-0.521346
	0.140000	-0.393086
	0.145000	-0.159586
	0.150000	-0.287847
	0.155000	-0.521346
	0.160000	-0.396374
	0.165000	-0.162875
	0.170000	-0.287847
	0.175000	-0.521346
	0.180000	-0.396374
	0.185000	-0.159586
	0.190000	-0.287847
	0.195000	-0.524635
	0.200000	-0.393086
	0.205000	-0.159586
	0.210000	-0.284558
	0.215000	-0.521346
	0.220000	-0.393086
	0.225000	-0.156298
	0.230000	-0.284558
	0.235000	-0.518057
	0.240000	-0.389797
	0.245000	-0.159586
	0.250000	-0.287847
	0.255000	-0.518057
	0.260000	-0.389797
	0.265000	-0.159586
	0.270000	-0.287847
	0.275000	-0.524635
	0.280000	-0.393086
	0.285000	-0.156298
	0.290000	-0.287847
	0.295000	-0.521346
	0.300000	-0.389797
	0.305000	-0.156298
	0.310000	-0.284558
	0.315000	-0.521346
	0.320000	-0.393086
	0.325000	-0.159586
	0.330000	-0.291135
	0.335000	-0.524635
	0.340000	-0.389797
	0.345000	-0.159586
	0.350000	-0.287847
	0.355000	-0.521346
	0.360000	-0.386508
	0.365000	-0.162875
	0.370000	-0.287847
	0.375000	-0.524635
	0.380000	-0.389797
	0.385000	-0.159586
	0.390000	-0.291135
	0.395000	-0.527923
	0.400000	-0.393086
	0.405000	-0.156298
	0.410000	-0.291135
	0.415000	-0.521346
	0.420000	-0.389797
	0.425000	-0.159586
	0.430000	-0.291135
	0.435000	-0.524635
	0.440000	-0.393086
	0.445000	-0.156298
	0.450000	-0.287847
	0.455000	-0.527923
	0.460000	-0.389797
	0.465000	-0.156298
	0.470000	-0.287847
	0.475000	-0.527923
	0.480000	-0.393086
	0.485000	-0.159586
	0.490000	-0.291135
	0.495000	-0.524635
	0.500000	-0.389797
	0.505000	-0.162875
	0.510000	-0.294424
	0.515000	-0.527923
	0.520000	-0.393086
	0.525000	-0.159586
	0.530000	-0.294424
	0.535000	-0.527923
	0.540000	-0.386508
	0.545000	-0.162875
	0.550000	-0.297713
	0.555000	-0.527923
	0.560000	-0.389797
	0.565000	-0.159586
	0.570000	-0.294424
	0.575000	-0.531212
	0.580000	-0.389797
	0.585000	-0.159586
	0.590000	-0.297713
	0.595000	-0.527923
	0.600000	-0.389797
	0.605000	-0.159586
	0.610000	-0.297713
	0.615000	-0.531212
	0.620000	-0.386508
	0.625000	-0.159586
	0.630000	-0.291135
	0.635000	-0.521346
	0.640000	-0.383220
	0.645000	-0.159586
	0.650000	-0.294424
	0.655000	-0.521346
	0.660000	-0.379931
	0.665000	-0.149720
	0.670000	-0.291135
	0.675000	-0.514768
	0.680000	-0.379931
	0.685000	-0.146431
	0.690000	-0.287847
	0.695000	-0.518057
	0.700000	-0.383220
	0.705000	-0.153009
	0.710000	-0.287847
	0.715000	-0.521346
	0.720000	-0.376642
	0.725000	-0.149720
	0.730000	-0.294424
	0.735000	-0.524635
	0.740000	-0.379931
	0.745000	-0.153009
	0.750000	-0.297713
	0.755000	-0.524635
	0.760000	-0.379931
	0.765000	-0.153009
	0.770000	-0.297713
	0.775000	-0.527923
	0.780000	-0.376642
	0.785000	-0.153009
	0.790000	-0.294424
	0.795000	-0.521346
	0.800000	-0.383220
	0.805000	-0.153009
	0.810000	-0.301001
	0.815000	-0.524635
	0.820000	-0.379931
	0.825000	-0.156298
	0.830000	-0.301001
	0.835000	-0.527923
	0.840000	-0.379931
	0.845000	-0.159586
	0.850000	-0.304290
	0.855000	-0.524635
	0.860000	-0.379931
	0.865000	-0.156298
	0.870000	-0.297713
	0.875000	-0.527923
	0.880000	-0.379931
	0.885000	-0.156298
	0.890000	-0.297713
	0.895000	-0.527923
	0.900000	-0.383220
	0.905000	-0.159586
	0.910000	-0.301001
	0.915000	-0.531212
	0.920000	-0.383220
	0.925000	-0.156298
	0.930000	-0.304290
	0.935000	-0.531212
	0.940000	-0.386508
	0.945000	-0.159586
	0.950000	-0.297713
	0.955000	-0.527923
	0.960000	-0.379931
	0.965000	-0.153009
	0.970000	-0.304290
	0.975000	-0.527923
	0.980000	-0.379931
	0.985000	-0.153009
	0.990000	-0.297713
	0.995000	-0.521346
	1.000000	-0.376642
	1.005000	-0.153009
	1.010000	-0.301001
	1.015000	-0.527923
	1.020000	-0.379931
	1.025000	-0.156298
	1.030000	-0.304290
	1.035000	-0.527923
	1.040000	-0.386508
	1.045000	-0.153009
	1.050000	-0.307579
	1.055000	-0.531212
	1.060000	-0.386508
	1.065000	-0.159586
	1.070000	-0.307579
	1.075000	-0.531212
	1.080000	-0.383220
	1.085000	-0.162875
	1.090000	-0.307579
	1.095000	-0.531212
	1.100000	-0.386508
	1.105000	-0.156298
	1.110000	-0.304290
	1.115000	-0.524635
	1.120000	-0.376642
	1.125000	-0.153009
	1.130000	-0.301001
	1.135000	-0.521346
	1.140000	-0.366776
	1.145000	-0.149720
	1.150000	-0.297713
	1.155000	-0.521346
	1.160000	-0.366776
	1.165000	-0.146431
	1.170000	-0.297713
	1.175000	-0.521346
	1.180000	-0.379931
	1.185000	-0.153009
	1.190000	-0.307579
	1.195000	-0.527923
	1.200000	-0.383220
	1.205000	-0.159586
	1.210000	-0.310868
	1.215000	-0.541078
	1.220000	-0.389797
	1.225000	-0.176030
	1.230000	-0.327311
	1.235000	-0.550944
	1.240000	-0.393086
	1.245000	-0.179319
	1.250000	-0.327311
	1.255000	-0.544367
	1.260000	-0.389797
	1.265000	-0.166164
	1.270000	-0.310868
	1.275000	-0.521346
	1.280000	-0.363487
	1.285000	-0.129988
	1.290000	-0.268114
	1.295000	-0.478592
	1.300000	-0.314156
	1.305000	-0.080657
	1.310000	-0.218783
	1.315000	-0.429262
	1.320000	-0.264826
	1.325000	-0.034615
	1.330000	-0.172741
	1.335000	-0.386508
	1.340000	-0.228650
	1.345000	-0.014883
	1.350000	-0.172741
	1.355000	-0.396374
	1.360000	-0.268114
	1.365000	-0.064213
	1.370000	-0.222072
	1.375000	-0.452283
	1.380000	-0.314156
	1.385000	-0.113544
	1.390000	-0.258248
	1.395000	-0.488459
	1.400000	-0.399663
	1.405000	-0.215495
	1.410000	-0.320734
	1.415000	-0.521346
	1.420000	-0.429262
	1.425000	-0.238516
	1.430000	-0.330600
	1.435000	-0.514768
	1.440000	-0.409529
	1.445000	-0.212206
	1.450000	-0.310868
	1.455000	-0.495036
	1.460000	-0.386508
	1.465000	-0.192474
	1.470000	-0.291135
	1.475000	-0.472015
	1.480000	-0.366776
	1.485000	-0.172741
	1.490000	-0.264826
	1.495000	-0.445705
	1.500000	-0.343755
	1.505000	-0.166164
	1.510000	-0.258248
	1.515000	-0.435839
	1.520000	-0.337177
	1.525000	-0.153009
	1.530000	-0.254959
	1.535000	-0.445705
	1.540000	-0.340466
	1.545000	-0.166164
	1.550000	-0.268114
	1.555000	-0.455571
	1.560000	-0.360198
	1.565000	-0.176030
	1.570000	-0.277980
	1.575000	-0.462149
	1.580000	-0.370065
	1.585000	-0.192474
	1.590000	-0.287847
	1.595000	-0.465438
	1.600000	-0.376642
	1.605000	-0.202340
	1.610000	-0.274692
	1.615000	-0.409529
	1.620000	-0.330600
	1.625000	-0.159586
	1.630000	-0.307579
	1.635000	-0.514768
	1.640000	-0.356910
	1.645000	-0.143143
	1.650000	-0.287847
	1.655000	-0.495036
	1.660000	-0.340466
	1.665000	-0.126699
	1.670000	-0.274692
	1.675000	-0.478592
	1.680000	-0.324023
	1.685000	-0.116833
	1.690000	-0.261537
	1.695000	-0.472015
	1.700000	-0.333889
	1.705000	-0.133277
	1.710000	-0.281269
	1.715000	-0.488459
	1.720000	-0.337177
	1.725000	-0.129988
	1.730000	-0.291135
	1.735000	-0.504902
	1.740000	-0.350332
	1.745000	-0.146431
	1.750000	-0.304290
	1.755000	-0.514768
	1.760000	-0.360198
	1.765000	-0.156298
	1.770000	-0.314156
	1.775000	-0.524635
	1.780000	-0.370065
	1.785000	-0.156298
	1.790000	-0.314156
	1.795000	-0.521346
	1.800000	-0.360198
	1.805000	-0.153009
	1.810000	-0.301001
	1.815000	-0.508191
	1.820000	-0.343755
	1.825000	-0.133277
	1.830000	-0.287847
	1.835000	-0.495036
	1.840000	-0.327311
	1.845000	-0.116833
	1.850000	-0.271403
	1.855000	-0.478592
	1.860000	-0.314156
	1.865000	-0.103678
	1.870000	-0.264826
	1.875000	-0.472015
	1.880000	-0.307579
	1.885000	-0.103678
	1.890000	-0.264826
	1.895000	-0.472015
	1.900000	-0.317445
	1.905000	-0.113544
	1.910000	-0.268114
	1.915000	-0.478592
	1.920000	-0.320734
	1.925000	-0.120122
	1.930000	-0.281269
	1.935000	-0.488459
	1.940000	-0.330600
	1.945000	-0.126699
	1.950000	-0.284558
	1.955000	-0.501614
	1.960000	-0.337177
	1.965000	-0.133277
	1.970000	-0.297713
	1.975000	-0.501614
	1.980000	-0.343755
	1.985000	-0.136565
	1.990000	-0.297713
	1.995000	-0.504902
	2.000000	-0.343755
	2.005000	-0.136565
	2.010000	-0.304290
	2.015000	-0.504902
	2.020000	-0.337177
	2.025000	-0.143143
	2.030000	-0.297713
	2.035000	-0.501614
	2.040000	-0.340466
	2.045000	-0.133277
	2.050000	-0.301001
	2.055000	-0.501614
	2.060000	-0.330600
	2.065000	-0.129988
	2.070000	-0.294424
	2.075000	-0.495036
	2.080000	-0.330600
	2.085000	-0.126699
	2.090000	-0.291135
	2.095000	-0.495036
	2.100000	-0.327311
	2.105000	-0.123410
	2.110000	-0.287847
	2.115000	-0.488459
	2.120000	-0.324023
	2.125000	-0.126699
	2.130000	-0.287847
	2.135000	-0.491747
	2.140000	-0.327311
	2.145000	-0.126699
	2.150000	-0.294424
	2.155000	-0.488459
	2.160000	-0.330600
	2.165000	-0.126699
	2.170000	-0.294424
	2.175000	-0.495036
	2.180000	-0.330600
	2.185000	-0.133277
	2.190000	-0.294424
	2.195000	-0.495036
	2.200000	-0.330600
	2.205000	-0.123410
	2.210000	-0.294424
	2.215000	-0.491747
	2.220000	-0.327311
	2.225000	-0.126699
	2.230000	-0.294424
	2.235000	-0.495036
	2.240000	-0.327311
	2.245000	-0.129988
	2.250000	-0.281269
	2.255000	-0.481881
	2.260000	-0.330600
	2.265000	-0.136565
	2.270000	-0.287847
	2.275000	-0.488459
	2.280000	-0.333889
	2.285000	-0.139854
	2.290000	-0.294424
	2.295000	-0.488459
	2.300000	-0.333889
	2.305000	-0.136565
	2.310000	-0.287847
	2.315000	-0.481881
	2.320000	-0.327311
	2.325000	-0.139854
	2.330000	-0.287847
	2.335000	-0.485170
	2.340000	-0.324023
	2.345000	-0.129988
	2.350000	-0.291135
	2.355000	-0.478592
	2.360000	-0.327311
	2.365000	-0.133277
	2.370000	-0.287847
	2.375000	-0.485170
	2.380000	-0.327311
	2.385000	-0.136565
	2.390000	-0.291135
	2.395000	-0.485170
	2.400000	-0.327311
	2.405000	-0.139854
	2.410000	-0.294424
	2.415000	-0.488459
	2.420000	-0.333889
	2.425000	-0.139854
	2.430000	-0.297713
	2.435000	-0.491747
	2.440000	-0.333889
	2.445000	-0.139854
	2.450000	-0.294424
	2.455000	-0.495036
	2.460000	-0.333889
	2.465000	-0.139854
	2.470000	-0.297713
	2.475000	-0.491747
	2.480000	-0.330600
	2.485000	-0.143143
	2.490000	-0.301001
	2.495000	-0.495036
	2.500000	-0.330600
	2.505000	-0.133277
	2.510000	-0.291135
	2.515000	-0.478592
	2.520000	-0.330600
	2.525000	-0.136565
	2.530000	-0.297713
	2.535000	-0.485170
	2.540000	-0.330600
	2.545000	-0.143143
	2.550000	-0.294424
	2.555000	-0.488459
	2.560000	-0.327311
	2.565000	-0.139854
	2.570000	-0.294424
	2.575000	-0.491747
	2.580000	-0.330600
	2.585000	-0.139854
	2.590000	-0.297713
	2.595000	-0.488459
	2.600000	-0.330600
	2.605000	-0.143143
	2.610000	-0.294424
	2.615000	-0.485170
	2.620000	-0.327311
	2.625000	-0.136565
	2.630000	-0.294424
	2.635000	-0.485170
	2.640000	-0.327311
	2.645000	-0.136565
	2.650000	-0.301001
	2.655000	-0.485170
	2.660000	-0.330600
	2.665000	-0.139854
	2.670000	-0.310868
	2.675000	-0.498325
	2.680000	-0.324023
	2.685000	-0.129988
	2.690000	-0.304290
	2.695000	-0.488459
	2.700000	-0.307579
	2.705000	-0.110256
	2.710000	-0.281269
	2.715000	-0.465438
	2.720000	-0.277980
	2.725000	-0.080657
	2.730000	-0.251671
	2.735000	-0.439128
	2.740000	-0.264826
	2.745000	-0.067502
	2.750000	-0.218783
	2.755000	-0.399663
	2.760000	-0.235227
	2.765000	-0.047770
	2.770000	-0.199051
	2.775000	-0.393086
	2.780000	-0.241804
	2.785000	-0.064213
	2.790000	-0.231938
	2.795000	-0.429262
	2.800000	-0.277980
	2.805000	-0.100389
	2.810000	-0.268114
	2.815000	-0.462149
	2.820000	-0.317445
	2.825000	-0.139854
	2.830000	-0.195762
	2.835000	-0.274692
	2.840000	-0.169453
	2.845000	-0.074080
	2.850000	-0.185896
	2.855000	-0.294424
	2.860000	-0.199051
	2.865000	-0.113544
	2.870000	-0.225361
	2.875000	-0.330600
	2.880000	-0.235227
	2.885000	-0.143143
	2.890000	-0.291135
	2.895000	-0.478592
	2.900000	-0.317445
	2.905000	-0.139854
	2.910000	-0.304290
	2.915000	-0.495036
	2.920000	-0.333889
	2.925000	-0.153009
	2.930000	-0.310868
	2.935000	-0.495036
	2.940000	-0.304290
	2.945000	-0.116833
	2.950000	-0.297713
	2.955000	-0.478592
	2.960000	-0.291135
	2.965000	-0.100389
	2.970000	-0.281269
	2.975000	-0.468726
	2.980000	-0.274692
	2.985000	-0.093812
	2.990000	-0.274692
	2.995000	-0.468726
	3.000000	-0.307579
	3.005000	-0.129988
	3.010000	-0.297713
	3.015000	-0.495036
	3.020000	-0.337177
	3.025000	-0.169453
	3.030000	-0.340466
	3.035000	-0.534501
	3.040000	-0.376642
	3.045000	-0.208917
	3.050000	-0.383220
	3.055000	-0.570677
	3.060000	-0.406241
	3.065000	-0.225361
	3.070000	-0.396374
	3.075000	-0.573965
	3.080000	-0.402952
	3.085000	-0.218783
	3.090000	-0.379931
	3.095000	-0.550944
	3.100000	-0.376642
	3.105000	-0.189185
	3.110000	-0.340466
	3.115000	-0.511480
	3.120000	-0.340466
	3.125000	-0.156298
	3.130000	-0.307579
	3.135000	-0.488459
	3.140000	-0.320734
	3.145000	-0.139854
	3.150000	-0.301001
	3.155000	-0.481881
	3.160000	-0.317445
	3.165000	-0.136565
	3.170000	-0.310868
	3.175000	-0.491747
	3.180000	-0.324023
	3.185000	-0.156298
	3.190000	-0.317445
	3.195000	-0.508191
	3.200000	-0.337177
	3.205000	-0.156298
	3.210000	-0.327311
	3.215000	-0.508191
	3.220000	-0.337177
	3.225000	-0.162875
	3.230000	-0.324023
	3.235000	-0.504902
	3.240000	-0.337177
	3.245000	-0.156298
	3.250000	-0.320734
	3.255000	-0.495036
	3.260000	-0.320734
	3.265000	-0.146431
	3.270000	-0.304290
	3.275000	-0.478592
	3.280000	-0.317445
	3.285000	-0.133277
	3.290000	-0.301001
	3.295000	-0.478592
	3.300000	-0.307579
	3.305000	-0.133277
	3.310000	-0.304290
	3.315000	-0.478592
	3.320000	-0.307579
	3.325000	-0.136565
	3.330000	-0.304290
	3.335000	-0.481881
	3.340000	-0.310868
	3.345000	-0.136565
	3.350000	-0.307579
	3.355000	-0.488459
	3.360000	-0.317445
	3.365000	-0.136565
	3.370000	-0.310868
	3.375000	-0.488459
	3.380000	-0.317445
	3.385000	-0.143143
	3.390000	-0.317445
	3.395000	-0.491747
	3.400000	-0.320734
	3.405000	-0.146431
	3.410000	-0.317445
	3.415000	-0.498325
	3.420000	-0.327311
	3.425000	-0.153009
	3.430000	-0.324023
	3.435000	-0.501614
	3.440000	-0.330600
	3.445000	-0.156298
	3.450000	-0.327311
	3.455000	-0.501614
	3.460000	-0.333889
	3.465000	-0.159586
	3.470000	-0.327311
	3.475000	-0.504902
	3.480000	-0.333889
	3.485000	-0.156298
	3.490000	-0.330600
	3.495000	-0.501614
	3.500000	-0.330600
	3.505000	-0.156298
	3.510000	-0.330600
	3.515000	-0.501614
	3.520000	-0.327311
	3.525000	-0.153009
	3.530000	-0.324023
	3.535000	-0.498325
	3.540000	-0.324023
	3.545000	-0.149720
	3.550000	-0.324023
	3.555000	-0.498325
	3.560000	-0.324023
	3.565000	-0.153009
	3.570000	-0.320734
	3.575000	-0.498325
	3.580000	-0.320734
	3.585000	-0.149720
	3.590000	-0.324023
	3.595000	-0.495036
	3.600000	-0.320734
	3.605000	-0.146431
	3.610000	-0.324023
	3.615000	-0.495036
	3.620000	-0.320734
	3.625000	-0.146431
	3.630000	-0.324023
	3.635000	-0.495036
	3.640000	-0.317445
	3.645000	-0.146431
	3.650000	-0.324023
	3.655000	-0.498325
	3.660000	-0.320734
	3.665000	-0.149720
	3.670000	-0.324023
	3.675000	-0.495036
	3.680000	-0.320734
	3.685000	-0.146431
	3.690000	-0.330600
	3.695000	-0.498325
	3.700000	-0.317445
	3.705000	-0.149720
	3.710000	-0.327311
	3.715000	-0.495036
	3.720000	-0.317445
	3.725000	-0.146431
	3.730000	-0.327311
	3.735000	-0.495036
	3.740000	-0.317445
	3.745000	-0.146431
	3.750000	-0.327311
	3.755000	-0.498325
	3.760000	-0.314156
	3.765000	-0.149720
	3.770000	-0.327311
	3.775000	-0.495036
	3.780000	-0.320734
	3.785000	-0.149720
	3.790000	-0.327311
	3.795000	-0.498325
	3.800000	-0.324023
	3.805000	-0.146431
	3.810000	-0.324023
	3.815000	-0.501614
	3.820000	-0.314156
	3.825000	-0.153009
	3.830000	-0.330600
	3.835000	-0.501614
	3.840000	-0.320734
	3.845000	-0.149720
	3.850000	-0.327311
	3.855000	-0.501614
	3.860000	-0.320734
	3.865000	-0.149720
	3.870000	-0.330600
	3.875000	-0.498325
	3.880000	-0.320734
	3.885000	-0.153009
	3.890000	-0.330600
	3.895000	-0.501614
	3.900000	-0.314156
	3.905000	-0.146431
	3.910000	-0.333889
	3.915000	-0.501614
	3.920000	-0.317445
	3.925000	-0.153009
	3.930000	-0.330600
	3.935000	-0.501614
	3.940000	-0.320734
	3.945000	-0.156298
	3.950000	-0.337177
	3.955000	-0.508191
	3.960000	-0.324023
	3.965000	-0.159586
	3.970000	-0.340466
	3.975000	-0.514768
	3.980000	-0.330600
	3.985000	-0.162875
	3.990000	-0.347044
	3.995000	-0.511480
	4.000000	-0.330600
	4.005000	-0.166164
	4.010000	-0.350332
	4.015000	-0.518057
	4.020000	-0.333889
	4.025000	-0.169453
	4.030000	-0.350332
	4.035000	-0.514768
	4.040000	-0.330600
	4.045000	-0.162875
	4.050000	-0.347044
	4.055000	-0.511480
	4.060000	-0.320734
	4.065000	-0.153009
	4.070000	-0.340466
	4.075000	-0.501614
	4.080000	-0.320734
	4.085000	-0.159586
	4.090000	-0.333889
	4.095000	-0.501614
	4.100000	-0.317445
	4.105000	-0.156298
	4.110000	-0.337177
	4.115000	-0.508191
	4.120000	-0.327311
	4.125000	-0.159586
	4.130000	-0.343755
	4.135000	-0.511480
	4.140000	-0.330600
	4.145000	-0.166164
	4.150000	-0.350332
	4.155000	-0.514768
	4.160000	-0.327311
	4.165000	-0.166164
	4.170000	-0.347044
	4.175000	-0.514768
	4.180000	-0.324023
	4.185000	-0.162875
	4.190000	-0.343755
	4.195000	-0.511480
	4.200000	-0.324023
	4.205000	-0.159586
	4.210000	-0.343755
	4.215000	-0.508191
	4.220000	-0.320734
	4.225000	-0.159586
	4.230000	-0.337177
	4.235000	-0.501614
	4.240000	-0.314156
	4.245000	-0.149720
	4.250000	-0.337177
	4.255000	-0.504902
	4.260000	-0.314156
	4.265000	-0.156298
	4.270000	-0.343755
	4.275000	-0.508191
	4.280000	-0.324023
	4.285000	-0.166164
	4.290000	-0.356910
	4.295000	-0.524635
	4.300000	-0.337177
	4.305000	-0.182607
	4.310000	-0.370065
	4.315000	-0.527923
	4.320000	-0.343755
	4.325000	-0.182607
	4.330000	-0.370065
	4.335000	-0.527923
	4.340000	-0.333889
	4.345000	-0.169453
	4.350000	-0.350332
	4.355000	-0.498325
	4.360000	-0.297713
	4.365000	-0.123410
	4.370000	-0.301001
	4.375000	-0.445705
	4.380000	-0.245093
	4.385000	-0.070791
	4.390000	-0.241804
	4.395000	-0.386508
	4.400000	-0.195762
	4.405000	-0.041192
	4.410000	-0.231938
	4.415000	-0.402952
	4.420000	-0.228650
	4.425000	-0.080657
	4.430000	-0.277980
	4.435000	-0.445705
	4.440000	-0.271403
	4.445000	-0.123410
	4.450000	-0.314156
	4.455000	-0.475304
	4.460000	-0.307579
	4.465000	-0.162875
	4.470000	-0.251671
	4.475000	-0.320734
	4.480000	-0.215495
	4.485000	-0.143143
	4.490000	-0.274692
	4.495000	-0.363487
	4.500000	-0.254959
	4.505000	-0.189185
	4.510000	-0.393086
	4.515000	-0.550944
	4.520000	-0.360198
	4.525000	-0.192474
	4.530000	-0.376642
	4.535000	-0.524635
	4.540000	-0.324023
	4.545000	-0.166164
	4.550000	-0.353621
	4.555000	-0.504902
	4.560000	-0.347044
	4.565000	-0.189185
	4.570000	-0.330600
	4.575000	-0.472015
	4.580000	-0.317445
	4.585000	-0.179319
	4.590000	-0.320734
	4.595000	-0.462149
	4.600000	-0.317445
	4.605000	-0.179319
	4.610000	-0.324023
	4.615000	-0.475304
	4.620000	-0.320734
	4.625000	-0.182607
	4.630000	-0.330600
	4.635000	-0.472015
	4.640000	-0.333889
	4.645000	-0.195762
	4.650000	-0.340466
	4.655000	-0.481881
	4.660000	-0.324023
	4.665000	-0.185896
	4.670000	-0.330600
	4.675000	-0.472015
	4.680000	-0.324023
	4.685000	-0.182607
	4.690000	-0.327311
	4.695000	-0.462149
	4.700000	-0.333889
	4.705000	-0.205628
	4.710000	-0.402952
	4.715000	-0.547656
	4.720000	-0.353621
	4.725000	-0.208917
	4.730000	-0.412818
	4.735000	-0.567388
	4.740000	-0.370065
	4.745000	-0.228650
	4.750000	-0.432550
	4.755000	-0.580543
	4.760000	-0.383220
	4.765000	-0.241804
	4.770000	-0.439128
	4.775000	-0.567388
	4.780000	-0.363487
	4.785000	-0.205628
	4.790000	-0.393086
	4.795000	-0.524635
	4.800000	-0.327311
	4.805000	-0.176030
	4.810000	-0.360198
	4.815000	-0.501614
	4.820000	-0.304290
	4.825000	-0.159586
	4.830000	-0.353621
	4.835000	-0.481881
	4.840000	-0.284558
	4.845000	-0.139854
	4.850000	-0.320734
	4.855000	-0.455571
	4.860000	-0.258248
	4.865000	-0.116833
	4.870000	-0.291135
	4.875000	-0.419395
	4.880000	-0.218783
	4.885000	-0.070791
	4.890000	-0.254959
	4.895000	-0.379931
	4.900000	-0.185896
	4.905000	-0.041192
	4.910000	-0.228650
	4.915000	-0.347044
	4.920000	-0.149720
	4.925000	-0.011594
	4.930000	-0.195762
	4.935000	-0.324023
	4.940000	-0.129988
	4.945000	0.004850
	4.950000	-0.185896
	4.955000	-0.307579
	4.960000	-0.120122
	4.965000	0.011427
	4.970000	-0.172741
	4.975000	-0.304290
	4.980000	-0.113544
	4.985000	0.018005
	4.990000	-0.169453
	4.995000	-0.301001
	5.000000	-0.110256
	5.005000	0.018005
	5.010000	-0.169453
	5.015000	-0.297713
	5.020000	-0.110256
	5.025000	0.021293
	5.030000	-0.169453
	5.035000	-0.287847
	5.040000	-0.103678
	5.045000	0.027871
	5.050000	-0.156298
	5.055000	-0.277980
	5.060000	-0.093812
	5.065000	0.034448
	5.070000	-0.149720
	5.075000	-0.277980
	5.080000	-0.090523
	5.085000	0.027871
	5.090000	-0.153009
	5.095000	-0.277980
	5.100000	-0.100389
	5.105000	0.024582
	5.110000	-0.156298
	5.115000	-0.281269
	5.120000	-0.100389
	5.125000	0.024582
	5.130000	-0.159586
	5.135000	-0.281269
	5.140000	-0.103678
	5.145000	0.024582
	5.150000	-0.156298
	5.155000	-0.281269
	5.160000	-0.100389
	5.165000	0.024582
	5.170000	-0.153009
	5.175000	-0.274692
	5.180000	-0.093812
	5.185000	0.027871
	5.190000	-0.146431
	5.195000	-0.268114
	5.200000	-0.083946
	5.205000	0.041026
	5.210000	-0.143143
	5.215000	-0.264826
	5.220000	-0.077368
	5.225000	0.041026
	5.230000	-0.146431
	5.235000	-0.268114
	5.240000	-0.083946
	5.245000	0.034448
	5.250000	-0.149720
	5.255000	-0.271403
	5.260000	-0.093812
	5.265000	0.031160
	5.270000	-0.153009
	5.275000	-0.277980
	5.280000	-0.100389
	5.285000	0.024582
	5.290000	-0.159586
	5.295000	-0.281269
	5.300000	-0.100389
	5.305000	0.018005
	5.310000	-0.166164
	5.315000	-0.287847
	5.320000	-0.103678
	5.325000	0.014716
	5.330000	-0.166164
	5.335000	-0.287847
	5.340000	-0.103678
	5.345000	0.014716
	5.350000	-0.162875
	5.355000	-0.284558
	5.360000	-0.100389
	5.365000	0.018005
	5.370000	-0.166164
	5.375000	-0.287847
	5.380000	-0.103678
	5.385000	0.018005
	5.390000	-0.169453
	5.395000	-0.287847
	5.400000	-0.106967
	5.405000	0.014716
	5.410000	-0.166164
	5.415000	-0.287847
	5.420000	-0.106967
	5.425000	0.011427
	5.430000	-0.172741
	5.435000	-0.291135
	5.440000	-0.106967
	5.445000	0.004850
	5.450000	-0.176030
	5.455000	-0.291135
	5.460000	-0.113544
	5.465000	0.004850
	5.470000	-0.176030
	5.475000	-0.294424
	5.480000	-0.116833
	5.485000	0.008138
	5.490000	-0.176030
	5.495000	-0.294424
	5.500000	-0.106967
	5.505000	0.011427
	5.510000	-0.172741
	5.515000	-0.291135
	5.520000	-0.106967
	5.525000	0.011427
	5.530000	-0.172741
	5.535000	-0.287847
	5.540000	-0.097101
	5.545000	0.014716
	5.550000	-0.169453
	5.555000	-0.284558
	5.560000	-0.100389
	5.565000	0.018005
	5.570000	-0.166164
	5.575000	-0.281269
	5.580000	-0.100389
	5.585000	0.014716
	5.590000	-0.166164
	5.595000	-0.284558
	5.600000	-0.100389
	5.605000	0.011427
	5.610000	-0.172741
	5.615000	-0.291135
	5.620000	-0.103678
	5.625000	0.011427
	5.630000	-0.176030
	5.635000	-0.294424
	5.640000	-0.106967
	5.645000	0.004850
	5.650000	-0.182607
	5.655000	-0.297713
	5.660000	-0.110256
	5.665000	0.001561
	5.670000	-0.182607
	5.675000	-0.294424
	5.680000	-0.110256
	5.685000	0.001561
	5.690000	-0.176030
	5.695000	-0.294424
	5.700000	-0.103678
	5.705000	0.001561
	5.710000	-0.176030
	5.715000	-0.294424
	5.720000	-0.106967
	5.725000	0.011427
	5.730000	-0.179319
	5.735000	-0.294424
	5.740000	-0.106967
	5.745000	0.011427
	5.750000	-0.182607
	5.755000	-0.294424
	5.760000	-0.106967
	5.765000	0.008138
	5.770000	-0.182607
	5.775000	-0.301001
	5.780000	-0.113544
	5.785000	-0.005016
	5.790000	-0.189185
	5.795000	-0.307579
	5.800000	-0.123410
	5.805000	-0.008305
	5.810000	-0.199051
	5.815000	-0.307579
	5.820000	-0.123410
	5.825000	-0.008305
	5.830000	-0.199051
	5.835000	-0.307579
	5.840000	-0.116833
	5.845000	-0.001728
	5.850000	-0.195762
	5.855000	-0.301001
	5.860000	-0.110256
	5.865000	-0.001728
	5.870000	-0.185896
	5.875000	-0.294424
	5.880000	-0.103678
	5.885000	0.004850
	5.890000	-0.182607
	5.895000	-0.297713
	5.900000	-0.110256
	5.905000	0.004850
	5.910000	-0.185896
	5.915000	-0.291135
	5.920000	-0.106967
	5.925000	0.004850
	5.930000	-0.185896
	5.935000	-0.297713
	5.940000	-0.103678
	5.945000	0.001561
	5.950000	-0.192474
	5.955000	-0.301001
	5.960000	-0.110256
	5.965000	-0.001728
	5.970000	-0.192474
	5.975000	-0.304290
	5.980000	-0.113544
	5.985000	-0.005016
	5.990000	-0.192474
	5.995000	-0.307579
	6.000000	-0.113544
	6.005000	-0.008305
	6.010000	-0.199051
	6.015000	-0.304290
	6.020000	-0.120122
	6.025000	-0.011594
	6.030000	-0.202340
	6.035000	-0.307579
	6.040000	-0.120122
	6.045000	-0.011594
	6.050000	-0.202340
	6.055000	-0.310868
	6.060000	-0.126699
	6.065000	-0.018171
	6.070000	-0.208917
	6.075000	-0.314156
	6.080000	-0.126699
	6.085000	-0.021460
	6.090000	-0.208917
	6.095000	-0.320734
	6.100000	-0.126699
	6.105000	-0.021460
	6.110000	-0.205628
	6.115000	-0.314156
	6.120000	-0.123410
	6.125000	-0.011594
	6.130000	-0.192474
	6.135000	-0.297713
	6.140000	-0.110256
	6.145000	0.011427
	6.150000	-0.172741
	6.155000	-0.277980
	6.160000	-0.080657
	6.165000	0.027871
	6.170000	-0.149720
	6.175000	-0.251671
	6.180000	-0.057636
	6.185000	0.050892
	6.190000	-0.133277
	6.195000	-0.235227
	6.200000	-0.047770
	6.205000	0.057469
	6.210000	-0.133277
	6.215000	-0.248382
	6.220000	-0.064213
	6.225000	0.031160
	6.230000	-0.159586
	6.235000	-0.274692
	6.240000	-0.093812
	6.245000	0.008138
	6.250000	-0.185896
	6.255000	-0.297713
	6.260000	-0.120122
	6.265000	-0.021460
	6.270000	-0.212206
	6.275000	-0.324023
	6.280000	-0.136565
	6.285000	-0.037904
	6.290000	-0.235227
	6.295000	-0.343755
	6.300000	-0.156298
	6.305000	-0.054347
	6.310000	-0.241804
	6.315000	-0.350332
	6.320000	-0.162875
	6.325000	-0.054347
	6.330000	-0.241804
	6.335000	-0.343755
	6.340000	-0.143143
	6.345000	-0.034615
	6.350000	-0.225361
	6.355000	-0.317445
	6.360000	-0.126699
	6.365000	-0.018171
	6.370000	-0.205628
	6.375000	-0.297713
	6.380000	-0.090523
	6.385000	0.011427
	6.390000	-0.199051
	6.395000	-0.297713
	6.400000	-0.090523
	6.405000	0.011427
	6.410000	-0.199051
	6.415000	-0.301001
	6.420000	-0.106967
	6.425000	-0.011594
	6.430000	-0.208917
	6.435000	-0.320734
	6.440000	-0.133277
	6.445000	-0.037904
	6.450000	-0.231938
	6.455000	-0.340466
	6.460000	-0.153009
	6.465000	-0.054347
	6.470000	-0.245093
	6.475000	-0.350332
	6.480000	-0.162875
	6.485000	-0.060925
	6.490000	-0.248382
	6.495000	-0.350332
	6.500000	-0.156298
	6.505000	-0.051059
	6.510000	-0.235227
	6.515000	-0.330600
	6.520000	-0.133277
	6.525000	-0.028037
	6.530000	-0.215495
	6.535000	-0.317445
	6.540000	-0.120122
	6.545000	-0.018171
	6.550000	-0.202340
	6.555000	-0.301001
	6.560000	-0.110256
	6.565000	-0.008305
	6.570000	-0.199051
	6.575000	-0.297713
	6.580000	-0.113544
	6.585000	-0.008305
	6.590000	-0.205628
	6.595000	-0.307579
	6.600000	-0.116833
	6.605000	-0.021460
	6.610000	-0.215495
	6.615000	-0.317445
	6.620000	-0.123410
	6.625000	-0.024749
	6.630000	-0.222072
	6.635000	-0.324023
	6.640000	-0.129988
	6.645000	-0.028037
	6.650000	-0.222072
	6.655000	-0.317445
	6.660000	-0.126699
	6.665000	-0.018171
	6.670000	-0.212206
	6.675000	-0.304290
	6.680000	-0.103678
	6.685000	-0.005016
	6.690000	-0.199051
	6.695000	-0.294424
	6.700000	-0.093812
	6.705000	0.004850
	6.710000	-0.185896
	6.715000	-0.281269
	6.720000	-0.090523
	6.725000	0.014716
	6.730000	-0.185896
	6.735000	-0.284558
	6.740000	-0.093812
	6.745000	0.001561
	6.750000	-0.195762
	6.755000	-0.301001
	6.760000	-0.110256
	6.765000	-0.018171
	6.770000	-0.215495
	6.775000	-0.320734
	6.780000	-0.129988
	6.785000	-0.031326
	6.790000	-0.235227
	6.795000	-0.333889
	6.800000	-0.139854
	6.805000	-0.044481
	6.810000	-0.248382
	6.815000	-0.340466
	6.820000	-0.146431
	6.825000	-0.051059
	6.830000	-0.245093
	6.835000	-0.340466
	6.840000	-0.143143
	6.845000	-0.041192
	6.850000	-0.241804
	6.855000	-0.337177
	6.860000	-0.139854
	6.865000	-0.041192
	6.870000	-0.245093
	6.875000	-0.333889
	6.880000	-0.139854
	6.885000	-0.041192
	6.890000	-0.238516
	6.895000	-0.333889
	6.900000	-0.133277
	6.905000	-0.037904
	6.910000	-0.238516
	6.915000	-0.337177
	6.920000	-0.136565
	6.925000	-0.037904
	6.930000	-0.238516
	6.935000	-0.330600
	6.940000	-0.139854
	6.945000	-0.044481
	6.950000	-0.245093
	6.955000	-0.340466
	6.960000	-0.146431
	6.965000	-0.051059
	6.970000	-0.254959
	6.975000	-0.350332
	6.980000	-0.146431
	6.985000	-0.051059
	6.990000	-0.261537
	6.995000	-0.356910
	7.000000	-0.153009
	7.005000	-0.054347
	7.010000	-0.261537
	7.015000	-0.363487
	7.020000	-0.156298
	7.025000	-0.064213
	7.030000	-0.274692
	7.035000	-0.370065
	7.040000	-0.169453
	7.045000	-0.074080
	7.050000	-0.281269
	7.055000	-0.383220
	7.060000	-0.179319
	7.065000	-0.083946
	7.070000	-0.291135
	7.075000	-0.393086
	7.080000	-0.189185
	7.085000	-0.093812
	7.090000	-0.304290
	7.095000	-0.406241
	7.100000	-0.202340
	7.105000	-0.103678
	7.110000	-0.320734
	7.115000	-0.419395
	7.120000	-0.208917
	7.125000	-0.113544
	7.130000	-0.327311
	7.135000	-0.429262
	7.140000	-0.215495
	7.145000	-0.120122
	7.150000	-0.330600
	7.155000	-0.435839
	7.160000	-0.222072
	7.165000	-0.120122
	7.170000	-0.333889
	7.175000	-0.435839
	7.180000	-0.222072
	7.185000	-0.120122
	7.190000	-0.337177
	7.195000	-0.432550
	7.200000	-0.225361
	7.205000	-0.123410
	7.210000	-0.337177
	7.215000	-0.439128
	7.220000	-0.222072
	7.225000	-0.123410
	7.230000	-0.340466
	7.235000	-0.442417
	7.240000	-0.228650
	7.245000	-0.129988
	7.250000	-0.343755
	7.255000	-0.448994
	7.260000	-0.231938
	7.265000	-0.129988
	7.270000	-0.343755
	7.275000	-0.448994
	7.280000	-0.231938
	7.285000	-0.129988
	7.290000	-0.343755
	7.295000	-0.448994
	7.300000	-0.231938
	7.305000	-0.129988
	7.310000	-0.347044
	7.315000	-0.445705
	7.320000	-0.225361
	7.325000	-0.126699
	7.330000	-0.343755
	7.335000	-0.442417
	7.340000	-0.222072
	7.345000	-0.123410
	7.350000	-0.337177
	7.355000	-0.435839
	7.360000	-0.218783
	7.365000	-0.113544
	7.370000	-0.333889
	7.375000	-0.435839
	7.380000	-0.212206
	7.385000	-0.110256
	7.390000	-0.330600
	7.395000	-0.432550
	7.400000	-0.208917
	7.405000	-0.106967
	7.410000	-0.327311
	7.415000	-0.425973
	7.420000	-0.208917
	7.425000	-0.103678
	7.430000	-0.330600
	7.435000	-0.432550
	7.440000	-0.208917
	7.445000	-0.113544
	7.450000	-0.333889
	7.455000	-0.429262
	7.460000	-0.212206
	7.465000	-0.110256
	7.470000	-0.330600
	7.475000	-0.429262
	7.480000	-0.212206
	7.485000	-0.110256
	7.490000	-0.333889
	7.495000	-0.432550
	7.500000	-0.208917
	7.505000	-0.113544
	7.510000	-0.330600
	7.515000	-0.432550
	7.520000	-0.208917
	7.525000	-0.106967
	7.530000	-0.333889
	7.535000	-0.439128
	7.540000	-0.208917
	7.545000	-0.110256
	7.550000	-0.333889
	7.555000	-0.435839
	7.560000	-0.205628
	7.565000	-0.106967
	7.570000	-0.327311
	7.575000	-0.432550
	7.580000	-0.202340
	7.585000	-0.103678
	7.590000	-0.324023
	7.595000	-0.422684
	7.600000	-0.202340
	7.605000	-0.103678
	7.610000	-0.324023
	7.615000	-0.422684
	7.620000	-0.195762
	7.625000	-0.097101
	7.630000	-0.320734
	7.635000	-0.416107
	7.640000	-0.195762
	7.645000	-0.097101
	7.650000	-0.320734
	7.655000	-0.419395
	7.660000	-0.199051
	7.665000	-0.090523
	7.670000	-0.320734
	7.675000	-0.419395
	7.680000	-0.195762
	7.685000	-0.093812
	7.690000	-0.327311
	7.695000	-0.419395
	7.700000	-0.195762
	7.705000	-0.100389
	7.710000	-0.320734
	7.715000	-0.416107
	7.720000	-0.199051
	7.725000	-0.097101
	7.730000	-0.324023
	7.735000	-0.422684
	7.740000	-0.202340
	7.745000	-0.097101
	7.750000	-0.320734
	7.755000	-0.419395
	7.760000	-0.195762
	7.765000	-0.097101
	7.770000	-0.324023
	7.775000	-0.425973
	7.780000	-0.195762
	7.785000	-0.100389
	7.790000	-0.327311
	7.795000	-0.429262
	7.800000	-0.195762
	7.805000	-0.103678
	7.810000	-0.327311
	7.815000	-0.429262
	7.820000	-0.199051
	7.825000	-0.106967
	7.830000	-0.327311
	7.835000	-0.429262
	7.840000	-0.205628
	7.845000	-0.106967
	7.850000	-0.333889
	7.855000	-0.435839
	7.860000	-0.205628
	7.865000	-0.106967
	7.870000	-0.337177
	7.875000	-0.429262
	7.880000	-0.205628
	7.885000	-0.106967
	7.890000	-0.337177
	7.895000	-0.435839
	7.900000	-0.212206
	7.905000	-0.106967
	7.910000	-0.337177
	7.915000	-0.432550
	7.920000	-0.205628
	7.925000	-0.116833
	7.930000	-0.337177
	7.935000	-0.435839
	7.940000	-0.212206
	7.945000	-0.110256
	7.950000	-0.343755
	7.955000	-0.435839
	7.960000	-0.208917
	7.965000	-0.113544
	7.970000	-0.340466
	7.975000	-0.432550
	7.980000	-0.205628
	7.985000	-0.106967
	7.990000	-0.330600
	7.995000	-0.429262
	8.000000	-0.202340
	8.005000	-0.106967
	8.010000	-0.333889
	8.015000	-0.432550
	8.020000	-0.205628
	8.025000	-0.106967
	8.030000	-0.333889
	8.035000	-0.422684
	8.040000	-0.202340
	8.045000	-0.106967
	8.050000	-0.337177
	8.055000	-0.429262
	8.060000	-0.199051
	8.065000	-0.110256
	8.070000	-0.337177
	8.075000	-0.429262
	8.080000	-0.202340
	8.085000	-0.106967
	8.090000	-0.337177
	8.095000	-0.425973
	8.100000	-0.199051
	8.105000	-0.110256
	8.110000	-0.333889
	8.115000	-0.432550
	8.120000	-0.202340
	8.125000	-0.110256
	8.130000	-0.340466
	8.135000	-0.432550
	8.140000	-0.208917
	8.145000	-0.113544
	8.150000	-0.340466
	8.155000	-0.439128
	8.160000	-0.205628
	8.165000	-0.116833
	8.170000	-0.337177
	8.175000	-0.429262
	8.180000	-0.199051
	8.185000	-0.110256
	8.190000	-0.327311
	8.195000	-0.419395
	8.200000	-0.185896
	8.205000	-0.087234
	8.210000	-0.307579
	8.215000	-0.393086
	8.220000	-0.159586
	8.225000	-0.057636
	8.230000	-0.274692
	8.235000	-0.363487
	8.240000	-0.123410
	8.245000	-0.028037
	8.250000	-0.251671
	8.255000	-0.337177
	8.260000	-0.110256
	8.265000	-0.011594
	8.270000	-0.245093
	8.275000	-0.330600
	8.280000	-0.097101
	8.285000	-0.018171
	8.290000	-0.274692
	8.295000	-0.373353
	8.300000	-0.139854
	8.305000	-0.074080
	8.310000	-0.330600
	8.315000	-0.429262
	8.320000	-0.199051
	8.325000	-0.123410
	8.330000	-0.379931
	8.335000	-0.468726
	8.340000	-0.225361
	8.345000	-0.143143
	8.350000	-0.389797
	8.355000	-0.475304
	8.360000	-0.225361
	8.365000	-0.136565
	8.370000	-0.386508
	8.375000	-0.462149
	8.380000	-0.215495
	8.385000	-0.133277
	8.390000	-0.373353
	8.395000	-0.455571
	8.400000	-0.205628
	8.405000	-0.120122
	8.410000	-0.370065
	8.415000	-0.448994
	8.420000	-0.199051
	8.425000	-0.120122
	8.430000	-0.373353
	8.435000	-0.448994
	8.440000	-0.199051
	8.445000	-0.123410
	8.450000	-0.373353
	8.455000	-0.455571
	8.460000	-0.205628
	8.465000	-0.129988
	8.470000	-0.383220
	8.475000	-0.458860
	8.480000	-0.222072
	8.485000	-0.136565
	8.490000	-0.386508
	8.495000	-0.472015
	8.500000	-0.235227
	8.505000	-0.159586
	8.510000	-0.396374
	8.515000	-0.488459
	8.520000	-0.251671
	8.525000	-0.172741
	8.530000	-0.412818
	8.535000	-0.501614
	8.540000	-0.268114
	8.545000	-0.185896
	8.550000	-0.419395
	8.555000	-0.504902
	8.560000	-0.271403
	8.565000	-0.182607
	8.570000	-0.416107
	8.575000	-0.498325
	8.580000	-0.254959
	8.585000	-0.166164
	8.590000	-0.402952
	8.595000	-0.472015
	8.600000	-0.235227
	8.605000	-0.143143
	8.610000	-0.376642
	8.615000	-0.448994
	8.620000	-0.208917
	8.625000	-0.120122
	8.630000	-0.353621
	8.635000	-0.429262
	8.640000	-0.195762
	8.645000	-0.113544
	8.650000	-0.343755
	8.655000	-0.429262
	8.660000	-0.189185
	8.665000	-0.113544
	8.670000	-0.350332
	8.675000	-0.432550
	8.680000	-0.199051
	8.685000	-0.120122
	8.690000	-0.363487
	8.695000	-0.445705
	8.700000	-0.212206
	8.705000	-0.129988
	8.710000	-0.370065
	8.715000	-0.452283
	8.720000	-0.218783
	8.725000	-0.133277
	8.730000	-0.366776
	8.735000	-0.448994
	8.740000	-0.202340
	8.745000	-0.126699
	8.750000	-0.363487
	8.755000	-0.439128
	8.760000	-0.199051
	8.765000	-0.116833
	8.770000	-0.353621
	8.775000	-0.432550
	8.780000	-0.189185
	8.785000	-0.116833
	8.790000	-0.353621
	8.795000	-0.435839
	8.800000	-0.195762
	8.805000	-0.120122
	8.810000	-0.363487
	8.815000	-0.442417
	8.820000	-0.202340
	8.825000	-0.126699
	8.830000	-0.373353
	8.835000	-0.445705
	8.840000	-0.218783
	8.845000	-0.139854
	8.850000	-0.383220
	8.855000	-0.455571
	8.860000	-0.222072
	8.865000	-0.146431
	8.870000	-0.389797
	8.875000	-0.462149
	8.880000	-0.225361
	8.885000	-0.146431
	8.890000	-0.389797
	8.895000	-0.462149
	8.900000	-0.218783
	8.905000	-0.143143
	8.910000	-0.383220
	8.915000	-0.455571
	8.920000	-0.212206
	8.925000	-0.139854
	8.930000	-0.376642
	8.935000	-0.448994
	8.940000	-0.205628
	8.945000	-0.136565
	8.950000	-0.366776
	8.955000	-0.445705
	8.960000	-0.202340
	8.965000	-0.126699
	8.970000	-0.366776
	8.975000	-0.442417
	8.980000	-0.195762
	8.985000	-0.126699
	8.990000	-0.366776
	8.995000	-0.445705
	9.000000	-0.202340
	9.005000	-0.129988
	9.010000	-0.376642
	9.015000	-0.445705
	9.020000	-0.205628
	9.025000	-0.129988
	9.030000	-0.376642
	9.035000	-0.448994
	9.040000	-0.212206
	9.045000	-0.136565
	9.050000	-0.376642
	9.055000	-0.452283
	9.060000	-0.205628
	9.065000	-0.139854
	9.070000	-0.383220
	9.075000	-0.452283
	9.080000	-0.208917
	9.085000	-0.133277
	9.090000	-0.376642
	9.095000	-0.448994
	9.100000	-0.205628
	9.105000	-0.133277
	9.110000	-0.373353
	9.115000	-0.445705
	9.120000	-0.202340
	9.125000	-0.129988
	9.130000	-0.376642
	9.135000	-0.442417
	9.140000	-0.202340
	9.145000	-0.133277
	9.150000	-0.373353
	9.155000	-0.445705
	9.160000	-0.208917
	9.165000	-0.136565
	9.170000	-0.379931
	9.175000	-0.452283
	9.180000	-0.212206
	9.185000	-0.139854
	9.190000	-0.386508
	9.195000	-0.452283
	9.200000	-0.208917
	9.205000	-0.143143
	9.210000	-0.389797
	9.215000	-0.455571
	9.220000	-0.215495
	9.225000	-0.149720
	9.230000	-0.389797
	9.235000	-0.458860
	9.240000	-0.208917
	9.245000	-0.143143
	9.250000	-0.389797
	9.255000	-0.452283
	9.260000	-0.212206
	9.265000	-0.146431
	9.270000	-0.393086
	9.275000	-0.452283
	9.280000	-0.212206
	9.285000	-0.146431
	9.290000	-0.386508
	9.295000	-0.452283
	9.300000	-0.215495
	9.305000	-0.139854
	9.310000	-0.389797
	9.315000	-0.452283
	9.320000	-0.208917
	9.325000	-0.143143
	9.330000	-0.383220
	9.335000	-0.452283
	9.340000	-0.205628
	9.345000	-0.136565
	9.350000	-0.379931
	9.355000	-0.448994
	9.360000	-0.205628
	9.365000	-0.133277
	9.370000	-0.383220
	9.375000	-0.445705
	9.380000	-0.202340
	9.385000	-0.133277
	9.390000	-0.379931
	9.395000	-0.445705
	9.400000	-0.202340
	9.405000	-0.139854
	9.410000	-0.383220
	9.415000	-0.445705
	9.420000	-0.205628
	9.425000	-0.136565
	9.430000	-0.383220
	9.435000	-0.448994
	9.440000	-0.205628
	9.445000	-0.136565
	9.450000	-0.386508
	9.455000	-0.448994
	9.460000	-0.205628
	9.465000	-0.139854
	9.470000	-0.383220
	9.475000	-0.445705
	9.480000	-0.202340
	9.485000	-0.139854
	9.490000	-0.383220
	9.495000	-0.445705
	9.500000	-0.202340
	9.505000	-0.143143
	9.510000	-0.386508
	9.515000	-0.445705
	9.520000	-0.208917
	9.525000	-0.143143
	9.530000	-0.389797
	9.535000	-0.452283
	9.540000	-0.208917
	9.545000	-0.146431
	9.550000	-0.393086
	9.555000	-0.462149
	9.560000	-0.208917
	9.565000	-0.149720
	9.570000	-0.396374
	9.575000	-0.455571
	9.580000	-0.208917
	9.585000	-0.143143
	9.590000	-0.396374
	9.595000	-0.452283
	9.600000	-0.208917
	9.605000	-0.143143
	9.610000	-0.386508
	9.615000	-0.448994
	9.620000	-0.202340
	9.625000	-0.139854
	9.630000	-0.386508
	9.635000	-0.445705
	9.640000	-0.195762
	9.645000	-0.133277
	9.650000	-0.383220
	9.655000	-0.435839
	9.660000	-0.195762
	9.665000	-0.136565
	9.670000	-0.376642
	9.675000	-0.435839
	9.680000	-0.192474
	9.685000	-0.133277
	9.690000	-0.376642
	9.695000	-0.442417
	9.700000	-0.195762
	9.705000	-0.139854
	9.710000	-0.383220
	9.715000	-0.442417
	9.720000	-0.202340
	9.725000	-0.139854
	9.730000	-0.393086
	9.735000	-0.445705
	9.740000	-0.205628
	9.745000	-0.143143
	9.750000	-0.393086
	9.755000	-0.452283
	9.760000	-0.202340
	9.765000	-0.149720
	9.770000	-0.393086
	9.775000	-0.452283
	9.780000	-0.205628
	9.785000	-0.149720
	9.790000	-0.393086
	9.795000	-0.452283
	9.800000	-0.208917
	9.805000	-0.143143
	9.810000	-0.393086
	9.815000	-0.445705
	9.820000	-0.202340
	9.825000	-0.143143
	9.830000	-0.393086
	9.835000	-0.445705
	9.840000	-0.199051
	9.845000	-0.146431
	9.850000	-0.393086
	9.855000	-0.448994
	9.860000	-0.202340
	9.865000	-0.143143
	9.870000	-0.393086
	9.875000	-0.448994
	9.880000	-0.202340
	9.885000	-0.146431
	9.890000	-0.396374
	9.895000	-0.455571
	9.900000	-0.205628
	9.905000	-0.153009
	9.910000	-0.399663
	9.915000	-0.458860
	9.920000	-0.212206
	9.925000	-0.153009
	9.930000	-0.406241
	9.935000	-0.462149
	9.940000	-0.212206
	9.945000	-0.159586
	9.950000	-0.402952
	9.955000	-0.458860
	9.960000	-0.208917
	9.965000	-0.149720
	9.970000	-0.399663
	9.975000	-0.452283
	9.980000	-0.205628
	9.985000	-0.149720
	9.990000	-0.396374
	9.995000	-0.445705
	10.000000	-0.202340
	10.005000	-0.146431
	10.010000	-0.393086
	10.015000	-0.442417
	10.020000	-0.199051
	10.025000	-0.139854
	10.030000	-0.389797
	10.035000	-0.442417
	10.040000	-0.192474
	10.045000	-0.143143
	10.050000	-0.389797
	10.055000	-0.442417
	10.060000	-0.199051
	10.065000	-0.146431
	10.070000	-0.396374
	10.075000	-0.452283
	10.080000	-0.202340
	10.085000	-0.156298
	10.090000	-0.399663
	10.095000	-0.452283
	10.100000	-0.212206
	10.105000	-0.159586
	10.110000	-0.409529
	10.115000	-0.455571
	10.120000	-0.218783
	10.125000	-0.166164
	10.130000	-0.406241
	10.135000	-0.462149
	10.140000	-0.218783
	10.145000	-0.166164
	10.150000	-0.406241
	10.155000	-0.458860
	10.160000	-0.218783
	10.165000	-0.172741
	10.170000	-0.406241
	10.175000	-0.462149
	10.180000	-0.218783
	10.185000	-0.169453
	10.190000	-0.409529
	10.195000	-0.462149
	10.200000	-0.222072
	10.205000	-0.169453
	10.210000	-0.409529
	10.215000	-0.458860
	10.220000	-0.218783
	10.225000	-0.162875
	10.230000	-0.409529
	10.235000	-0.458860
	10.240000	-0.225361
	10.245000	-0.169453
	10.250000	-0.409529
	10.255000	-0.462149
	10.260000	-0.222072
	10.265000	-0.176030
	10.270000	-0.416107
	10.275000	-0.462149
	10.280000	-0.225361
	10.285000	-0.176030
	10.290000	-0.416107
	10.295000	-0.462149
	10.300000	-0.218783
	10.305000	-0.166164
	10.310000	-0.406241
	10.315000	-0.448994
	10.320000	-0.208917
	10.325000	-0.149720
	10.330000	-0.389797
	10.335000	-0.432550
	10.340000	-0.185896
	10.345000	-0.126699
	10.350000	-0.360198
	10.355000	-0.399663
	10.360000	-0.149720
	10.365000	-0.087234
	10.370000	-0.324023
	10.375000	-0.356910
	10.380000	-0.110256
	10.385000	-0.047770
	10.390000	-0.284558
	10.395000	-0.337177
	10.400000	-0.106967
	10.405000	-0.064213
	10.410000	-0.320734
	10.415000	-0.373353
	10.420000	-0.133277
	10.425000	-0.103678
	10.430000	-0.360198
	10.435000	-0.409529
	10.440000	-0.169453
	10.445000	-0.129988
	10.450000	-0.396374
	10.455000	-0.442417
	10.460000	-0.195762
	10.465000	-0.172741
	10.470000	-0.439128
	10.475000	-0.481881
	10.480000	-0.228650
	10.485000	-0.199051
	10.490000	-0.462149
	10.495000	-0.495036
	10.500000	-0.238516
	10.505000	-0.205628
	10.510000	-0.462149
	10.515000	-0.495036
	10.520000	-0.225361
	10.525000	-0.195762
	10.530000	-0.448994
	10.535000	-0.478592
	10.540000	-0.212206
	10.545000	-0.176030
	10.550000	-0.435839
	10.555000	-0.465438
	10.560000	-0.195762
	10.565000	-0.162875
	10.570000	-0.425973
	10.575000	-0.455571
	10.580000	-0.195762
	10.585000	-0.162875
	10.590000	-0.432550
	10.595000	-0.468726
	10.600000	-0.222072
	10.605000	-0.192474
	10.610000	-0.458860
	10.615000	-0.498325
	10.620000	-0.254959
	10.625000	-0.231938
	10.630000	-0.495036
	10.635000	-0.537790
	10.640000	-0.291135
	10.645000	-0.261537
	10.650000	-0.521346
	10.655000	-0.554233
	10.660000	-0.301001
	10.665000	-0.264826
	10.670000	-0.508191
	10.675000	-0.544367
	10.680000	-0.287847
	10.685000	-0.241804
	10.690000	-0.481881
	10.695000	-0.501614
	10.700000	-0.238516
	10.705000	-0.192474
	10.710000	-0.432550
	10.715000	-0.455571
	10.720000	-0.195762
	10.725000	-0.146431
	10.730000	-0.386508
	10.735000	-0.422684
	10.740000	-0.166164
	10.745000	-0.123410
	10.750000	-0.376642
	10.755000	-0.406241
	10.760000	-0.159586
	10.765000	-0.129988
	10.770000	-0.383220
	10.775000	-0.425973
	10.780000	-0.185896
	10.785000	-0.159586
	10.790000	-0.412818
	10.795000	-0.462149
	10.800000	-0.218783
	10.805000	-0.189185
	10.810000	-0.448994
	10.815000	-0.488459
	10.820000	-0.245093
	10.825000	-0.212206
	10.830000	-0.462149
	10.835000	-0.495036
	10.840000	-0.248382
	10.845000	-0.208917
	10.850000	-0.458860
	10.855000	-0.488459
	10.860000	-0.231938
	10.865000	-0.195762
	10.870000	-0.435839
	10.875000	-0.465438
	10.880000	-0.212206
	10.885000	-0.172741
	10.890000	-0.422684
	10.895000	-0.448994
	10.900000	-0.199051
	10.905000	-0.162875
	10.910000	-0.416107
	10.915000	-0.445705
	10.920000	-0.199051
	10.925000	-0.166164
	10.930000	-0.422684
	10.935000	-0.452283
	10.940000	-0.205628
	10.945000	-0.179319
	10.950000	-0.435839
	10.955000	-0.465438
	10.960000	-0.218783
	10.965000	-0.192474
	10.970000	-0.442417
	10.975000	-0.475304
	10.980000	-0.225361
	10.985000	-0.192474
	10.990000	-0.448994
	10.995000	-0.475304
	11.000000	-0.225361
	11.005000	-0.189185
	11.010000	-0.445705
	11.015000	-0.472015
	11.020000	-0.218783
	11.025000	-0.185896
	11.030000	-0.435839
	11.035000	-0.465438
	11.040000	-0.215495
	11.045000	-0.182607
	11.050000	-0.435839
	11.055000	-0.458860
	11.060000	-0.208917
	11.065000	-0.179319
	11.070000	-0.432550
	11.075000	-0.458860
	11.080000	-0.208917
	11.085000	-0.182607
	11.090000	-0.435839
	11.095000	-0.462149
	11.100000	-0.208917
	11.105000	-0.185896
	11.110000	-0.435839
	11.115000	-0.462149
	11.120000	-0.218783
	11.125000	-0.189185
	11.130000	-0.439128
	11.135000	-0.462149
	11.140000	-0.218783
	11.145000	-0.192474
	11.150000	-0.445705
	11.155000	-0.465438
	11.160000	-0.218783
	11.165000	-0.195762
	11.170000	-0.445705
	11.175000	-0.465438
	11.180000	-0.218783
	11.185000	-0.189185
	11.190000	-0.435839
	11.195000	-0.462149
	11.200000	-0.208917
	11.205000	-0.185896
	11.210000	-0.439128
	11.215000	-0.462149
	11.220000	-0.208917
	11.225000	-0.185896
	11.230000	-0.435839
	11.235000	-0.455571
	11.240000	-0.212206
	11.245000	-0.182607
	11.250000	-0.442417
	11.255000	-0.462149
	11.260000	-0.208917
	11.265000	-0.189185
	11.270000	-0.439128
	11.275000	-0.462149
	11.280000	-0.212206
	11.285000	-0.185896
	11.290000	-0.439128
	11.295000	-0.458860
	11.300000	-0.212206
	11.305000	-0.192474
	11.310000	-0.442417
	11.315000	-0.462149
	11.320000	-0.218783
	11.325000	-0.192474
	11.330000	-0.439128
	11.335000	-0.462149
	11.340000	-0.215495
	11.345000	-0.189185
	11.350000	-0.435839
	11.355000	-0.458860
	11.360000	-0.212206
	11.365000	-0.185896
	11.370000	-0.429262
	11.375000	-0.452283
	11.380000	-0.208917
	11.385000	-0.182607
	11.390000	-0.429262
	11.395000	-0.448994
	11.400000	-0.205628
	11.405000	-0.182607
	11.410000	-0.429262
	11.415000	-0.452283
	11.420000	-0.208917
	11.425000	-0.189185
	11.430000	-0.439128
	11.435000	-0.455571
	11.440000	-0.215495
	11.445000	-0.192474
	11.450000	-0.442417
	11.455000	-0.465438
	11.460000	-0.222072
	11.465000	-0.199051
	11.470000	-0.445705
	11.475000	-0.465438
	11.480000	-0.225361
	11.485000	-0.202340
	11.490000	-0.448994
	11.495000	-0.468726
	11.500000	-0.222072
	11.505000	-0.205628
	11.510000	-0.445705
	11.515000	-0.465438
	11.520000	-0.215495
	11.525000	-0.199051
	11.530000	-0.442417
	11.535000	-0.465438
	11.540000	-0.215495
	11.545000	-0.199051
	11.550000	-0.442417
	11.555000	-0.462149
	11.560000	-0.208917
	11.565000	-0.192474
	11.570000	-0.442417
	11.575000	-0.458860
	11.580000	-0.215495
	11.585000	-0.192474
	11.590000	-0.442417
	11.595000	-0.455571
	11.600000	-0.215495
	11.605000	-0.192474
	11.610000	-0.442417
	11.615000	-0.462149
	11.620000	-0.212206
	11.625000	-0.192474
	11.630000	-0.442417
	11.635000	-0.458860
	11.640000	-0.215495
	11.645000	-0.199051
	11.650000	-0.442417
	11.655000	-0.458860
	11.660000	-0.212206
	11.665000	-0.192474
	11.670000	-0.439128
	11.675000	-0.458860
	11.680000	-0.212206
	11.685000	-0.192474
	11.690000	-0.439128
	11.695000	-0.455571
	11.700000	-0.215495
	11.705000	-0.195762
	11.710000	-0.442417
	11.715000	-0.458860
	11.720000	-0.215495
	11.725000	-0.192474
	11.730000	-0.448994
	11.735000	-0.462149
	11.740000	-0.215495
	11.745000	-0.205628
	11.750000	-0.448994
	11.755000	-0.465438
	11.760000	-0.222072
	11.765000	-0.208917
	11.770000	-0.448994
	11.775000	-0.468726
	11.780000	-0.222072
	11.785000	-0.208917
	11.790000	-0.455571
	11.795000	-0.472015
	11.800000	-0.218783
	11.805000	-0.208917
	11.810000	-0.452283
	11.815000	-0.465438
	11.820000	-0.218783
	11.825000	-0.199051
	11.830000	-0.448994
	11.835000	-0.462149
	11.840000	-0.215495
	11.845000	-0.205628
	11.850000	-0.445705
	11.855000	-0.455571
	11.860000	-0.215495
	11.865000	-0.205628
	11.870000	-0.448994
	11.875000	-0.462149
	11.880000	-0.215495
	11.885000	-0.205628
	11.890000	-0.452283
	11.895000	-0.462149
	11.900000	-0.215495
	11.905000	-0.205628
	11.910000	-0.448994
	11.915000	-0.465438
	11.920000	-0.218783
	11.925000	-0.208917
	11.930000	-0.452283
	11.935000	-0.465438
	11.940000	-0.218783
	11.945000	-0.208917
	11.950000	-0.452283
	11.955000	-0.468726
	11.960000	-0.218783
	11.965000	-0.208917
	11.970000	-0.458860
	11.975000	-0.462149
	11.980000	-0.215495
	11.985000	-0.208917
	11.990000	-0.448994
	11.995000	-0.465438
	12.000000	-0.218783
	12.005000	-0.205628
	12.010000	-0.455571
	12.015000	-0.462149
	12.020000	-0.218783
	12.025000	-0.205628
	12.030000	-0.455571
	12.035000	-0.468726
	12.040000	-0.218783
	12.045000	-0.212206
	12.050000	-0.455571
	12.055000	-0.462149
	12.060000	-0.218783
	12.065000	-0.212206
	12.070000	-0.455571
	12.075000	-0.462149
	12.080000	-0.215495
	12.085000	-0.208917
	12.090000	-0.455571
	12.095000	-0.462149
	12.100000	-0.222072
	12.105000	-0.212206
	12.110000	-0.458860
	12.115000	-0.462149
	12.120000	-0.222072
	12.125000	-0.215495
	12.130000	-0.462149
	12.135000	-0.462149
	12.140000	-0.222072
	12.145000	-0.215495
	12.150000	-0.462149
	12.155000	-0.468726
	12.160000	-0.222072
	12.165000	-0.212206
	12.170000	-0.458860
	12.175000	-0.465438
	12.180000	-0.215495
	12.185000	-0.208917
	12.190000	-0.455571
	12.195000	-0.462149
	12.200000	-0.215495
	12.205000	-0.208917
	12.210000	-0.452283
	12.215000	-0.455571
	12.220000	-0.212206
	12.225000	-0.202340
	12.230000	-0.448994
	12.235000	-0.455571
	12.240000	-0.208917
	12.245000	-0.202340
	12.250000	-0.448994
	12.255000	-0.452283
	12.260000	-0.215495
	12.265000	-0.205628
	12.270000	-0.452283
	12.275000	-0.462149
	12.280000	-0.212206
	12.285000	-0.212206
	12.290000	-0.455571
	12.295000	-0.462149
	12.300000	-0.218783
	12.305000	-0.212206
	12.310000	-0.468726
	12.315000	-0.468726
	12.320000	-0.222072
	12.325000	-0.225361
	12.330000	-0.468726
	12.335000	-0.472015
	12.340000	-0.231938
	12.345000	-0.228650
	12.350000	-0.472015
	12.355000	-0.478592
	12.360000	-0.225361
	12.365000	-0.228650
	12.370000	-0.468726
	12.375000	-0.468726
	12.380000	-0.218783
	12.385000	-0.208917
	12.390000	-0.448994
	12.395000	-0.445705
	12.400000	-0.195762
	12.405000	-0.189185
	12.410000	-0.429262
	12.415000	-0.422684
	12.420000	-0.169453
	12.425000	-0.162875
	12.430000	-0.396374
	12.435000	-0.386508
	12.440000	-0.133277
	12.445000	-0.120122
	12.450000	-0.356910
	12.455000	-0.343755
	12.460000	-0.093812
	12.465000	-0.090523
	12.470000	-0.340466
	12.475000	-0.350332
	12.480000	-0.116833
	12.485000	-0.129988
	12.490000	-0.383220
	12.495000	-0.393086
	12.500000	-0.156298
	12.505000	-0.169453
	12.510000	-0.425973
	12.515000	-0.435839
	12.520000	-0.205628
	12.525000	-0.222072
	12.530000	-0.485170
	12.535000	-0.495036
	12.540000	-0.258248
	12.545000	-0.274692
	12.550000	-0.524635
	12.555000	-0.524635
	12.560000	-0.284558
	12.565000	-0.287847
	12.570000	-0.531212
	12.575000	-0.521346
	12.580000	-0.274692
	12.585000	-0.271403
	12.590000	-0.518057
	12.595000	-0.504902
	12.600000	-0.251671
	12.605000	-0.248382
	12.610000	-0.485170
	12.615000	-0.475304
	12.620000	-0.222072
	12.625000	-0.218783
	12.630000	-0.472015
	12.635000	-0.448994
	12.640000	-0.189185
	12.645000	-0.182607
	12.650000	-0.435839
	12.655000	-0.412818
	12.660000	-0.153009
	12.665000	-0.169453
	12.670000	-0.425973
	12.675000	-0.409529
	12.680000	-0.156298
	12.685000	-0.179319
	12.690000	-0.442417
	12.695000	-0.429262
	12.700000	-0.179319
	12.705000	-0.208917
	12.710000	-0.475304
	12.715000	-0.462149
	12.720000	-0.212206
	12.725000	-0.238516
	12.730000	-0.504902
	12.735000	-0.488459
	12.740000	-0.231938
	12.745000	-0.248382
	12.750000	-0.511480
	12.755000	-0.485170
	12.760000	-0.222072
	12.765000	-0.245093
	12.770000	-0.501614
	12.775000	-0.475304
	12.780000	-0.212206
	12.785000	-0.228650
	12.790000	-0.481881
	12.795000	-0.462149
	12.800000	-0.208917
	12.805000	-0.228650
	12.810000	-0.491747
	12.815000	-0.475304
	12.820000	-0.225361
	12.825000	-0.251671
	12.830000	-0.508191
	12.835000	-0.495036
	12.840000	-0.248382
	12.845000	-0.264826
	12.850000	-0.521346
	12.855000	-0.501614
	12.860000	-0.251671
	12.865000	-0.268114
	12.870000	-0.518057
	12.875000	-0.495036
	12.880000	-0.241804
	12.885000	-0.248382
	12.890000	-0.495036
	12.895000	-0.465438
	12.900000	-0.212206
	12.905000	-0.222072
	12.910000	-0.468726
	12.915000	-0.445705
	12.920000	-0.182607
	12.925000	-0.199051
	12.930000	-0.448994
	12.935000	-0.429262
	12.940000	-0.182607
	12.945000	-0.205628
	12.950000	-0.458860
	12.955000	-0.442417
	12.960000	-0.199051
	12.965000	-0.222072
	12.970000	-0.485170
	12.975000	-0.472015
	12.980000	-0.228650
	12.985000	-0.251671
	12.990000	-0.508191
	12.995000	-0.495036
	13.000000	-0.248382
	13.005000	-0.268114
	13.010000	-0.524635
	13.015000	-0.504902
	13.020000	-0.248382
	13.025000	-0.274692
	13.030000	-0.524635
	13.035000	-0.495036
	13.040000	-0.231938
	13.045000	-0.254959
	13.050000	-0.501614
	13.055000	-0.472015
	13.060000	-0.205628
	13.065000	-0.225361
	13.070000	-0.485170
	13.075000	-0.448994
	13.080000	-0.189185
	13.085000	-0.215495
	13.090000	-0.468726
	13.095000	-0.442417
	13.100000	-0.185896
	13.105000	-0.212206
	13.110000	-0.478592
	13.115000	-0.445705
	13.120000	-0.192474
	13.125000	-0.222072
	13.130000	-0.485170
	13.135000	-0.458860
	13.140000	-0.202340
	13.145000	-0.225361
	13.150000	-0.485170
	13.155000	-0.458860
	13.160000	-0.202340
	13.165000	-0.231938
	13.170000	-0.491747
	13.175000	-0.462149
	13.180000	-0.202340
	13.185000	-0.231938
	13.190000	-0.495036
	13.195000	-0.465438
	13.200000	-0.208917
	13.205000	-0.235227
	13.210000	-0.495036
	13.215000	-0.468726
	13.220000	-0.212206
	13.225000	-0.245093
	13.230000	-0.501614
	13.235000	-0.468726
	13.240000	-0.215495
	13.245000	-0.245093
	13.250000	-0.508191
	13.255000	-0.478592
	13.260000	-0.222072
	13.265000	-0.248382
	13.270000	-0.508191
	13.275000	-0.481881
	13.280000	-0.215495
	13.285000	-0.251671
	13.290000	-0.511480
	13.295000	-0.472015
	13.300000	-0.218783
	13.305000	-0.245093
	13.310000	-0.501614
	13.315000	-0.472015
	13.320000	-0.212206
	13.325000	-0.241804
	13.330000	-0.495036
	13.335000	-0.472015
	13.340000	-0.215495
	13.345000	-0.245093
	13.350000	-0.495036
	13.355000	-0.462149
	13.360000	-0.215495
	13.365000	-0.241804
	13.370000	-0.488459
	13.375000	-0.458860
	13.380000	-0.208917
	13.385000	-0.238516
	13.390000	-0.485170
	13.395000	-0.452283
	13.400000	-0.202340
	13.405000	-0.231938
	13.410000	-0.481881
	13.415000	-0.448994
	13.420000	-0.199051
	13.425000	-0.231938
	13.430000	-0.481881
	13.435000	-0.455571
	13.440000	-0.205628
	13.445000	-0.231938
	13.450000	-0.485170
	13.455000	-0.458860
	13.460000	-0.212206
	13.465000	-0.235227
	13.470000	-0.488459
	13.475000	-0.465438
	13.480000	-0.215495
	13.485000	-0.241804
	13.490000	-0.495036
	13.495000	-0.468726
	13.500000	-0.218783
	13.505000	-0.245093
	13.510000	-0.498325
	13.515000	-0.468726
	13.520000	-0.222072
	13.525000	-0.245093
	13.530000	-0.498325
	13.535000	-0.472015
	13.540000	-0.218783
	13.545000	-0.248382
	13.550000	-0.498325
	13.555000	-0.465438
	13.560000	-0.215495
	13.565000	-0.245093
	13.570000	-0.495036
	13.575000	-0.462149
	13.580000	-0.212206
	13.585000	-0.241804
	13.590000	-0.491747
	13.595000	-0.458860
	13.600000	-0.208917
	13.605000	-0.245093
	13.610000	-0.495036
	13.615000	-0.468726
	13.620000	-0.212206
	13.625000	-0.241804
	13.630000	-0.498325
	13.635000	-0.462149
	13.640000	-0.218783
	13.645000	-0.245093
	13.650000	-0.495036
	13.655000	-0.462149
	13.660000	-0.212206
	13.665000	-0.245093
	13.670000	-0.498325
	13.675000	-0.462149
	13.680000	-0.212206
	13.685000	-0.245093
	13.690000	-0.498325
	13.695000	-0.465438
	13.700000	-0.208917
	13.705000	-0.245093
	13.710000	-0.495036
	13.715000	-0.462149
	13.720000	-0.215495
	13.725000	-0.248382
	13.730000	-0.495036
	13.735000	-0.462149
	13.740000	-0.215495
	13.745000	-0.245093
	13.750000	-0.491747
	13.755000	-0.458860
	13.760000	-0.212206
	13.765000	-0.245093
	13.770000	-0.491747
	13.775000	-0.452283
	13.780000	-0.212206
	13.785000	-0.241804
	13.790000	-0.495036
	13.795000	-0.462149
	13.800000	-0.208917
	13.805000	-0.241804
	13.810000	-0.495036
	13.815000	-0.462149
	13.820000	-0.212206
	13.825000	-0.245093
	13.830000	-0.495036
	13.835000	-0.462149
	13.840000	-0.218783
	13.845000	-0.248382
	13.850000	-0.501614
	13.855000	-0.465438
	13.860000	-0.215495
	13.865000	-0.251671
	13.870000	-0.501614
	13.875000	-0.465438
	13.880000	-0.218783
	13.885000	-0.248382
	13.890000	-0.498325
	13.895000	-0.458860
	13.900000	-0.215495
	13.905000	-0.251671
	13.910000	-0.501614
	13.915000	-0.462149
	13.920000	-0.215495
	13.925000	-0.248382
	13.930000	-0.495036
	13.935000	-0.458860
	13.940000	-0.202340
	13.945000	-0.241804
	13.950000	-0.498325
	13.955000	-0.452283
	13.960000	-0.199051
	13.965000	-0.245093
	13.970000	-0.501614
	13.975000	-0.448994
	13.980000	-0.195762
	13.985000	-0.238516
	13.990000	-0.495036
	13.995000	-0.452283
	14.000000	-0.199051
	14.005000	-0.245093
	14.010000	-0.498325
	14.015000	-0.452283
	14.020000	-0.205628
	14.025000	-0.248382
	14.030000	-0.504902
	14.035000	-0.458860
	14.040000	-0.205628
	14.045000	-0.254959
	14.050000	-0.508191
	14.055000	-0.462149
	14.060000	-0.205628
	14.065000	-0.254959
	14.070000	-0.511480
	14.075000	-0.465438
	14.080000	-0.208917
	14.085000	-0.254959
	14.090000	-0.508191
	14.095000	-0.462149
	14.100000	-0.205628
	14.105000	-0.248382
	14.110000	-0.508191
	14.115000	-0.455571
	14.120000	-0.202340
	14.125000	-0.248382
	14.130000	-0.504902
	14.135000	-0.458860
	14.140000	-0.205628
	14.145000	-0.248382
	14.150000	-0.501614
	14.155000	-0.455571
	14.160000	-0.205628
	14.165000	-0.251671
	14.170000	-0.508191
	14.175000	-0.455571
	14.180000	-0.205628
	14.185000	-0.251671
	14.190000	-0.511480
	14.195000	-0.458860
	14.200000	-0.208917
	14.205000	-0.251671
	14.210000	-0.508191
	14.215000	-0.458860
	14.220000	-0.208917
	14.225000	-0.251671
	14.230000	-0.508191
	14.235000	-0.458860
	14.240000	-0.205628
	14.245000	-0.251671
	14.250000	-0.508191
	14.255000	-0.455571
	14.260000	-0.202340
	14.265000	-0.254959
	14.270000	-0.511480
	14.275000	-0.458860
	14.280000	-0.202340
	14.285000	-0.251671
	14.290000	-0.508191
	14.295000	-0.458860
	14.300000	-0.202340
	14.305000	-0.251671
	14.310000	-0.508191
	14.315000	-0.458860
	14.320000	-0.202340
	14.325000	-0.248382
	14.330000	-0.504902
	14.335000	-0.455571
	14.340000	-0.205628
	14.345000	-0.248382
	14.350000	-0.498325
	14.355000	-0.452283
	14.360000	-0.208917
	14.365000	-0.251671
	14.370000	-0.504902
	14.375000	-0.452283
	14.380000	-0.208917
	14.385000	-0.248382
	14.390000	-0.498325
	14.395000	-0.448994
	14.400000	-0.205628
	14.405000	-0.245093
	14.410000	-0.498325
	14.415000	-0.452283
	14.420000	-0.205628
	14.425000	-0.254959
	14.430000	-0.514768
	14.435000	-0.455571
	14.440000	-0.199051
	14.445000	-0.254959
	14.450000	-0.514768
	14.455000	-0.455571
	14.460000	-0.202340
	14.465000	-0.264826
	14.470000	-0.518057
	14.475000	-0.462149
	14.480000	-0.208917
	14.485000	-0.264826
	14.490000	-0.521346
	14.495000	-0.462149
	14.500000	-0.208917
	14.505000	-0.264826
	14.510000	-0.518057
	14.515000	-0.465438
	14.520000	-0.205628
	14.525000	-0.261537
	14.530000	-0.521346
	14.535000	-0.458860
	14.540000	-0.205628
	14.545000	-0.258248
	14.550000	-0.514768
	14.555000	-0.462149
	14.560000	-0.208917
	14.565000	-0.251671
	14.570000	-0.501614
	14.575000	-0.455571
	14.580000	-0.208917
	14.585000	-0.258248
	14.590000	-0.501614
	14.595000	-0.452283
	14.600000	-0.212206
	14.605000	-0.258248
	14.610000	-0.508191
	14.615000	-0.458860
	14.620000	-0.208917
	14.625000	-0.261537
	14.630000	-0.508191
	14.635000	-0.462149
	14.640000	-0.218783
	14.645000	-0.271403
	14.650000	-0.521346
	14.655000	-0.472015
	14.660000	-0.228650
	14.665000	-0.277980
	14.670000	-0.521346
	14.675000	-0.481881
	14.680000	-0.222072
	14.685000	-0.271403
	14.690000	-0.514768
	14.695000	-0.462149
	14.700000	-0.208917
	14.705000	-0.248382
	14.710000	-0.481881
	14.715000	-0.425973
	14.720000	-0.172741
	14.725000	-0.205628
	14.730000	-0.435839
	14.735000	-0.383220
	14.740000	-0.129988
	14.745000	-0.156298
	14.750000	-0.396374
	14.755000	-0.340466
	14.760000	-0.106967
	14.765000	-0.156298
	14.770000	-0.416107
	14.775000	-0.376642
	14.780000	-0.143143
	14.785000	-0.195762
	14.790000	-0.448994
	14.795000	-0.406241
	14.800000	-0.172741
	14.805000	-0.228650
	14.810000	-0.478592
	14.815000	-0.435839
	14.820000	-0.199051
	14.825000	-0.248382
	14.830000	-0.498325
	14.835000	-0.448994
	14.840000	-0.208917
	14.845000	-0.264826
	14.850000	-0.511480
	14.855000	-0.462149
	14.860000	-0.215495
	14.865000	-0.264826
	14.870000	-0.514768
	14.875000	-0.458860
	14.880000	-0.212206
	14.885000	-0.271403
	14.890000	-0.518057
	14.895000	-0.452283
	14.900000	-0.199051
	14.905000	-0.251671
	14.910000	-0.504902
	14.915000	-0.439128
	14.920000	-0.192474
	14.925000	-0.251671
	14.930000	-0.504902
	14.935000	-0.445705
	14.940000	-0.195762
	14.945000	-0.258248
	14.950000	-0.508191
	14.955000	-0.458860
	14.960000	-0.218783
	14.965000	-0.281269
	14.970000	-0.531212
	14.975000	-0.488459
	14.980000	-0.248382
	14.985000	-0.314156
	14.990000	-0.567388
	14.995000	-0.514768
	15.000000	-0.274692
	15.005000	-0.337177
	15.010000	-0.580543
	15.015000	-0.527923
	15.020000	-0.281269
	15.025000	-0.330600
	15.030000	-0.573965
	15.035000	-0.514768
	15.040000	-0.268114
	15.045000	-0.314156
	15.050000	-0.554233
	15.055000	-0.488459
	15.060000	-0.241804
	15.065000	-0.291135
	15.070000	-0.527923
	15.075000	-0.462149
	15.080000	-0.215495
	15.085000	-0.264826
	15.090000	-0.504902
	15.095000	-0.442417
	15.100000	-0.192474
	15.105000	-0.241804
	15.110000	-0.485170
	15.115000	-0.425973
	15.120000	-0.182607
	15.125000	-0.235227
	15.130000	-0.478592
	15.135000	-0.425973
	15.140000	-0.185896
	15.145000	-0.245093
	15.150000	-0.488459
	15.155000	-0.432550
	15.160000	-0.185896
	15.165000	-0.258248
	15.170000	-0.514768
	15.175000	-0.458860
	15.180000	-0.215495
	15.185000	-0.287847
	15.190000	-0.541078
	15.195000	-0.478592
	15.200000	-0.235227
	15.205000	-0.304290
	15.210000	-0.557522
	15.215000	-0.488459
	15.220000	-0.238516
	15.225000	-0.304290
	15.230000	-0.554233
	15.235000	-0.481881
	15.240000	-0.231938
	15.245000	-0.287847
	15.250000	-0.537790
	15.255000	-0.462149
	15.260000	-0.212206
	15.265000	-0.268114
	15.270000	-0.511480
	15.275000	-0.442417
	15.280000	-0.185896
	15.285000	-0.251671
	15.290000	-0.498325
	15.295000	-0.429262
	15.300000	-0.182607
	15.305000	-0.248382
	15.310000	-0.501614
	15.315000	-0.432550
	15.320000	-0.192474
	15.325000	-0.261537
	15.330000	-0.514768
	15.335000	-0.455571
	15.340000	-0.212206
	15.345000	-0.284558
	15.350000	-0.537790
	15.355000	-0.478592
	15.360000	-0.228650
	15.365000	-0.301001
	15.370000	-0.550944
	15.375000	-0.481881
	15.380000	-0.231938
	15.385000	-0.304290
	15.390000	-0.547656
	15.395000	-0.475304
	15.400000	-0.228650
	15.405000	-0.291135
	15.410000	-0.537790
	15.415000	-0.465438
	15.420000	-0.218783
	15.425000	-0.277980
	15.430000	-0.524635
	15.435000	-0.455571
	15.440000	-0.212206
	15.445000	-0.271403
	15.450000	-0.521346
	15.455000	-0.452283
	15.460000	-0.208917
	15.465000	-0.268114
	15.470000	-0.521346
	15.475000	-0.455571
	15.480000	-0.208917
	15.485000	-0.277980
	15.490000	-0.524635
	15.495000	-0.462149
	15.500000	-0.215495
	15.505000	-0.274692
	15.510000	-0.527923
	15.515000	-0.455571
	15.520000	-0.215495
	15.525000	-0.277980
	15.530000	-0.524635
	15.535000	-0.455571
	15.540000	-0.212206
	15.545000	-0.271403
	15.550000	-0.521346
	15.555000	-0.448994
	15.560000	-0.202340
	15.565000	-0.271403
	15.570000	-0.511480
	15.575000	-0.445705
	15.580000	-0.202340
	15.585000	-0.264826
	15.590000	-0.511480
	15.595000	-0.445705
	15.600000	-0.202340
	15.605000	-0.268114
	15.610000	-0.514768
	15.615000	-0.448994
	15.620000	-0.205628
	15.625000	-0.277980
	15.630000	-0.521346
	15.635000	-0.458860
	15.640000	-0.212206
	15.645000	-0.284558
	15.650000	-0.527923
	15.655000	-0.462149
	15.660000	-0.218783
	15.665000	-0.284558
	15.670000	-0.531212
	15.675000	-0.462149
	15.680000	-0.222072
	15.685000	-0.284558
	15.690000	-0.534501
	15.695000	-0.462149
	15.700000	-0.222072
	15.705000	-0.287847
	15.710000	-0.527923
	15.715000	-0.462149
	15.720000	-0.215495
	15.725000	-0.284558
	15.730000	-0.524635
	15.735000	-0.458860
	15.740000	-0.212206
	15.745000	-0.284558
	15.750000	-0.527923
	15.755000	-0.458860
	15.760000	-0.215495
	15.765000	-0.277980
	15.770000	-0.531212
	15.775000	-0.455571
	15.780000	-0.212206
	15.785000	-0.284558
	15.790000	-0.531212
	15.795000	-0.455571
	15.800000	-0.218783
	15.805000	-0.291135
	15.810000	-0.531212
	15.815000	-0.458860
	15.820000	-0.222072
	15.825000	-0.287847
	15.830000	-0.531212
	15.835000	-0.462149
	15.840000	-0.215495
	15.845000	-0.287847
	15.850000	-0.531212
	15.855000	-0.458860
	15.860000	-0.212206
	15.865000	-0.281269
	15.870000	-0.524635
	15.875000	-0.455571
	15.880000	-0.212206
	15.885000	-0.274692
	15.890000	-0.518057
	15.895000	-0.442417
	15.900000	-0.202340
	15.905000	-0.271403
	15.910000	-0.514768
	15.915000	-0.442417
	15.920000	-0.202340
	15.925000	-0.271403
	15.930000	-0.514768
	15.935000	-0.439128
	15.940000	-0.199051
	15.945000	-0.277980
	15.950000	-0.518057
	15.955000	-0.448994
	15.960000	-0.208917
	15.965000	-0.284558
	15.970000	-0.524635
	15.975000	-0.455571
	15.980000	-0.215495
	15.985000	-0.291135
	15.990000	-0.534501
	15.995000	-0.462149
	16.000000	-0.218783
	16.005000	-0.294424
	16.010000	-0.537790
	16.015000	-0.462149
	16.020000	-0.222072
	16.025000	-0.294424
	16.030000	-0.537790
	16.035000	-0.462149
	16.040000	-0.222072
	16.045000	-0.291135
	16.050000	-0.537790
	16.055000	-0.458860
	16.060000	-0.215495
	16.065000	-0.291135
	16.070000	-0.531212
	16.075000	-0.458860
	16.080000	-0.222072
	16.085000	-0.287847
	16.090000	-0.527923
	16.095000	-0.452283
	16.100000	-0.212206
	16.105000	-0.287847
	16.110000	-0.531212
	16.115000	-0.448994
	16.120000	-0.205628
	16.125000	-0.287847
	16.130000	-0.534501
	16.135000	-0.452283
	16.140000	-0.205628
	16.145000	-0.287847
	16.150000	-0.534501
	16.155000	-0.448994
	16.160000	-0.202340
	16.165000	-0.284558
	16.170000	-0.531212
	16.175000	-0.442417
	16.180000	-0.199051
	16.185000	-0.287847
	16.190000	-0.534501
	16.195000	-0.445705
	16.200000	-0.202340
	16.205000	-0.284558
	16.210000	-0.537790
	16.215000	-0.448994
	16.220000	-0.199051
	16.225000	-0.287847
	16.230000	-0.531212
	16.235000	-0.445705
	16.240000	-0.202340
	16.245000	-0.287847
	16.250000	-0.534501
	16.255000	-0.442417
	16.260000	-0.202340
	16.265000	-0.287847
	16.270000	-0.534501
	16.275000	-0.448994
	16.280000	-0.202340
	16.285000	-0.287847
	16.290000	-0.531212
	16.295000	-0.448994
	16.300000	-0.205628
	16.305000	-0.287847
	16.310000	-0.537790
	16.315000	-0.448994
	16.320000	-0.208917
	16.325000	-0.291135
	16.330000	-0.534501
	16.335000	-0.452283
	16.340000	-0.208917
	16.345000	-0.287847
	16.350000	-0.537790
	16.355000	-0.448994
	16.360000	-0.208917
	16.365000	-0.287847
	16.370000	-0.541078
	16.375000	-0.448994
	16.380000	-0.208917
	16.385000	-0.294424
	16.390000	-0.537790
	16.395000	-0.448994
	16.400000	-0.202340
	16.405000	-0.291135
	16.410000	-0.537790
	16.415000	-0.452283
	16.420000	-0.205628
	16.425000	-0.294424
	16.430000	-0.541078
	16.435000	-0.448994
	16.440000	-0.208917
	16.445000	-0.297713
	16.450000	-0.541078
	16.455000	-0.452283
	16.460000	-0.208917
	16.465000	-0.297713
	16.470000	-0.541078
	16.475000	-0.452283
	16.480000	-0.205628
	16.485000	-0.294424
	16.490000	-0.541078
	16.495000	-0.448994
	16.500000	-0.205628
	16.505000	-0.291135
	16.510000	-0.537790
	16.515000	-0.448994
	16.520000	-0.202340
	16.525000	-0.291135
	16.530000	-0.537790
	16.535000	-0.448994
	16.540000	-0.205628
	16.545000	-0.294424
	16.550000	-0.537790
	16.555000	-0.445705
	16.560000	-0.202340
	16.565000	-0.297713
	16.570000	-0.541078
	16.575000	-0.448994
	16.580000	-0.208917
	16.585000	-0.301001
	16.590000	-0.547656
	16.595000	-0.455571
	16.600000	-0.212206
	16.605000	-0.301001
	16.610000	-0.550944
	16.615000	-0.455571
	16.620000	-0.212206
	16.625000	-0.304290
	16.630000	-0.550944
	16.635000	-0.458860
	16.640000	-0.212206
	16.645000	-0.304290
	16.650000	-0.547656
	16.655000	-0.448994
	16.660000	-0.208917
	16.665000	-0.304290
	16.670000	-0.544367
	16.675000	-0.448994
	16.680000	-0.212206
	16.685000	-0.297713
	16.690000	-0.541078
	16.695000	-0.452283
	16.700000	-0.205628
	16.705000	-0.304290
	16.710000	-0.541078
	16.715000	-0.448994
	16.720000	-0.208917
	16.725000	-0.304290
	16.730000	-0.541078
	16.735000	-0.445705
	16.740000	-0.202340
	16.745000	-0.297713
	16.750000	-0.537790
	16.755000	-0.439128
	16.760000	-0.189185
	16.765000	-0.277980
	16.770000	-0.518057
	16.775000	-0.419395
	16.780000	-0.172741
	16.785000	-0.251671
	16.790000	-0.495036
	16.795000	-0.402952
	16.800000	-0.162875
	16.805000	-0.231938
	16.810000	-0.465438
	16.815000	-0.376642
	16.820000	-0.133277
	16.825000	-0.218783
	16.830000	-0.455571
	16.835000	-0.379931
	16.840000	-0.153009
	16.845000	-0.245093
	16.850000	-0.485170
	16.855000	-0.409529
	16.860000	-0.185896
	16.865000	-0.264826
	16.870000	-0.504902
	16.875000	-0.429262
	16.880000	-0.202340
	16.885000	-0.281269
	16.890000	-0.521346
	16.895000	-0.435839
	16.900000	-0.212206
	16.905000	-0.301001
	16.910000	-0.537790
	16.915000	-0.465438
	16.920000	-0.241804
	16.925000	-0.320734
	16.930000	-0.564099
	16.935000	-0.488459
	16.940000	-0.258248
	16.945000	-0.330600
	16.950000	-0.560811
	16.955000	-0.531212
	16.960000	-0.356910
	16.965000	-0.419395
	16.970000	-0.629874
	16.975000	-0.508191
	16.980000	-0.248382
	16.985000	-0.327311
	16.990000	-0.550944
	16.995000	-0.452283
	17.000000	-0.205628
	17.005000	-0.297713
	17.010000	-0.531212
	17.015000	-0.439128
	17.020000	-0.195762
	17.025000	-0.297713
	17.030000	-0.537790
	17.035000	-0.448994
	17.040000	-0.215495
	17.045000	-0.317445
	17.050000	-0.564099
	17.055000	-0.478592
	17.060000	-0.245093
	17.065000	-0.350332
	17.070000	-0.593698
	17.075000	-0.495036
	17.080000	-0.258248
	17.085000	-0.366776
	17.090000	-0.600275
	17.095000	-0.501614
	17.100000	-0.264826
	17.105000	-0.360198
	17.110000	-0.596987
	17.115000	-0.498325
	17.120000	-0.268114
	17.125000	-0.353621
	17.130000	-0.590409
	17.135000	-0.491747
	17.140000	-0.258248
	17.145000	-0.350332
	17.150000	-0.583832
	17.155000	-0.485170
	17.160000	-0.251671
	17.165000	-0.337177
	17.170000	-0.567388
	17.175000	-0.472015
	17.180000	-0.238516
	17.185000	-0.320734
	17.190000	-0.554233
	17.195000	-0.458860
	17.200000	-0.218783
	17.205000	-0.304290
	17.210000	-0.541078
	17.215000	-0.445705
	17.220000	-0.208917
	17.225000	-0.294424
	17.230000	-0.524635
	17.235000	-0.435839
	17.240000	-0.202340
	17.245000	-0.294424
	17.250000	-0.524635
	17.255000	-0.435839
	17.260000	-0.205628
	17.265000	-0.294424
	17.270000	-0.534501
	17.275000	-0.448994
	17.280000	-0.222072
	17.285000	-0.317445
	17.290000	-0.550944
	17.295000	-0.462149
	17.300000	-0.231938
	17.305000	-0.327311
	17.310000	-0.560811
	17.315000	-0.468726
	17.320000	-0.245093
	17.325000	-0.330600
	17.330000	-0.567388
	17.335000	-0.475304
	17.340000	-0.245093
	17.345000	-0.327311
	17.350000	-0.560811
	17.355000	-0.468726
	17.360000	-0.231938
	17.365000	-0.320734
	17.370000	-0.547656
	17.375000	-0.455571
	17.380000	-0.225361
	17.385000	-0.310868
	17.390000	-0.537790
	17.395000	-0.445705
	17.400000	-0.208917
	17.405000	-0.307579
	17.410000	-0.544367
	17.415000	-0.439128
	17.420000	-0.202340
	17.425000	-0.301001
	17.430000	-0.541078
	17.435000	-0.439128
	17.440000	-0.202340
	17.445000	-0.294424
	17.450000	-0.531212
	17.455000	-0.439128
	17.460000	-0.212206
	17.465000	-0.301001
	17.470000	-0.531212
	17.475000	-0.442417
	17.480000	-0.205628
	17.485000	-0.304290
	17.490000	-0.534501
	17.495000	-0.439128
	17.500000	-0.208917
	17.505000	-0.301001
	17.510000	-0.531212
	17.515000	-0.435839
	17.520000	-0.208917
	17.525000	-0.304290
	17.530000	-0.534501
	17.535000	-0.448994
	17.540000	-0.215495
	17.545000	-0.310868
	17.550000	-0.544367
	17.555000	-0.452283
	17.560000	-0.225361
	17.565000	-0.317445
	17.570000	-0.554233
	17.575000	-0.455571
	17.580000	-0.231938
	17.585000	-0.330600
	17.590000	-0.560811
	17.595000	-0.468726
	17.600000	-0.235227
	17.605000	-0.330600
	17.610000	-0.564099
	17.615000	-0.462149
	17.620000	-0.231938
	17.625000	-0.327311
	17.630000	-0.557522
	17.635000	-0.458860
	17.640000	-0.228650
	17.645000	-0.324023
	17.650000	-0.550944
	17.655000	-0.448994
	17.660000	-0.222072
	17.665000	-0.314156
	17.670000	-0.541078
	17.675000	-0.445705
	17.680000	-0.215495
	17.685000	-0.307579
	17.690000	-0.537790
	17.695000	-0.442417
	17.700000	-0.212206
	17.705000	-0.307579
	17.710000	-0.534501
	17.715000	-0.439128
	17.720000	-0.215495
	17.725000	-0.304290
	17.730000	-0.541078
	17.735000	-0.442417
	17.740000	-0.218783
	17.745000	-0.307579
	17.750000	-0.541078
	17.755000	-0.445705
	17.760000	-0.212206
	17.765000	-0.314156
	17.770000	-0.544367
	17.775000	-0.448994
	17.780000	-0.215495
	17.785000	-0.310868
	17.790000	-0.544367
	17.795000	-0.442417
	17.800000	-0.218783
	17.805000	-0.314156
	17.810000	-0.547656
	17.815000	-0.445705
	17.820000	-0.222072
	17.825000	-0.320734
	17.830000	-0.544367
	17.835000	-0.448994
	17.840000	-0.218783
	17.845000	-0.317445
	17.850000	-0.547656
	17.855000	-0.445705
	17.860000	-0.218783
	17.865000	-0.310868
	17.870000	-0.544367
	17.875000	-0.442417
	17.880000	-0.215495
	17.885000	-0.317445
	17.890000	-0.547656
	17.895000	-0.452283
	17.900000	-0.218783
	17.905000	-0.320734
	17.910000	-0.547656
	17.915000	-0.452283
	17.920000	-0.222072
	17.925000	-0.320734
	17.930000	-0.554233
	17.935000	-0.448994
	17.940000	-0.228650
	17.945000	-0.324023
	17.950000	-0.557522
	17.955000	-0.455571
	17.960000	-0.225361
	17.965000	-0.327311
	17.970000	-0.557522
	17.975000	-0.455571
	17.980000	-0.222072
	17.985000	-0.320734
	17.990000	-0.550944
	17.995000	-0.448994
	18.000000	-0.222072
	18.005000	-0.324023
	18.010000	-0.550944
	18.015000	-0.445705
	18.020000	-0.218783
	18.025000	-0.317445
	18.030000	-0.544367
	18.035000	-0.442417
	18.040000	-0.212206
	18.045000	-0.314156
	18.050000	-0.541078
	18.055000	-0.445705
	18.060000	-0.215495
	18.065000	-0.314156
	18.070000	-0.544367
	18.075000	-0.439128
	18.080000	-0.212206
	18.085000	-0.314156
	18.090000	-0.537790
	18.095000	-0.442417
	18.100000	-0.212206
	18.105000	-0.310868
	18.110000	-0.541078
	18.115000	-0.435839
	18.120000	-0.212206
	18.125000	-0.317445
	18.130000	-0.547656
	18.135000	-0.445705
	18.140000	-0.212206
	18.145000	-0.320734
	18.150000	-0.544367
	18.155000	-0.442417
	18.160000	-0.215495
	18.165000	-0.317445
	18.170000	-0.547656
	18.175000	-0.445705
	18.180000	-0.218783
	18.185000	-0.317445
	18.190000	-0.550944
	18.195000	-0.445705
	18.200000	-0.218783
	18.205000	-0.320734
	18.210000	-0.554233
	18.215000	-0.445705
	18.220000	-0.225361
	18.225000	-0.327311
	18.230000	-0.560811
	18.235000	-0.455571
	18.240000	-0.228650
	18.245000	-0.327311
	18.250000	-0.557522
	18.255000	-0.462149
	18.260000	-0.231938
	18.265000	-0.337177
	18.270000	-0.560811
	18.275000	-0.458860
	18.280000	-0.231938
	18.285000	-0.333889
	18.290000	-0.557522
	18.295000	-0.452283
	18.300000	-0.228650
	18.305000	-0.330600
	18.310000	-0.554233
	18.315000	-0.452283
	18.320000	-0.218783
	18.325000	-0.324023
	18.330000	-0.547656
	18.335000	-0.442417
	18.340000	-0.215495
	18.345000	-0.320734
	18.350000	-0.544367
	18.355000	-0.439128
	18.360000	-0.215495
	18.365000	-0.320734
	18.370000	-0.544367
	18.375000	-0.442417
	18.380000	-0.212206
	18.385000	-0.324023
	18.390000	-0.547656
	18.395000	-0.448994
	18.400000	-0.218783
	18.405000	-0.330600
	18.410000	-0.557522
	18.415000	-0.452283
	18.420000	-0.228650
	18.425000	-0.333889
	18.430000	-0.557522
	18.435000	-0.452283
	18.440000	-0.225361
	18.445000	-0.327311
	18.450000	-0.560811
	18.455000	-0.448994
	18.460000	-0.225361
	18.465000	-0.330600
	18.470000	-0.554233
	18.475000	-0.448994
	18.480000	-0.218783
	18.485000	-0.320734
	18.490000	-0.550944
	18.495000	-0.439128
	18.500000	-0.218783
	18.505000	-0.324023
	18.510000	-0.547656
	18.515000	-0.439128
	18.520000	-0.215495
	18.525000	-0.320734
	18.530000	-0.547656
	18.535000	-0.435839
	18.540000	-0.215495
	18.545000	-0.320734
	18.550000	-0.547656
	18.555000	-0.439128
	18.560000	-0.218783
	18.565000	-0.324023
	18.570000	-0.557522
	18.575000	-0.445705
	18.580000	-0.225361
	18.585000	-0.333889
	18.590000	-0.560811
	18.595000	-0.448994
	18.600000	-0.222072
	18.605000	-0.337177
	18.610000	-0.570677
	18.615000	-0.452283
	18.620000	-0.222072
	18.625000	-0.340466
	18.630000	-0.573965
	18.635000	-0.455571
	18.640000	-0.218783
	18.645000	-0.343755
	18.650000	-0.573965
	18.655000	-0.455571
	18.660000	-0.222072
	18.665000	-0.340466
	18.670000	-0.564099
	18.675000	-0.445705
	18.680000	-0.215495
	18.685000	-0.327311
	18.690000	-0.554233
	18.695000	-0.422684
	18.700000	-0.195762
	18.705000	-0.304290
	18.710000	-0.521346
	18.715000	-0.412818
	18.720000	-0.176030
	18.725000	-0.277980
	18.730000	-0.491747
	18.735000	-0.376642
	18.740000	-0.139854
	18.745000	-0.245093
	18.750000	-0.455571
	18.755000	-0.340466
	18.760000	-0.123410
	18.765000	-0.238516
	18.770000	-0.472015
	18.775000	-0.370065
	18.780000	-0.153009
	18.785000	-0.271403
	18.790000	-0.501614
	18.795000	-0.396374
	18.800000	-0.179319
	18.805000	-0.291135
	18.810000	-0.521346
	18.815000	-0.419395
	18.820000	-0.202340
	18.825000	-0.314156
	18.830000	-0.541078
	18.835000	-0.435839
	18.840000	-0.218783
	18.845000	-0.324023
	18.850000	-0.560811
	18.855000	-0.462149
	18.860000	-0.251671
	18.865000	-0.376642
	18.870000	-0.600275
	18.875000	-0.504902
	18.880000	-0.291135
	18.885000	-0.396374
	18.890000	-0.620008
	18.895000	-0.511480
	18.900000	-0.291135
	18.905000	-0.386508
	18.910000	-0.603564
	18.915000	-0.488459
	18.920000	-0.258248
	18.925000	-0.356910
	18.930000	-0.573965
	18.935000	-0.445705
	18.940000	-0.222072
	18.945000	-0.324023
	18.950000	-0.541078
	18.955000	-0.412818
	18.960000	-0.182607
	18.965000	-0.297713
	18.970000	-0.521346
	18.975000	-0.396374
	18.980000	-0.166164
	18.985000	-0.284558
	18.990000	-0.511480
	18.995000	-0.389797
	19.000000	-0.166164
	19.005000	-0.301001
	19.010000	-0.531212
	19.015000	-0.419395
	19.020000	-0.205628
	19.025000	-0.333889
	19.030000	-0.577254
	19.035000	-0.455571
	19.040000	-0.238516
	19.045000	-0.373353
	19.050000	-0.603564
	19.055000	-0.488459
	19.060000	-0.268114
	19.065000	-0.389797
	19.070000	-0.620008
	19.075000	-0.504902
	19.080000	-0.281269
	19.085000	-0.396374
	19.090000	-0.620008
	19.095000	-0.501614
	19.100000	-0.277980
	19.105000	-0.383220
	19.110000	-0.600275
	19.115000	-0.481881
	19.120000	-0.254959
	19.125000	-0.366776
	19.130000	-0.587120
	19.135000	-0.462149
	19.140000	-0.238516
	19.145000	-0.347044
	19.150000	-0.573965
	19.155000	-0.452283
	19.160000	-0.225361
	19.165000	-0.337177
	19.170000	-0.560811
	19.175000	-0.445705
	19.180000	-0.222072
	19.185000	-0.333889
	19.190000	-0.557522
	19.195000	-0.442417
	19.200000	-0.222072
	19.205000	-0.337177
	19.210000	-0.564099
	19.215000	-0.452283
	19.220000	-0.228650
	19.225000	-0.347044
	19.230000	-0.573965
	19.235000	-0.462149
	19.240000	-0.245093
	19.245000	-0.356910
	19.250000	-0.587120
	19.255000	-0.462149
	19.260000	-0.241804
	19.265000	-0.366776
	19.270000	-0.590409
	19.275000	-0.468726
	19.280000	-0.248382
	19.285000	-0.356910
	19.290000	-0.580543
	19.295000	-0.462149
	19.300000	-0.238516
	19.305000	-0.350332
	19.310000	-0.564099
	19.315000	-0.448994
	19.320000	-0.222072
	19.325000	-0.337177
	19.330000	-0.550944
	19.335000	-0.432550
	19.340000	-0.208917
	19.345000	-0.317445
	19.350000	-0.537790
	19.355000	-0.419395
	19.360000	-0.195762
	19.365000	-0.310868
	19.370000	-0.534501
	19.375000	-0.419395
	19.380000	-0.199051
	19.385000	-0.320734
	19.390000	-0.544367
	19.395000	-0.429262
	19.400000	-0.208917
	19.405000	-0.330600
	19.410000	-0.554233
	19.415000	-0.442417
	19.420000	-0.225361
	19.425000	-0.340466
	19.430000	-0.567388
	19.435000	-0.448994
	19.440000	-0.228650
	19.445000	-0.340466
	19.450000	-0.567388
	19.455000	-0.448994
	19.460000	-0.225361
	19.465000	-0.350332
	19.470000	-0.567388
	19.475000	-0.445705
	19.480000	-0.228650
	19.485000	-0.343755
	19.490000	-0.564099
	19.495000	-0.448994
	19.500000	-0.231938
	19.505000	-0.347044
	19.510000	-0.567388
	19.515000	-0.452283
	19.520000	-0.235227
	19.525000	-0.353621
	19.530000	-0.570677
	19.535000	-0.455571
	19.540000	-0.241804
	19.545000	-0.353621
	19.550000	-0.573965
	19.555000	-0.455571
	19.560000	-0.238516
	19.565000	-0.353621
	19.570000	-0.573965
	19.575000	-0.452283
	19.580000	-0.231938
	19.585000	-0.340466
	19.590000	-0.567388
	19.595000	-0.445705
	19.600000	-0.222072
	19.605000	-0.340466
	19.610000	-0.560811
	19.615000	-0.439128
	19.620000	-0.215495
	19.625000	-0.337177
	19.630000	-0.557522
	19.635000	-0.435839
	19.640000	-0.218783
	19.645000	-0.330600
	19.650000	-0.554233
	19.655000	-0.435839
	19.660000	-0.222072
	19.665000	-0.337177
	19.670000	-0.560811
	19.675000	-0.439128
	19.680000	-0.222072
	19.685000	-0.340466
	19.690000	-0.564099
	19.695000	-0.445705
	19.700000	-0.225361
	19.705000	-0.343755
	19.710000	-0.564099
	19.715000	-0.442417
	19.720000	-0.225361
	19.725000	-0.343755
	19.730000	-0.564099
	19.735000	-0.439128
	19.740000	-0.218783
	19.745000	-0.340466
	19.750000	-0.564099
	19.755000	-0.439128
	19.760000	-0.222072
	19.765000	-0.337177
	19.770000	-0.564099
	19.775000	-0.435839
	19.780000	-0.215495
	19.785000	-0.337177
	19.790000	-0.554233
	19.795000	-0.439128
	19.800000	-0.218783
	19.805000	-0.337177
	19.810000	-0.560811
	19.815000	-0.435839
	19.820000	-0.222072
	19.825000	-0.337177
	19.830000	-0.560811
	19.835000	-0.435839
	19.840000	-0.225361
	19.845000	-0.347044
	19.850000	-0.567388
	19.855000	-0.445705
	19.860000	-0.222072
	19.865000	-0.350332
	19.870000	-0.567388
	19.875000	-0.452283
	19.880000	-0.225361
	19.885000	-0.350332
	19.890000	-0.570677
	19.895000	-0.448994
	19.900000	-0.228650
	19.905000	-0.353621
	19.910000	-0.577254
	19.915000	-0.452283
	19.920000	-0.231938
	19.925000	-0.356910
	19.930000	-0.577254
	19.935000	-0.448994
	19.940000	-0.228650
	19.945000	-0.353621
	19.950000	-0.570677
	19.955000	-0.448994
	19.960000	-0.228650
	19.965000	-0.350332
	19.970000	-0.564099
	19.975000	-0.442417
	19.980000	-0.222072
	19.985000	-0.343755
	19.990000	-0.560811
	19.995000	-0.445705
	20.000000	-0.225361
	20.005000	-0.340466
	20.010000	-0.560811
	20.015000	-0.435839
	20.020000	-0.215495
	20.025000	-0.337177
	20.030000	-0.557522
	20.035000	-0.435839
	20.040000	-0.218783
	20.045000	-0.337177
	20.050000	-0.557522
	20.055000	-0.435839
	20.060000	-0.218783
	20.065000	-0.337177
	20.070000	-0.557522
	20.075000	-0.429262
	20.080000	-0.212206
	20.085000	-0.340466
	20.090000	-0.554233
	20.095000	-0.435839
	20.100000	-0.215495
	20.105000	-0.337177
	20.110000	-0.560811
	20.115000	-0.435839
	20.120000	-0.215495
	20.125000	-0.340466
	20.130000	-0.557522
	20.135000	-0.435839
	20.140000	-0.218783
	20.145000	-0.343755
	20.150000	-0.564099
	20.155000	-0.439128
	20.160000	-0.225361
	20.165000	-0.343755
	20.170000	-0.567388
	20.175000	-0.439128
	20.180000	-0.225361
	20.185000	-0.350332
	20.190000	-0.570677
	20.195000	-0.439128
	20.200000	-0.228650
	20.205000	-0.350332
	20.210000	-0.567388
	20.215000	-0.442417
	20.220000	-0.225361
	20.225000	-0.350332
	20.230000	-0.564099
	20.235000	-0.439128
	20.240000	-0.225361
	20.245000	-0.350332
	20.250000	-0.567388
	20.255000	-0.435839
	20.260000	-0.228650
	20.265000	-0.353621
	20.270000	-0.567388
	20.275000	-0.445705
	20.280000	-0.225361
	20.285000	-0.350332
	20.290000	-0.570677
	20.295000	-0.442417
	20.300000	-0.225361
	20.305000	-0.350332
	20.310000	-0.573965
	20.315000	-0.442417
	20.320000	-0.228650
	20.325000	-0.353621
	20.330000	-0.573965
	20.335000	-0.439128
	20.340000	-0.225361
	20.345000	-0.350332
	20.350000	-0.567388
	20.355000	-0.439128
	20.360000	-0.225361
	20.365000	-0.350332
	20.370000	-0.564099
	20.375000	-0.439128
	20.380000	-0.222072
	20.385000	-0.350332
	20.390000	-0.567388
	20.395000	-0.439128
	20.400000	-0.225361
	20.405000	-0.343755
	20.410000	-0.564099
	20.415000	-0.439128
	20.420000	-0.218783
	20.425000	-0.343755
	20.430000	-0.567388
	20.435000	-0.435839
	20.440000	-0.222072
	20.445000	-0.347044
	20.450000	-0.560811
	20.455000	-0.435839
	20.460000	-0.218783
	20.465000	-0.350332
	20.470000	-0.560811
	20.475000	-0.435839
	20.480000	-0.218783
	20.485000	-0.343755
	20.490000	-0.567388
	20.495000	-0.435839
	20.500000	-0.225361
	20.505000	-0.350332
	20.510000	-0.564099
	20.515000	-0.442417
	20.520000	-0.225361
	20.525000	-0.353621
	20.530000	-0.573965
	20.535000	-0.445705
	20.540000	-0.228650
	20.545000	-0.353621
	20.550000	-0.570677
	20.555000	-0.445705
	20.560000	-0.225361
	20.565000	-0.353621
	20.570000	-0.570677
	20.575000	-0.442417
	20.580000	-0.225361
	20.585000	-0.347044
	20.590000	-0.570677
	20.595000	-0.445705
	20.600000	-0.228650
	20.605000	-0.356910
	20.610000	-0.567388
	20.615000	-0.445705
	20.620000	-0.225361
	20.625000	-0.353621
	20.630000	-0.567388
	20.635000	-0.435839
	20.640000	-0.225361
	20.645000	-0.350332
	20.650000	-0.567388
	20.655000	-0.435839
	20.660000	-0.218783
	20.665000	-0.347044
	20.670000	-0.564099
	20.675000	-0.442417
	20.680000	-0.218783
	20.685000	-0.343755
	20.690000	-0.560811
	20.695000	-0.439128
	20.700000	-0.218783
	20.705000	-0.343755
	20.710000	-0.564099
	20.715000	-0.429262
	20.720000	-0.215495
	20.725000	-0.343755
	20.730000	-0.560811
	20.735000	-0.429262
	20.740000	-0.212206
	20.745000	-0.340466
	20.750000	-0.557522
	20.755000	-0.425973
	20.760000	-0.212206
	20.765000	-0.337177
	20.770000	-0.557522
	20.775000	-0.425973
	20.780000	-0.208917
	20.785000	-0.340466
	20.790000	-0.564099
	20.795000	-0.429262
	20.800000	-0.215495
	20.805000	-0.347044
	20.810000	-0.560811
	20.815000	-0.439128
	20.820000	-0.218783
	20.825000	-0.353621
	20.830000	-0.577254
	20.835000	-0.442417
	20.840000	-0.225361
	20.845000	-0.356910
	20.850000	-0.577254
	20.855000	-0.445705
	20.860000	-0.231938
	20.865000	-0.363487
	20.870000	-0.577254
	20.875000	-0.448994
	20.880000	-0.231938
	20.885000	-0.360198
	20.890000	-0.577254
	20.895000	-0.448994
	20.900000	-0.231938
	20.905000	-0.363487
	20.910000	-0.573965
	20.915000	-0.445705
	20.920000	-0.225361
	20.925000	-0.353621
	20.930000	-0.564099
	20.935000	-0.432550
	20.940000	-0.215495
	20.945000	-0.343755
	20.950000	-0.554233
	20.955000	-0.425973
	20.960000	-0.202340
	20.965000	-0.330600
	20.970000	-0.541078
	20.975000	-0.402952
	20.980000	-0.182607
	20.985000	-0.301001
	20.990000	-0.501614
	20.995000	-0.366776
	21.000000	-0.136565
	21.005000	-0.258248
	21.010000	-0.468726
	21.015000	-0.343755
	21.020000	-0.133277
	21.025000	-0.271403
	21.030000	-0.491747
	21.035000	-0.376642
	21.040000	-0.166164
	21.045000	-0.304290
	21.050000	-0.524635
	21.055000	-0.402952
	21.060000	-0.195762
	21.065000	-0.327311
	21.070000	-0.550944
	21.075000	-0.425973
	21.080000	-0.218783
	21.085000	-0.353621
	21.090000	-0.564099
	21.095000	-0.439128
	21.100000	-0.231938
	21.105000	-0.356910
	21.110000	-0.570677
	21.115000	-0.448994
	21.120000	-0.235227
	21.125000	-0.370065
	21.130000	-0.583832
	21.135000	-0.455571
	21.140000	-0.238516
	21.145000	-0.366776
	21.150000	-0.577254
	21.155000	-0.445705
	21.160000	-0.225361
	21.165000	-0.347044
	21.170000	-0.560811
	21.175000	-0.419395
	21.180000	-0.199051
	21.185000	-0.333889
	21.190000	-0.547656
	21.195000	-0.409529
	21.200000	-0.195762
	21.205000	-0.340466
	21.210000	-0.564099
	21.215000	-0.425973
	21.220000	-0.208917
	21.225000	-0.350332
	21.230000	-0.570677
	21.235000	-0.425973
	21.240000	-0.215495
	21.245000	-0.360198
	21.250000	-0.580543
	21.255000	-0.442417
	21.260000	-0.228650
	21.265000	-0.379931
	21.270000	-0.606853
	21.275000	-0.465438
	21.280000	-0.261537
	21.285000	-0.412818
	21.290000	-0.626585
	21.295000	-0.485170
	21.300000	-0.271403
	21.305000	-0.406241
	21.310000	-0.620008
	21.315000	-0.472015
	21.320000	-0.248382
	21.325000	-0.376642
	21.330000	-0.583832
	21.335000	-0.432550
	21.340000	-0.215495
	21.345000	-0.343755
	21.350000	-0.557522
	21.355000	-0.409529
	21.360000	-0.199051
	21.365000	-0.327311
	21.370000	-0.537790
	21.375000	-0.402952
	21.380000	-0.195762
	21.385000	-0.327311
	21.390000	-0.544367
	21.395000	-0.419395
	21.400000	-0.208917
	21.405000	-0.343755
	21.410000	-0.564099
	21.415000	-0.435839
	21.420000	-0.228650
	21.425000	-0.370065
	21.430000	-0.587120
	21.435000	-0.455571
	21.440000	-0.248382
	21.445000	-0.376642
	21.450000	-0.590409
	21.455000	-0.455571
	21.460000	-0.241804
	21.465000	-0.370065
	21.470000	-0.577254
	21.475000	-0.442417
	21.480000	-0.228650
	21.485000	-0.356910
	21.490000	-0.564099
	21.495000	-0.425973
	21.500000	-0.215495
	21.505000	-0.347044
	21.510000	-0.560811
	21.515000	-0.425973
	21.520000	-0.218783
	21.525000	-0.360198
	21.530000	-0.577254
	21.535000	-0.445705
	21.540000	-0.241804
	21.545000	-0.376642
	21.550000	-0.596987
	21.555000	-0.465438
	21.560000	-0.261537
	21.565000	-0.396374
	21.570000	-0.610141
	21.575000	-0.475304
	21.580000	-0.268114
	21.585000	-0.396374
	21.590000	-0.606853
	21.595000	-0.472015
	21.600000	-0.254959
	21.605000	-0.386508
	21.610000	-0.593698
	21.615000	-0.455571
	21.620000	-0.235227
	21.625000	-0.363487
	21.630000	-0.573965
	21.635000	-0.429262
	21.640000	-0.218783
	21.645000	-0.340466
	21.650000	-0.554233
	21.655000	-0.416107
	21.660000	-0.205628
	21.665000	-0.337177
	21.670000	-0.550944
	21.675000	-0.412818
	21.680000	-0.205628
	21.685000	-0.337177
	21.690000	-0.554233
	21.695000	-0.419395
	21.700000	-0.208917
	21.705000	-0.350332
	21.710000	-0.564099
	21.715000	-0.425973
	21.720000	-0.222072
	21.725000	-0.356910
	21.730000	-0.570677
	21.735000	-0.435839
	21.740000	-0.231938
	21.745000	-0.366776
	21.750000	-0.580543
	21.755000	-0.442417
	21.760000	-0.228650
	21.765000	-0.373353
	21.770000	-0.587120
	21.775000	-0.448994
	21.780000	-0.235227
	21.785000	-0.373353
	21.790000	-0.583832
	21.795000	-0.448994
	21.800000	-0.238516
	21.805000	-0.370065
	21.810000	-0.580543
	21.815000	-0.445705
	21.820000	-0.231938
	21.825000	-0.366776
	21.830000	-0.577254
	21.835000	-0.445705
	21.840000	-0.228650
	21.845000	-0.363487
	21.850000	-0.577254
	21.855000	-0.429262
	21.860000	-0.222072
	21.865000	-0.356910
	21.870000	-0.570677
	21.875000	-0.432550
	21.880000	-0.222072
	21.885000	-0.350332
	21.890000	-0.567388
	21.895000	-0.429262
	21.900000	-0.222072
	21.905000	-0.353621
	21.910000	-0.560811
	21.915000	-0.429262
	21.920000	-0.222072
	21.925000	-0.360198
	21.930000	-0.567388
	21.935000	-0.429262
	21.940000	-0.222072
	21.945000	-0.366776
	21.950000	-0.567388
	21.955000	-0.432550
	21.960000	-0.222072
	21.965000	-0.356910
	21.970000	-0.567388
	21.975000	-0.429262
	21.980000	-0.222072
	21.985000	-0.356910
	21.990000	-0.564099
	21.995000	-0.425973
	22.000000	-0.215495
	22.005000	-0.356910
	22.010000	-0.567388
	22.015000	-0.425973
	22.020000	-0.218783
	22.025000	-0.353621
	22.030000	-0.560811
	22.035000	-0.422684
	22.040000	-0.215495
	22.045000	-0.353621
	22.050000	-0.564099
	22.055000	-0.425973
	22.060000	-0.215495
	22.065000	-0.356910
	22.070000	-0.567388
	22.075000	-0.429262
	22.080000	-0.218783
	22.085000	-0.363487
	22.090000	-0.567388
	22.095000	-0.432550
	22.100000	-0.222072
	22.105000	-0.363487
	22.110000	-0.567388
	22.115000	-0.432550
	22.120000	-0.225361
	22.125000	-0.363487
	22.130000	-0.577254
	22.135000	-0.435839
	22.140000	-0.222072
	22.145000	-0.360198
	22.150000	-0.567388
	22.155000	-0.429262
	22.160000	-0.225361
	22.165000	-0.366776
	22.170000	-0.570677
	22.175000	-0.432550
	22.180000	-0.222072
	22.185000	-0.363487
	22.190000	-0.570677
	22.195000	-0.432550
	22.200000	-0.225361
	22.205000	-0.363487
	22.210000	-0.570677
	22.215000	-0.432550
	22.220000	-0.225361
	22.225000	-0.366776
	22.230000	-0.573965
	22.235000	-0.425973
	22.240000	-0.218783
	22.245000	-0.360198
	22.250000	-0.567388
	22.255000	-0.429262
	22.260000	-0.212206
	22.265000	-0.356910
	22.270000	-0.567388
	22.275000	-0.422684
	22.280000	-0.212206
	22.285000	-0.356910
	22.290000	-0.564099
	22.295000	-0.419395
	22.300000	-0.212206
	22.305000	-0.350332
	22.310000	-0.557522
	22.315000	-0.416107
	22.320000	-0.208917
	22.325000	-0.356910
	22.330000	-0.560811
	22.335000	-0.419395
	22.340000	-0.215495
	22.345000	-0.356910
	22.350000	-0.564099
	22.355000	-0.425973
	22.360000	-0.218783
	22.365000	-0.363487
	22.370000	-0.573965
	22.375000	-0.429262
	22.380000	-0.225361
	22.385000	-0.366776
	22.390000	-0.577254
	22.395000	-0.435839
	22.400000	-0.231938
	22.405000	-0.373353
	22.410000	-0.580543
	22.415000	-0.435839
	22.420000	-0.231938
	22.425000	-0.370065
	22.430000	-0.583832
	22.435000	-0.439128
	22.440000	-0.231938
	22.445000	-0.376642
	22.450000	-0.573965
	22.455000	-0.435839
	22.460000	-0.225361
	22.465000	-0.370065
	22.470000	-0.573965
	22.475000	-0.429262
	22.480000	-0.225361
	22.485000	-0.363487
	22.490000	-0.570677
	22.495000	-0.429262
	22.500000	-0.222072
	22.505000	-0.360198
	22.510000	-0.564099
	22.515000	-0.422684
	22.520000	-0.215495
	22.525000	-0.353621
	22.530000	-0.564099
	22.535000	-0.422684
	22.540000	-0.218783
	22.545000	-0.360198
	22.550000	-0.564099
	22.555000	-0.419395
	22.560000	-0.218783
	22.565000	-0.363487
	22.570000	-0.570677
	22.575000	-0.422684
	22.580000	-0.222072
	22.585000	-0.363487
	22.590000	-0.567388
	22.595000	-0.422684
	22.600000	-0.218783
	22.605000	-0.363487
	22.610000	-0.567388
	22.615000	-0.425973
	22.620000	-0.218783
	22.625000	-0.363487
	22.630000	-0.564099
	22.635000	-0.422684
	22.640000	-0.222072
	22.645000	-0.363487
	22.650000	-0.573965
	22.655000	-0.425973
	22.660000	-0.228650
	22.665000	-0.370065
	22.670000	-0.577254
	22.675000	-0.429262
	22.680000	-0.228650
	22.685000	-0.373353
	22.690000	-0.583832
	22.695000	-0.442417
	22.700000	-0.238516
	22.705000	-0.379931
	22.710000	-0.587120
	22.715000	-0.442417
	22.720000	-0.235227
	22.725000	-0.383220
	22.730000	-0.583832
	22.735000	-0.435839
	22.740000	-0.235227
	22.745000	-0.379931
	22.750000	-0.580543
	22.755000	-0.432550
	22.760000	-0.231938
	22.765000	-0.373353
	22.770000	-0.580543
	22.775000	-0.429262
	22.780000	-0.225361
	22.785000	-0.366776
	22.790000	-0.564099
	22.795000	-0.422684
	22.800000	-0.218783
	22.805000	-0.366776
	22.810000	-0.567388
	22.815000	-0.419395
	22.820000	-0.212206
	22.825000	-0.360198
	22.830000	-0.573965
	22.835000	-0.422684
	22.840000	-0.225361
	22.845000	-0.366776
	22.850000	-0.577254
	22.855000	-0.435839
	22.860000	-0.231938
	22.865000	-0.383220
	22.870000	-0.583832
	22.875000	-0.439128
	22.880000	-0.238516
	22.885000	-0.383220
	22.890000	-0.587120
	22.895000	-0.442417
	22.900000	-0.235227
	22.905000	-0.383220
	22.910000	-0.583832
	22.915000	-0.432550
	22.920000	-0.228650
	22.925000	-0.373353
	22.930000	-0.573965
	22.935000	-0.425973
	22.940000	-0.215495
	22.945000	-0.356910
	22.950000	-0.567388
	22.955000	-0.419395
	22.960000	-0.215495
	22.965000	-0.366776
	22.970000	-0.567388
	22.975000	-0.419395
	22.980000	-0.222072
	22.985000	-0.370065
	22.990000	-0.573965
	22.995000	-0.422684
	23.000000	-0.225361
	23.005000	-0.376642
	23.010000	-0.580543
	23.015000	-0.425973
	23.020000	-0.222072
	23.025000	-0.370065
	23.030000	-0.567388
	23.035000	-0.412818
	23.040000	-0.208917
	23.045000	-0.350332
	23.050000	-0.547656
	23.055000	-0.386508
	23.060000	-0.176030
	23.065000	-0.314156
	23.070000	-0.504902
	23.075000	-0.343755
	23.080000	-0.139854
	23.085000	-0.291135
	23.090000	-0.501614
	23.095000	-0.353621
	23.100000	-0.156298
	23.105000	-0.307579
	23.110000	-0.518057
	23.115000	-0.379931
	23.120000	-0.176030
	23.125000	-0.337177
	23.130000	-0.537790
	23.135000	-0.399663
	23.140000	-0.199051
	23.145000	-0.353621
	23.150000	-0.564099
	23.155000	-0.416107
	23.160000	-0.222072
	23.165000	-0.376642
	23.170000	-0.577254
	23.175000	-0.429262
	23.180000	-0.231938
	23.185000	-0.393086
	23.190000	-0.600275
	23.195000	-0.462149
	23.200000	-0.268114
	23.205000	-0.422684
	23.210000	-0.629874
	23.215000	-0.478592
	23.220000	-0.277980
	23.225000	-0.425973
	23.230000	-0.620008
	23.235000	-0.465438
	23.240000	-0.264826
	23.245000	-0.406241
	23.250000	-0.596987
	23.255000	-0.445705
	23.260000	-0.235227
	23.265000	-0.383220
	23.270000	-0.567388
	23.275000	-0.419395
	23.280000	-0.212206
	23.285000	-0.356910
	23.290000	-0.554233
	23.295000	-0.402952
	23.300000	-0.202340
	23.305000	-0.350332
	23.310000	-0.557522
	23.315000	-0.409529
	23.320000	-0.212206
	23.325000	-0.366776
	23.330000	-0.567388
	23.335000	-0.425973
	23.340000	-0.228650
	23.345000	-0.376642
	23.350000	-0.580543
	23.355000	-0.432550
	23.360000	-0.231938
	23.365000	-0.383220
	23.370000	-0.587120
	23.375000	-0.435839
	23.380000	-0.228650
	23.385000	-0.379931
	23.390000	-0.583832
	23.395000	-0.432550
	23.400000	-0.235227
	23.405000	-0.389797
	23.410000	-0.587120
	23.415000	-0.435839
	23.420000	-0.238516
	23.425000	-0.393086
	23.430000	-0.590409
	23.435000	-0.435839
	23.440000	-0.241804
	23.445000	-0.393086
	23.450000	-0.596987
	23.455000	-0.445705
	23.460000	-0.248382
	23.465000	-0.402952
	23.470000	-0.603564
	23.475000	-0.455571
	23.480000	-0.254959
	23.485000	-0.406241
	23.490000	-0.606853
	23.495000	-0.448994
	23.500000	-0.248382
	23.505000	-0.393086
	23.510000	-0.583832
	23.515000	-0.432550
	23.520000	-0.225361
	23.525000	-0.373353
	23.530000	-0.570677
	23.535000	-0.416107
	23.540000	-0.215495
	23.545000	-0.363487
	23.550000	-0.557522
	23.555000	-0.409529
	23.560000	-0.205628
	23.565000	-0.356910
	23.570000	-0.560811
	23.575000	-0.409529
	23.580000	-0.212206
	23.585000	-0.373353
	23.590000	-0.573965
	23.595000	-0.425973
	23.600000	-0.235227
	23.605000	-0.389797
	23.610000	-0.587120
	23.615000	-0.448994
	23.620000	-0.245093
	23.625000	-0.396374
	23.630000	-0.596987
	23.635000	-0.448994
	23.640000	-0.248382
	23.645000	-0.402952
	23.650000	-0.596987
	23.655000	-0.439128
	23.660000	-0.241804
	23.665000	-0.393086
	23.670000	-0.583832
	23.675000	-0.422684
	23.680000	-0.225361
	23.685000	-0.373353
	23.690000	-0.564099
	23.695000	-0.409529
	23.700000	-0.208917
	23.705000	-0.356910
	23.710000	-0.550944
	23.715000	-0.399663
	23.720000	-0.202340
	23.725000	-0.356910
	23.730000	-0.557522
	23.735000	-0.406241
	23.740000	-0.208917
	23.745000	-0.370065
	23.750000	-0.570677
	23.755000	-0.412818
	23.760000	-0.222072
	23.765000	-0.383220
	23.770000	-0.583832
	23.775000	-0.429262
	23.780000	-0.231938
	23.785000	-0.396374
	23.790000	-0.590409
	23.795000	-0.435839
	23.800000	-0.241804
	23.805000	-0.399663
	23.810000	-0.593698
	23.815000	-0.432550
	23.820000	-0.238516
	23.825000	-0.393086
	23.830000	-0.590409
	23.835000	-0.435839
	23.840000	-0.241804
	23.845000	-0.396374
	23.850000	-0.590409
	23.855000	-0.432550
	23.860000	-0.238516
	23.865000	-0.396374
	23.870000	-0.590409
	23.875000	-0.429262
	23.880000	-0.235227
	23.885000	-0.393086
	23.890000	-0.590409
	23.895000	-0.432550
	23.900000	-0.238516
	23.905000	-0.389797
	23.910000	-0.587120
	23.915000	-0.429262
	23.920000	-0.238516
	23.925000	-0.396374
	23.930000	-0.587120
	23.935000	-0.425973
	23.940000	-0.231938
	23.945000	-0.389797
	23.950000	-0.587120
	23.955000	-0.425973
	23.960000	-0.228650
	23.965000	-0.386508
	23.970000	-0.580543
	23.975000	-0.422684
	23.980000	-0.225361
	23.985000	-0.383220
	23.990000	-0.577254
	23.995000	-0.416107
	24.000000	-0.225361
	24.005000	-0.383220
	24.010000	-0.573965
	24.015000	-0.422684
	24.020000	-0.222072
	24.025000	-0.386508
	24.030000	-0.580543
	24.035000	-0.422684
	24.040000	-0.225361
	24.045000	-0.386508
	24.050000	-0.577254
	24.055000	-0.422684
	24.060000	-0.228650
	24.065000	-0.389797
	24.070000	-0.583832
	24.075000	-0.425973
	24.080000	-0.231938
	24.085000	-0.393086
	24.090000	-0.587120
	24.095000	-0.425973
	24.100000	-0.235227
	24.105000	-0.399663
	24.110000	-0.590409
	24.115000	-0.432550
	24.120000	-0.235227
	24.125000	-0.396374
	24.130000	-0.590409
	24.135000	-0.432550
	24.140000	-0.235227
	24.145000	-0.393086
	24.150000	-0.587120
	24.155000	-0.429262
	24.160000	-0.225361
	24.165000	-0.389797
	24.170000	-0.583832
	24.175000	-0.419395
	24.180000	-0.225361
	24.185000	-0.386508
	24.190000	-0.577254
	24.195000	-0.419395
	24.200000	-0.222072
	24.205000	-0.383220
	24.210000	-0.577254
	24.215000	-0.409529
	24.220000	-0.225361
	24.225000	-0.386508
	24.230000	-0.580543
	24.235000	-0.419395
	24.240000	-0.228650
	24.245000	-0.389797
	24.250000	-0.580543
	24.255000	-0.422684
	24.260000	-0.225361
	24.265000	-0.389797
	24.270000	-0.590409
	24.275000	-0.425973
	24.280000	-0.231938
	24.285000	-0.393086
	24.290000	-0.590409
	24.295000	-0.422684
	24.300000	-0.231938
	24.305000	-0.399663
	24.310000	-0.590409
	24.315000	-0.429262
	24.320000	-0.235227
	24.325000	-0.396374
	24.330000	-0.583832
	24.335000	-0.422684
	24.340000	-0.231938
	24.345000	-0.396374
	24.350000	-0.587120
	24.355000	-0.419395
	24.360000	-0.228650
	24.365000	-0.393086
	24.370000	-0.580543
	24.375000	-0.419395
	24.380000	-0.228650
	24.385000	-0.393086
	24.390000	-0.583832
	24.395000	-0.412818
	24.400000	-0.225361
	24.405000	-0.386508
	24.410000	-0.577254
	24.415000	-0.412818
	24.420000	-0.225361
	24.425000	-0.386508
	24.430000	-0.577254
	24.435000	-0.416107
	24.440000	-0.222072
	24.445000	-0.386508
	24.450000	-0.580543
	24.455000	-0.419395
	24.460000	-0.228650
	24.465000	-0.393086
	24.470000	-0.580543
	24.475000	-0.419395
	24.480000	-0.222072
	24.485000	-0.393086
	24.490000	-0.583832
	24.495000	-0.419395
	24.500000	-0.225361
	24.505000	-0.393086
	24.510000	-0.580543
	24.515000	-0.412818
	24.520000	-0.225361
	24.525000	-0.389797
	24.530000	-0.580543
	24.535000	-0.416107
	24.540000	-0.228650
	24.545000	-0.389797
	24.550000	-0.580543
	24.555000	-0.409529
	24.560000	-0.225361
	24.565000	-0.393086
	24.570000	-0.580543
	24.575000	-0.412818
	24.580000	-0.222072
	24.585000	-0.389797
	24.590000	-0.580543
	24.595000	-0.416107
	24.600000	-0.222072
	24.605000	-0.396374
	24.610000	-0.577254
	24.615000	-0.409529
	24.620000	-0.225361
	24.625000	-0.393086
	24.630000	-0.580543
	24.635000	-0.419395
	24.640000	-0.222072
	24.645000	-0.389797
	24.650000	-0.577254
	24.655000	-0.409529
	24.660000	-0.222072
	24.665000	-0.386508
	24.670000	-0.577254
	24.675000	-0.409529
	24.680000	-0.218783
	24.685000	-0.383220
	24.690000	-0.573965
	24.695000	-0.406241
	24.700000	-0.218783
	24.705000	-0.386508
	24.710000	-0.577254
	24.715000	-0.406241
	24.720000	-0.222072
	24.725000	-0.389797
	24.730000	-0.577254
	24.735000	-0.416107
	24.740000	-0.225361
	24.745000	-0.396374
	24.750000	-0.587120
	24.755000	-0.422684
	24.760000	-0.231938
	24.765000	-0.402952
	24.770000	-0.590409
	24.775000	-0.425973
	24.780000	-0.238516
	24.785000	-0.402952
	24.790000	-0.593698
	24.795000	-0.432550
	24.800000	-0.238516
	24.805000	-0.406241
	24.810000	-0.596987
	24.815000	-0.429262
	24.820000	-0.235227
	24.825000	-0.406241
	24.830000	-0.590409
	24.835000	-0.422684
	24.840000	-0.231938
	24.845000	-0.402952
	24.850000	-0.587120
	24.855000	-0.416107
	24.860000	-0.231938
	24.865000	-0.399663
	24.870000	-0.583832
	24.875000	-0.416107
	24.880000	-0.228650
	24.885000	-0.399663
	24.890000	-0.580543
	24.895000	-0.416107
	24.900000	-0.225361
	24.905000	-0.396374
	24.910000	-0.583832
	24.915000	-0.416107
	24.920000	-0.225361
	24.925000	-0.393086
	24.930000	-0.583832
	24.935000	-0.409529
	24.940000	-0.228650
	24.945000	-0.399663
	24.950000	-0.583832
	24.955000	-0.409529
	24.960000	-0.225361
	24.965000	-0.396374
	24.970000	-0.580543
	24.975000	-0.409529
	24.980000	-0.222072
	24.985000	-0.389797
	24.990000	-0.567388
	24.995000	-0.399663
	25.000000	-0.208917
	25.005000	-0.373353
	25.010000	-0.554233
	25.015000	-0.383220
	25.020000	-0.195762
	25.025000	-0.360198
	25.030000	-0.541078
	25.035000	-0.363487
	25.040000	-0.172741
	25.045000	-0.340466
	25.050000	-0.524635
	25.055000	-0.353621
	25.060000	-0.166164
	25.065000	-0.337177
	25.070000	-0.527923
	25.075000	-0.363487
	25.080000	-0.185896
	25.085000	-0.360198
	25.090000	-0.547656
	25.095000	-0.383220
	25.100000	-0.208917
	25.105000	-0.376642
	25.110000	-0.564099
	25.115000	-0.396374
	25.120000	-0.215495
	25.125000	-0.379931
	25.130000	-0.570677
	25.135000	-0.402952
	25.140000	-0.222072
	25.145000	-0.389797
	25.150000	-0.577254
	25.155000	-0.409529
	25.160000	-0.222072
	25.165000	-0.393086
	25.170000	-0.577254
	25.175000	-0.409529
	25.180000	-0.222072
	25.185000	-0.393086
	25.190000	-0.577254
	25.195000	-0.412818
	25.200000	-0.225361
	25.205000	-0.396374
	25.210000	-0.580543
	25.215000	-0.409529
	25.220000	-0.231938
	25.225000	-0.399663
	25.230000	-0.583832
	25.235000	-0.419395
	25.240000	-0.228650
	25.245000	-0.399663
	25.250000	-0.580543
	25.255000	-0.409529
	25.260000	-0.222072
	25.265000	-0.393086
	25.270000	-0.577254
	25.275000	-0.406241
	25.280000	-0.228650
	25.285000	-0.396374
	25.290000	-0.580543
	25.295000	-0.409529
	25.300000	-0.225361
	25.305000	-0.402952
	25.310000	-0.580543
	25.315000	-0.409529
	25.320000	-0.231938
	25.325000	-0.399663
	25.330000	-0.583832
	25.335000	-0.406241
	25.340000	-0.225361
	25.345000	-0.402952
	25.350000	-0.577254
	25.355000	-0.412818
	25.360000	-0.235227
	25.365000	-0.419395
	25.370000	-0.606853
	25.375000	-0.445705
	25.380000	-0.268114
	25.385000	-0.448994
	25.390000	-0.629874
	25.395000	-0.462149
	25.400000	-0.287847
	25.405000	-0.462149
	25.410000	-0.646317
	25.415000	-0.475304
	25.420000	-0.294424
	25.425000	-0.465438
	25.430000	-0.649606
	25.435000	-0.475304
	25.440000	-0.287847
	25.445000	-0.458860
	25.450000	-0.636451
	25.455000	-0.455571
	25.460000	-0.268114
	25.465000	-0.435839
	25.470000	-0.620008
	25.475000	-0.439128
	25.480000	-0.248382
	25.485000	-0.409529
	25.490000	-0.590409
	25.495000	-0.419395
	25.500000	-0.231938
	25.505000	-0.396374
	25.510000	-0.577254
	25.515000	-0.402952
	25.520000	-0.225361
	25.525000	-0.393086
	25.530000	-0.577254
	25.535000	-0.402952
	25.540000	-0.225361
	25.545000	-0.402952
	25.550000	-0.590409
	25.555000	-0.419395
	25.560000	-0.241804
	25.565000	-0.419395
	25.570000	-0.603564
	25.575000	-0.435839
	25.580000	-0.254959
	25.585000	-0.435839
	25.590000	-0.620008
	25.595000	-0.445705
	25.600000	-0.258248
	25.605000	-0.439128
	25.610000	-0.616719
	25.615000	-0.435839
	25.620000	-0.248382
	25.625000	-0.419395
	25.630000	-0.600275
	25.635000	-0.422684
	25.640000	-0.231938
	25.645000	-0.402952
	25.650000	-0.583832
	25.655000	-0.393086
	25.660000	-0.208917
	25.665000	-0.376642
	25.670000	-0.560811
	25.675000	-0.376642
	25.680000	-0.192474
	25.685000	-0.366776
	25.690000	-0.547656
	25.695000	-0.373353
	25.700000	-0.192474
	25.705000	-0.373353
	25.710000	-0.560811
	25.715000	-0.383220
	25.720000	-0.205628
	25.725000	-0.386508
	25.730000	-0.577254
	25.735000	-0.406241
	25.740000	-0.218783
	25.745000	-0.406241
	25.750000	-0.593698
	25.755000	-0.409529
	25.760000	-0.235227
	25.765000	-0.412818
	25.770000	-0.600275
	25.775000	-0.422684
	25.780000	-0.235227
	25.785000	-0.416107
	25.790000	-0.596987
	25.795000	-0.416107
	25.800000	-0.231938
	25.805000	-0.409529
	25.810000	-0.593698
	25.815000	-0.412818
	25.820000	-0.225361
	25.825000	-0.406241
	25.830000	-0.590409
	25.835000	-0.409529
	25.840000	-0.222072
	25.845000	-0.402952
	25.850000	-0.587120
	25.855000	-0.409529
	25.860000	-0.225361
	25.865000	-0.402952
	25.870000	-0.590409
	25.875000	-0.406241
	25.880000	-0.222072
	25.885000	-0.406241
	25.890000	-0.593698
	25.895000	-0.412818
	25.900000	-0.228650
	25.905000	-0.406241
	25.910000	-0.593698
	25.915000	-0.412818
	25.920000	-0.222072
	25.925000	-0.399663
	25.930000	-0.587120
	25.935000	-0.409529
	25.940000	-0.218783
	25.945000	-0.393086
	25.950000	-0.583832
	25.955000	-0.396374
	25.960000	-0.208917
	25.965000	-0.389797
	25.970000	-0.577254
	25.975000	-0.393086
	25.980000	-0.212206
	25.985000	-0.386508
	25.990000	-0.573965
	25.995000	-0.396374
	26.000000	-0.205628
	26.005000	-0.386508
	26.010000	-0.573965
	26.015000	-0.396374
	26.020000	-0.212206
	26.025000	-0.389797
	26.030000	-0.580543
	26.035000	-0.399663
	26.040000	-0.212206
	26.045000	-0.396374
	26.050000	-0.580543
	26.055000	-0.402952
	26.060000	-0.218783
	26.065000	-0.402952
	26.070000	-0.587120
	26.075000	-0.406241
	26.080000	-0.218783
	26.085000	-0.402952
	26.090000	-0.587120
	26.095000	-0.406241
	26.100000	-0.222072
	26.105000	-0.396374
	26.110000	-0.583832
	26.115000	-0.399663
	26.120000	-0.218783
	26.125000	-0.393086
	26.130000	-0.580543
	26.135000	-0.396374
	26.140000	-0.215495
	26.145000	-0.389797
	26.150000	-0.580543
	26.155000	-0.396374
	26.160000	-0.212206
	26.165000	-0.399663
	26.170000	-0.577254
	26.175000	-0.402952
	26.180000	-0.212206
	26.185000	-0.396374
	26.190000	-0.583832
	26.195000	-0.402952
	26.200000	-0.218783
	26.205000	-0.399663
	26.210000	-0.583832
	26.215000	-0.399663
	26.220000	-0.218783
	26.225000	-0.402952
	26.230000	-0.583832
	26.235000	-0.402952
	26.240000	-0.218783
	26.245000	-0.399663
	26.250000	-0.583832
	26.255000	-0.406241
	26.260000	-0.218783
	26.265000	-0.393086
	26.270000	-0.583832
	26.275000	-0.399663
	26.280000	-0.215495
	26.285000	-0.402952
	26.290000	-0.587120
	26.295000	-0.406241
	26.300000	-0.218783
	26.305000	-0.402952
	26.310000	-0.583832
	26.315000	-0.406241
	26.320000	-0.218783
	26.325000	-0.402952
	26.330000	-0.583832
	26.335000	-0.396374
	26.340000	-0.218783
	26.345000	-0.399663
	26.350000	-0.580543
	26.355000	-0.399663
	26.360000	-0.212206
	26.365000	-0.396374
	26.370000	-0.577254
	26.375000	-0.399663
	26.380000	-0.215495
	26.385000	-0.393086
	26.390000	-0.573965
	26.395000	-0.399663
	26.400000	-0.212206
	26.405000	-0.399663
	26.410000	-0.583832
	26.415000	-0.399663
	26.420000	-0.212206
	26.425000	-0.396374
	26.430000	-0.580543
	26.435000	-0.396374
	26.440000	-0.218783
	26.445000	-0.402952
	26.450000	-0.580543
	26.455000	-0.402952
	26.460000	-0.218783
	26.465000	-0.402952
	26.470000	-0.580543
	26.475000	-0.406241
	26.480000	-0.215495
	26.485000	-0.402952
	26.490000	-0.583832
	26.495000	-0.406241
	26.500000	-0.222072
	26.505000	-0.399663
	26.510000	-0.587120
	26.515000	-0.399663
	26.520000	-0.218783
	26.525000	-0.402952
	26.530000	-0.583832
	26.535000	-0.406241
	26.540000	-0.218783
	26.545000	-0.399663
	26.550000	-0.583832
	26.555000	-0.402952
	26.560000	-0.218783
	26.565000	-0.402952
	26.570000	-0.583832
	26.575000	-0.406241
	26.580000	-0.218783
	26.585000	-0.406241
	26.590000	-0.580543
	26.595000	-0.399663
	26.600000	-0.218783
	26.605000	-0.399663
	26.610000	-0.583832
	26.615000	-0.402952
	26.620000	-0.222072
	26.625000	-0.396374
	26.630000	-0.580543
	26.635000	-0.402952
	26.640000	-0.218783
	26.645000	-0.396374
	26.650000	-0.577254
	26.655000	-0.399663
	26.660000	-0.215495
	26.665000	-0.393086
	26.670000	-0.573965
	26.675000	-0.393086
	26.680000	-0.212206
	26.685000	-0.386508
	26.690000	-0.573965
	26.695000	-0.393086
	26.700000	-0.212206
	26.705000	-0.396374
	26.710000	-0.573965
	26.715000	-0.393086
	26.720000	-0.215495
	26.725000	-0.393086
	26.730000	-0.573965
	26.735000	-0.396374
	26.740000	-0.215495
	26.745000	-0.396374
	26.750000	-0.577254
	26.755000	-0.406241
	26.760000	-0.218783
	26.765000	-0.402952
	26.770000	-0.583832
	26.775000	-0.396374
	26.780000	-0.222072
	26.785000	-0.399663
	26.790000	-0.580543
	26.795000	-0.399663
	26.800000	-0.222072
	26.805000	-0.396374
	26.810000	-0.583832
	26.815000	-0.399663
	26.820000	-0.215495
	26.825000	-0.399663
	26.830000	-0.577254
	26.835000	-0.399663
	26.840000	-0.215495
	26.845000	-0.399663
	26.850000	-0.573965
	26.855000	-0.396374
	26.860000	-0.215495
	26.865000	-0.396374
	26.870000	-0.577254
	26.875000	-0.396374
	26.880000	-0.212206
	26.885000	-0.389797
	26.890000	-0.573965
	26.895000	-0.389797
	26.900000	-0.205628
	26.905000	-0.393086
	26.910000	-0.573965
	26.915000	-0.389797
	26.920000	-0.212206
	26.925000	-0.389797
	26.930000	-0.567388
	26.935000	-0.393086
	26.940000	-0.212206
	26.945000	-0.386508
	26.950000	-0.570677
	26.955000	-0.389797
	26.960000	-0.212206
	26.965000	-0.389797
	26.970000	-0.567388
	26.975000	-0.389797
	26.980000	-0.208917
	26.985000	-0.386508
	26.990000	-0.567388
	26.995000	-0.386508
	27.000000	-0.208917
	27.005000	-0.389797
	27.010000	-0.570677
	27.015000	-0.386508
	27.020000	-0.212206
	27.025000	-0.389797
	27.030000	-0.564099
	27.035000	-0.389797
	27.040000	-0.205628
	27.045000	-0.389797
	27.050000	-0.573965
	27.055000	-0.389797
	27.060000	-0.205628
	27.065000	-0.386508
	27.070000	-0.570677
	27.075000	-0.389797
	27.080000	-0.208917
	27.085000	-0.393086
	27.090000	-0.567388
	27.095000	-0.386508
	27.100000	-0.208917
	27.105000	-0.389797
	27.110000	-0.564099
	27.115000	-0.383220
	27.120000	-0.205628
	27.125000	-0.389797
	27.130000	-0.567388
	27.135000	-0.389797
	27.140000	-0.202340
	27.145000	-0.386508
	27.150000	-0.567388
	27.155000	-0.389797
	27.160000	-0.208917
	27.165000	-0.386508
	27.170000	-0.564099
	27.175000	-0.389797
	27.180000	-0.208917
	27.185000	-0.383220
	27.190000	-0.564099
	27.195000	-0.386508
	27.200000	-0.212206
	27.205000	-0.386508
	27.210000	-0.564099
	27.215000	-0.389797
	27.220000	-0.208917
	27.225000	-0.393086
	27.230000	-0.564099
	27.235000	-0.383220
	27.240000	-0.208917
	27.245000	-0.389797
	27.250000	-0.564099
	27.255000	-0.389797
	27.260000	-0.208917
	27.265000	-0.383220
	27.270000	-0.560811
	27.275000	-0.389797
	27.280000	-0.208917
	27.285000	-0.389797
	27.290000	-0.560811
	27.295000	-0.386508
	27.300000	-0.205628
	27.305000	-0.383220
	27.310000	-0.564099
	27.315000	-0.383220
	27.320000	-0.212206
	27.325000	-0.386508
	27.330000	-0.564099
	27.335000	-0.386508
	27.340000	-0.208917
	27.345000	-0.383220
	27.350000	-0.564099
	27.355000	-0.386508
	27.360000	-0.212206
	27.365000	-0.386508
	27.370000	-0.564099
	27.375000	-0.386508
	27.380000	-0.212206
	27.385000	-0.386508
	27.390000	-0.564099
	27.395000	-0.386508
	27.400000	-0.212206
	27.405000	-0.389797
	27.410000	-0.564099
	27.415000	-0.389797
	27.420000	-0.212206
	27.425000	-0.389797
	27.430000	-0.564099
	27.435000	-0.389797
	27.440000	-0.215495
	27.445000	-0.389797
	27.450000	-0.570677
	27.455000	-0.389797
	27.460000	-0.218783
	27.465000	-0.393086
	27.470000	-0.567388
	27.475000	-0.389797
	27.480000	-0.212206
	27.485000	-0.386508
	27.490000	-0.564099
	27.495000	-0.389797
	27.500000	-0.208917
	27.505000	-0.383220
	27.510000	-0.560811
	27.515000	-0.386508
	27.520000	-0.208917
	27.525000	-0.383220
	27.530000	-0.560811
	27.535000	-0.379931
	27.540000	-0.205628
	27.545000	-0.383220
	27.550000	-0.560811
	27.555000	-0.383220
	27.560000	-0.202340
	27.565000	-0.379931
	27.570000	-0.560811
	27.575000	-0.383220
	27.580000	-0.205628
	27.585000	-0.383220
	27.590000	-0.560811
	27.595000	-0.383220
	27.600000	-0.205628
	27.605000	-0.383220
	27.610000	-0.564099
	27.615000	-0.386508
	27.620000	-0.212206
	27.625000	-0.389797
	27.630000	-0.567388
	27.635000	-0.383220
	27.640000	-0.215495
	27.645000	-0.389797
	27.650000	-0.560811
	27.655000	-0.389797
	27.660000	-0.215495
	27.665000	-0.386508
	27.670000	-0.564099
	27.675000	-0.386508
	27.680000	-0.208917
	27.685000	-0.383220
	27.690000	-0.567388
	27.695000	-0.389797
	27.700000	-0.212206
	27.705000	-0.386508
	27.710000	-0.564099
	27.715000	-0.383220
	27.720000	-0.212206
	27.725000	-0.389797
	27.730000	-0.564099
	27.735000	-0.389797
	27.740000	-0.215495
	27.745000	-0.389797
	27.750000	-0.567388
	27.755000	-0.389797
	27.760000	-0.212206
	27.765000	-0.389797
	27.770000	-0.567388
	27.775000	-0.383220
	27.780000	-0.215495
	27.785000	-0.389797
	27.790000	-0.564099
	27.795000	-0.389797
	27.800000	-0.212206
	27.805000	-0.389797
	27.810000	-0.564099
	27.815000	-0.383220
	27.820000	-0.208917
	27.825000	-0.383220
	27.830000	-0.567388
	27.835000	-0.386508
	27.840000	-0.215495
	27.845000	-0.386508
	27.850000	-0.560811
	27.855000	-0.389797
	27.860000	-0.212206
	27.865000	-0.386508
	27.870000	-0.564099
	27.875000	-0.389797
	27.880000	-0.212206
	27.885000	-0.389797
	27.890000	-0.570677
	27.895000	-0.389797
	27.900000	-0.215495
	27.905000	-0.386508
	27.910000	-0.567388
