2024/7/21 	 8:31:39 
 This file comes from Vt only measurement 	 1.000000E-1 
 Voltage Sensitivity 	 0.000000E+0 
 Sampling rate 	 200 
 Number of samples per channel 	 -1 
 No filter from Labview 	 	 	 
 	 
 ***End_of_Header*** 
 	 Time 	  Voltage 	 Filtered Voltage 	 
	0.000000	-0.185896
	0.005000	-0.416107
	0.010000	-0.199051
	0.015000	0.031160
	0.020000	-0.189185
	0.025000	-0.409529
	0.030000	-0.199051
	0.035000	0.027871
	0.040000	-0.189185
	0.045000	-0.419395
	0.050000	-0.195762
	0.055000	0.027871
	0.060000	-0.189185
	0.065000	-0.416107
	0.070000	-0.192474
	0.075000	0.027871
	0.080000	-0.189185
	0.085000	-0.419395
	0.090000	-0.195762
	0.095000	0.027871
	0.100000	-0.192474
	0.105000	-0.416107
	0.110000	-0.195762
	0.115000	0.031160
	0.120000	-0.192474
	0.125000	-0.412818
	0.130000	-0.195762
	0.135000	0.027871
	0.140000	-0.192474
	0.145000	-0.419395
	0.150000	-0.192474
	0.155000	0.031160
	0.160000	-0.195762
	0.165000	-0.412818
	0.170000	-0.189185
	0.175000	0.027871
	0.180000	-0.195762
	0.185000	-0.416107
	0.190000	-0.189185
	0.195000	0.027871
	0.200000	-0.195762
	0.205000	-0.412818
	0.210000	-0.185896
	0.215000	0.031160
	0.220000	-0.195762
	0.225000	-0.419395
	0.230000	-0.185896
	0.235000	0.024582
	0.240000	-0.199051
	0.245000	-0.419395
	0.250000	-0.185896
	0.255000	0.027871
	0.260000	-0.202340
	0.265000	-0.412818
	0.270000	-0.189185
	0.275000	0.024582
	0.280000	-0.205628
	0.285000	-0.412818
	0.290000	-0.185896
	0.295000	0.027871
	0.300000	-0.205628
	0.305000	-0.419395
	0.310000	-0.185896
	0.315000	0.027871
	0.320000	-0.205628
	0.325000	-0.419395
	0.330000	-0.185896
	0.335000	0.024582
	0.340000	-0.205628
	0.345000	-0.419395
	0.350000	-0.182607
	0.355000	0.027871
	0.360000	-0.208917
	0.365000	-0.412818
	0.370000	-0.185896
	0.375000	0.027871
	0.380000	-0.205628
	0.385000	-0.416107
	0.390000	-0.182607
	0.395000	0.027871
	0.400000	-0.212206
	0.405000	-0.416107
	0.410000	-0.179319
	0.415000	0.027871
	0.420000	-0.208917
	0.425000	-0.416107
	0.430000	-0.176030
	0.435000	0.024582
	0.440000	-0.212206
	0.445000	-0.409529
	0.450000	-0.172741
	0.455000	0.027871
	0.460000	-0.208917
	0.465000	-0.419395
	0.470000	-0.172741
	0.475000	0.024582
	0.480000	-0.208917
	0.485000	-0.412818
	0.490000	-0.169453
	0.495000	0.027871
	0.500000	-0.208917
	0.505000	-0.412818
	0.510000	-0.176030
	0.515000	0.034448
	0.520000	-0.208917
	0.525000	-0.412818
	0.530000	-0.169453
	0.535000	0.027871
	0.540000	-0.215495
	0.545000	-0.416107
	0.550000	-0.172741
	0.555000	0.027871
	0.560000	-0.212206
	0.565000	-0.412818
	0.570000	-0.169453
	0.575000	0.024582
	0.580000	-0.215495
	0.585000	-0.412818
	0.590000	-0.172741
	0.595000	0.027871
	0.600000	-0.218783
	0.605000	-0.412818
	0.610000	-0.172741
	0.615000	0.027871
	0.620000	-0.222072
	0.625000	-0.412818
	0.630000	-0.169453
	0.635000	0.024582
	0.640000	-0.218783
	0.645000	-0.416107
	0.650000	-0.172741
	0.655000	0.021293
	0.660000	-0.218783
	0.665000	-0.412818
	0.670000	-0.169453
	0.675000	0.024582
	0.680000	-0.225361
	0.685000	-0.416107
	0.690000	-0.166164
	0.695000	0.024582
	0.700000	-0.225361
	0.705000	-0.416107
	0.710000	-0.166164
	0.715000	0.024582
	0.720000	-0.222072
	0.725000	-0.412818
	0.730000	-0.162875
	0.735000	0.024582
	0.740000	-0.225361
	0.745000	-0.416107
	0.750000	-0.166164
	0.755000	0.021293
	0.760000	-0.222072
	0.765000	-0.412818
	0.770000	-0.166164
	0.775000	0.024582
	0.780000	-0.222072
	0.785000	-0.416107
	0.790000	-0.166164
	0.795000	0.021293
	0.800000	-0.222072
	0.805000	-0.409529
	0.810000	-0.182607
	0.815000	0.004850
	0.820000	-0.153009
	0.825000	-0.301001
	0.830000	-0.185896
	0.835000	-0.103678
	0.840000	-0.235227
	0.845000	-0.330600
	0.850000	-0.199051
	0.855000	-0.093812
	0.860000	-0.222072
	0.865000	-0.314156
	0.870000	-0.176030
	0.875000	-0.077368
	0.880000	-0.205628
	0.885000	-0.304290
	0.890000	-0.166164
	0.895000	-0.064213
	0.900000	-0.195762
	0.905000	-0.284558
	0.910000	-0.149720
	0.915000	-0.054347
	0.920000	-0.185896
	0.925000	-0.277980
	0.930000	-0.146431
	0.935000	-0.047770
	0.940000	-0.185896
	0.945000	-0.277980
	0.950000	-0.139854
	0.955000	-0.044481
	0.960000	-0.179319
	0.965000	-0.271403
	0.970000	-0.133277
	0.975000	-0.034615
	0.980000	-0.156298
	0.985000	-0.231938
	0.990000	-0.080657
	0.995000	0.018005
	1.000000	-0.106967
	1.005000	-0.179319
	1.010000	-0.037904
	1.015000	0.057469
	1.020000	-0.070791
	1.025000	-0.146431
	1.030000	-0.008305
	1.035000	0.080490
	1.040000	-0.044481
	1.045000	-0.123410
	1.050000	0.014716
	1.055000	0.100223
	1.060000	-0.021460
	1.065000	-0.103678
	1.070000	0.037737
	1.075000	0.123244
	1.080000	-0.001728
	1.085000	-0.074080
	1.090000	0.057469
	1.095000	0.142976
	1.100000	0.021293
	1.105000	-0.051059
	1.110000	0.090357
	1.115000	0.165997
	1.120000	0.037737
	1.125000	-0.031326
	1.130000	0.103511
	1.135000	0.179152
	1.140000	0.050892
	1.145000	-0.060925
	1.150000	0.113378
	1.155000	0.248215
	1.160000	0.070624
	1.165000	-0.057636
	1.170000	0.119955
	1.175000	0.258081
	1.180000	0.090357
	1.185000	-0.041192
	1.190000	0.136399
	1.195000	0.267948
	1.200000	0.093645
	1.205000	-0.041192
	1.210000	0.146265
	1.215000	0.281102
	1.220000	0.103511
	1.225000	-0.031326
	1.230000	0.162708
	1.235000	0.300835
	1.240000	0.113378
	1.245000	-0.008305
	1.250000	0.175863
	1.255000	0.313990
	1.260000	0.129821
	1.265000	-0.005016
	1.270000	0.179152
	1.275000	0.317278
	1.280000	0.126533
	1.285000	-0.008305
	1.290000	0.175863
	1.295000	0.304124
	1.300000	0.113378
	1.305000	-0.021460
	1.310000	0.159420
	1.315000	0.287680
	1.320000	0.090357
	1.325000	-0.051059
	1.330000	0.136399
	1.335000	0.261370
	1.340000	0.064047
	1.345000	-0.067502
	1.350000	0.113378
	1.355000	0.241638
	1.360000	0.047603
	1.365000	-0.077368
	1.370000	0.106800
	1.375000	0.241638
	1.380000	0.047603
	1.385000	-0.074080
	1.390000	0.129821
	1.395000	0.271236
	1.400000	0.083779
	1.405000	-0.024749
	1.410000	0.182441
	1.415000	0.323856
	1.420000	0.156131
	1.425000	0.044314
	1.430000	0.235060
	1.435000	0.360032
	1.440000	0.169286
	1.445000	0.037737
	1.450000	0.218617
	1.455000	0.343588
	1.460000	0.149554
	1.465000	0.021293
	1.470000	0.195596
	1.475000	0.313990
	1.480000	0.195596
	1.485000	0.133110
	1.490000	0.261370
	1.495000	0.317278
	1.500000	0.156131
	1.505000	0.067335
	1.510000	0.231772
	1.515000	0.317278
	1.520000	0.064047
	1.525000	-0.060925
	1.530000	0.175863
	1.535000	0.284391
	1.540000	0.027871
	1.545000	-0.093812
	1.550000	0.159420
	1.555000	0.261370
	1.560000	0.021293
	1.565000	-0.100389
	1.570000	0.152842
	1.575000	0.261370
	1.580000	0.018005
	1.585000	-0.093812
	1.590000	0.149554
	1.595000	0.267948
	1.600000	0.021293
	1.605000	-0.093812
	1.610000	0.152842
	1.615000	0.264659
	1.620000	0.018005
	1.625000	-0.097101
	1.630000	0.156131
	1.635000	0.261370
	1.640000	0.018005
	1.645000	-0.093812
	1.650000	0.156131
	1.655000	0.267948
	1.660000	0.014716
	1.665000	-0.087234
	1.670000	0.162708
	1.675000	0.267948
	1.680000	0.018005
	1.685000	-0.093812
	1.690000	0.159420
	1.695000	0.261370
	1.700000	0.008138
	1.705000	-0.100389
	1.710000	0.152842
	1.715000	0.254793
	1.720000	-0.001728
	1.725000	-0.106967
	1.730000	0.146265
	1.735000	0.244927
	1.740000	-0.018171
	1.745000	-0.116833
	1.750000	0.146265
	1.755000	0.238349
	1.760000	-0.028037
	1.765000	-0.120122
	1.770000	0.142976
	1.775000	0.235060
	1.780000	-0.028037
	1.785000	-0.116833
	1.790000	0.149554
	1.795000	0.244927
	1.800000	-0.024749
	1.805000	-0.116833
	1.810000	0.156131
	1.815000	0.241638
	1.820000	-0.021460
	1.825000	-0.106967
	1.830000	0.156131
	1.835000	0.251504
	1.840000	-0.011594
	1.845000	-0.106967
	1.850000	0.152842
	1.855000	0.244927
	1.860000	-0.021460
	1.865000	-0.116833
	1.870000	0.146265
	1.875000	0.238349
	1.880000	-0.024749
	1.885000	-0.116833
	1.890000	0.146265
	1.895000	0.238349
	1.900000	-0.028037
	1.905000	-0.116833
	1.910000	0.142976
	1.915000	0.235060
	1.920000	-0.028037
	1.925000	-0.113544
	1.930000	0.152842
	1.935000	0.235060
	1.940000	-0.024749
	1.945000	-0.110256
	1.950000	0.149554
	1.955000	0.241638
	1.960000	0.070624
	1.965000	-0.018171
	1.970000	0.133110
	1.975000	0.198884
	1.980000	0.047603
	1.985000	-0.028037
	1.990000	0.100223
	1.995000	0.156131
	2.000000	0.011427
	2.005000	-0.041192
	2.010000	0.103511
	2.015000	0.159420
	2.020000	0.021293
	2.025000	-0.034615
	2.030000	0.110089
	2.035000	0.165997
	2.040000	0.014716
	2.045000	-0.031326
	2.050000	0.113378
	2.055000	0.165997
	2.060000	0.021293
	2.065000	-0.028037
	2.070000	0.113378
	2.075000	0.169286
	2.080000	0.024582
	2.085000	-0.031326
	2.090000	0.116666
	2.095000	0.169286
	2.100000	0.018005
	2.105000	-0.031326
	2.110000	0.116666
	2.115000	0.169286
	2.120000	0.021293
	2.125000	-0.034615
	2.130000	0.116666
	2.135000	0.165997
	2.140000	0.011427
	2.145000	-0.060925
	2.150000	0.182441
	2.155000	0.251504
	2.160000	-0.018171
	2.165000	-0.100389
	2.170000	0.159420
	2.175000	0.228483
	2.180000	-0.034615
	2.185000	-0.110256
	2.190000	0.152842
	2.195000	0.221905
	2.200000	-0.041192
	2.205000	-0.113544
	2.210000	0.142976
	2.215000	0.221905
	2.220000	-0.047770
	2.225000	-0.120122
	2.230000	0.146265
	2.235000	0.215328
	2.240000	-0.051059
	2.245000	-0.116833
	2.250000	0.146265
	2.255000	0.215328
	2.260000	-0.054347
	2.265000	-0.123410
	2.270000	0.142976
	2.275000	0.212039
	2.280000	-0.054347
	2.285000	-0.120122
	2.290000	0.142976
	2.295000	0.212039
	2.300000	-0.054347
	2.305000	-0.123410
	2.310000	0.142976
	2.315000	0.205462
	2.320000	-0.057636
	2.325000	-0.126699
	2.330000	0.142976
	2.335000	0.205462
	2.340000	-0.057636
	2.345000	-0.123410
	2.350000	0.139687
	2.355000	0.205462
	2.360000	-0.064213
	2.365000	-0.129988
	2.370000	0.142976
	2.375000	0.202173
	2.380000	-0.067502
	2.385000	-0.126699
	2.390000	0.142976
	2.395000	0.202173
	2.400000	-0.070791
	2.405000	-0.129988
	2.410000	0.139687
	2.415000	0.192307
	2.420000	-0.067502
	2.425000	-0.133277
	2.430000	0.133110
	2.435000	0.198884
	2.440000	-0.070791
	2.445000	-0.129988
	2.450000	0.123244
	2.455000	0.208751
	2.460000	-0.021460
	2.465000	-0.100389
	2.470000	0.123244
	2.475000	0.208751
	2.480000	0.001561
	2.485000	-0.074080
	2.490000	0.116666
	2.495000	0.189018
	2.500000	-0.011594
	2.505000	-0.097101
	2.510000	0.027871
	2.515000	0.054181
	2.520000	-0.093812
	2.525000	-0.113544
	2.530000	0.037737
	2.535000	0.080490
	2.540000	-0.057636
	2.545000	-0.080657
	2.550000	0.067335
	2.555000	0.103511
	2.560000	-0.041192
	2.565000	-0.064213
	2.570000	0.142976
	2.575000	0.208751
	2.580000	-0.014883
	2.585000	-0.090523
	2.590000	0.116666
	2.595000	0.185730
	2.600000	-0.034615
	2.605000	-0.103678
	2.610000	0.106800
	2.615000	0.179152
	2.620000	-0.037904
	2.625000	-0.110256
	2.630000	0.080490
	2.635000	0.142976
	2.640000	-0.077368
	2.645000	-0.136565
	2.650000	0.090357
	2.655000	0.169286
	2.660000	-0.047770
	2.665000	-0.116833
	2.670000	0.093645
	2.675000	0.146265
	2.680000	-0.116833
	2.685000	-0.146431
	2.690000	0.126533
	2.695000	0.175863
	2.700000	-0.090523
	2.705000	-0.133277
	2.710000	0.142976
	2.715000	0.175863
	2.720000	-0.103678
	2.725000	-0.133277
	2.730000	0.152842
	2.735000	0.182441
	2.740000	-0.103678
	2.745000	-0.129988
	2.750000	0.156131
	2.755000	0.182441
	2.760000	-0.097101
	2.765000	-0.123410
	2.770000	0.149554
	2.775000	0.185730
	2.780000	-0.097101
	2.785000	-0.126699
	2.790000	0.149554
	2.795000	0.179152
	2.800000	-0.100389
	2.805000	-0.126699
	2.810000	0.152842
	2.815000	0.179152
	2.820000	-0.097101
	2.825000	-0.126699
	2.830000	0.156131
	2.835000	0.182441
	2.840000	-0.100389
	2.845000	-0.126699
	2.850000	0.156131
	2.855000	0.179152
	2.860000	-0.106967
	2.865000	-0.120122
	2.870000	0.159420
	2.875000	0.175863
	2.880000	-0.110256
	2.885000	-0.129988
	2.890000	0.149554
	2.895000	0.165997
	2.900000	-0.120122
	2.905000	-0.139854
	2.910000	0.139687
	2.915000	0.156131
	2.920000	-0.129988
	2.925000	-0.143143
	2.930000	0.133110
	2.935000	0.149554
	2.940000	-0.126699
	2.945000	-0.153009
	2.950000	0.123244
	2.955000	0.152842
	2.960000	-0.116833
	2.965000	-0.143143
	2.970000	0.136399
	2.975000	0.159420
	2.980000	-0.106967
	2.985000	-0.129988
	2.990000	0.142976
	2.995000	0.175863
	3.000000	-0.093812
	3.005000	-0.116833
	3.010000	0.146265
	3.015000	0.179152
	3.020000	-0.093812
	3.025000	-0.116833
	3.030000	0.149554
	3.035000	0.172575
	3.040000	-0.100389
	3.045000	-0.126699
	3.050000	0.136399
	3.055000	0.152842
	3.060000	-0.116833
	3.065000	-0.143143
	3.070000	0.123244
	3.075000	0.142976
	3.080000	-0.126699
	3.085000	-0.149720
	3.090000	0.116666
	3.095000	0.139687
	3.100000	-0.126699
	3.105000	-0.153009
	3.110000	0.113378
	3.115000	0.139687
	3.120000	-0.126699
	3.125000	-0.153009
	3.130000	0.106800
	3.135000	0.136399
	3.140000	-0.129988
	3.145000	-0.156298
	3.150000	0.100223
	3.155000	0.123244
	3.160000	-0.139854
	3.165000	-0.159586
	3.170000	0.087068
	3.175000	0.119955
	3.180000	-0.129988
	3.185000	-0.169453
	3.190000	0.077202
	3.195000	0.110089
	3.200000	-0.123410
	3.205000	-0.159586
	3.210000	0.077202
	3.215000	0.110089
	3.220000	-0.120122
	3.225000	-0.153009
	3.230000	0.087068
	3.235000	0.119955
	3.240000	-0.113544
	3.245000	-0.146431
	3.250000	0.090357
	3.255000	0.119955
	3.260000	-0.120122
	3.265000	-0.156298
	3.270000	0.080490
	3.275000	0.106800
	3.280000	-0.136565
	3.285000	-0.162875
	3.290000	0.077202
	3.295000	0.103511
	3.300000	-0.139854
	3.305000	-0.166164
	3.310000	0.083779
	3.315000	0.103511
	3.320000	-0.153009
	3.325000	-0.169453
	3.330000	0.083779
	3.335000	0.103511
	3.340000	-0.153009
	3.345000	-0.166164
	3.350000	0.090357
	3.355000	0.116666
	3.360000	-0.146431
	3.365000	-0.156298
	3.370000	0.103511
	3.375000	0.116666
	3.380000	-0.143143
	3.385000	-0.159586
	3.390000	0.100223
	3.395000	0.110089
	3.400000	-0.159586
	3.405000	-0.162875
	3.410000	0.106800
	3.415000	0.103511
	3.420000	-0.169453
	3.425000	-0.169453
	3.430000	0.100223
	3.435000	0.096934
	3.440000	-0.176030
	3.445000	-0.176030
	3.450000	0.096934
	3.455000	0.100223
	3.460000	-0.176030
	3.465000	-0.169453
	3.470000	0.106800
	3.475000	0.100223
	3.480000	-0.176030
	3.485000	-0.162875
	3.490000	0.116666
	3.495000	0.106800
	3.500000	-0.169453
	3.505000	-0.156298
	3.510000	0.123244
	3.515000	0.113378
	3.520000	-0.166164
	3.525000	-0.153009
	3.530000	0.126533
	3.535000	0.113378
	3.540000	-0.166164
	3.545000	-0.149720
	3.550000	0.129821
	3.555000	0.110089
	3.560000	-0.166164
	3.565000	-0.149720
	3.570000	0.123244
	3.575000	0.106800
	3.580000	-0.169453
	3.585000	-0.146431
	3.590000	0.119955
	3.595000	0.106800
	3.600000	-0.172741
	3.605000	-0.149720
	3.610000	0.126533
	3.615000	0.103511
	3.620000	-0.176030
	3.625000	-0.149720
	3.630000	0.123244
	3.635000	0.103511
	3.640000	-0.169453
	3.645000	-0.149720
	3.650000	0.123244
	3.655000	0.100223
	3.660000	-0.179319
	3.665000	-0.149720
	3.670000	0.126533
	3.675000	0.100223
	3.680000	-0.179319
	3.685000	-0.149720
	3.690000	0.123244
	3.695000	0.100223
	3.700000	-0.179319
	3.705000	-0.149720
	3.710000	0.123244
	3.715000	0.090357
	3.720000	-0.179319
	3.725000	-0.149720
	3.730000	0.123244
	3.735000	0.096934
	3.740000	-0.179319
	3.745000	-0.146431
	3.750000	0.123244
	3.755000	0.096934
	3.760000	-0.179319
	3.765000	-0.149720
	3.770000	0.126533
	3.775000	0.096934
	3.780000	-0.176030
	3.785000	-0.146431
	3.790000	0.133110
	3.795000	0.096934
	3.800000	-0.179319
	3.805000	-0.143143
	3.810000	0.129821
	3.815000	0.096934
	3.820000	-0.176030
	3.825000	-0.143143
	3.830000	0.129821
	3.835000	0.096934
	3.840000	-0.179319
	3.845000	-0.143143
	3.850000	0.133110
	3.855000	0.093645
	3.860000	-0.185896
	3.865000	-0.139854
	3.870000	0.129821
	3.875000	0.096934
	3.880000	-0.182607
	3.885000	-0.143143
	3.890000	0.129821
	3.895000	0.093645
	3.900000	-0.185896
	3.905000	-0.143143
	3.910000	0.129821
	3.915000	0.090357
	3.920000	-0.189185
	3.925000	-0.143143
	3.930000	0.129821
	3.935000	0.087068
	3.940000	-0.185896
	3.945000	-0.143143
	3.950000	0.133110
	3.955000	0.080490
	3.960000	-0.189185
	3.965000	-0.139854
	3.970000	0.129821
	3.975000	0.087068
	3.980000	-0.192474
	3.985000	-0.143143
	3.990000	0.129821
	3.995000	0.080490
	4.000000	-0.195762
	4.005000	-0.146431
	4.010000	0.129821
	4.015000	0.083779
	4.020000	-0.192474
	4.025000	-0.139854
	4.030000	0.129821
	4.035000	0.080490
	4.040000	-0.195762
	4.045000	-0.146431
	4.050000	0.126533
	4.055000	0.073913
	4.060000	-0.192474
	4.065000	-0.143143
	4.070000	0.129821
	4.075000	0.080490
	4.080000	-0.195762
	4.085000	-0.143143
	4.090000	0.129821
	4.095000	0.077202
	4.100000	-0.199051
	4.105000	-0.143143
	4.110000	0.129821
	4.115000	0.077202
	4.120000	-0.199051
	4.125000	-0.139854
	4.130000	0.126533
	4.135000	0.073913
	4.140000	-0.195762
	4.145000	-0.146431
	4.150000	0.129821
	4.155000	0.073913
	4.160000	-0.199051
	4.165000	-0.143143
	4.170000	0.133110
	4.175000	0.070624
	4.180000	-0.202340
	4.185000	-0.146431
	4.190000	0.129821
	4.195000	0.070624
	4.200000	-0.202340
	4.205000	-0.139854
	4.210000	0.129821
	4.215000	0.077202
	4.220000	-0.202340
	4.225000	-0.139854
	4.230000	0.129821
	4.235000	0.070624
	4.240000	-0.199051
	4.245000	-0.139854
	4.250000	0.133110
	4.255000	0.070624
	4.260000	-0.205628
	4.265000	-0.139854
	4.270000	0.129821
	4.275000	0.067335
	4.280000	-0.202340
	4.285000	-0.136565
	4.290000	0.126533
	4.295000	0.064047
	4.300000	-0.202340
	4.305000	-0.139854
	4.310000	0.126533
	4.315000	0.067335
	4.320000	-0.208917
	4.325000	-0.143143
	4.330000	0.129821
	4.335000	0.060758
	4.340000	-0.208917
	4.345000	-0.143143
	4.350000	0.133110
	4.355000	0.054181
	4.360000	-0.212206
	4.365000	-0.143143
	4.370000	0.126533
	4.375000	0.057469
	4.380000	-0.212206
	4.385000	-0.143143
	4.390000	0.126533
	4.395000	0.057469
	4.400000	-0.212206
	4.405000	-0.139854
	4.410000	0.129821
	4.415000	0.060758
	4.420000	-0.208917
	4.425000	-0.133277
	4.430000	0.133110
	4.435000	0.064047
	4.440000	-0.212206
	4.445000	-0.133277
	4.450000	0.129821
	4.455000	0.060758
	4.460000	-0.212206
	4.465000	-0.133277
	4.470000	0.133110
	4.475000	0.057469
	4.480000	-0.215495
	4.485000	-0.133277
	4.490000	0.126533
	4.495000	0.054181
	4.500000	-0.208917
	4.505000	-0.139854
	4.510000	0.129821
	4.515000	0.050892
	4.520000	-0.218783
	4.525000	-0.143143
	4.530000	0.123244
	4.535000	0.044314
	4.540000	-0.215495
	4.545000	-0.136565
	4.550000	0.126533
	4.555000	0.054181
	4.560000	-0.218783
	4.565000	-0.139854
	4.570000	0.133110
	4.575000	0.041026
	4.580000	-0.222072
	4.585000	-0.129988
	4.590000	0.139687
	4.595000	0.044314
	4.600000	-0.222072
	4.605000	-0.126699
	4.610000	0.133110
	4.615000	0.047603
	4.620000	-0.222072
	4.625000	-0.123410
	4.630000	0.142976
	4.635000	0.047603
	4.640000	-0.228650
	4.645000	-0.126699
	4.650000	0.139687
	4.655000	0.044314
	4.660000	-0.231938
	4.665000	-0.133277
	4.670000	0.133110
	4.675000	0.031160
	4.680000	-0.241804
	4.685000	-0.143143
	4.690000	0.119955
	4.695000	0.018005
	4.700000	-0.248382
	4.705000	-0.153009
	4.710000	0.110089
	4.715000	0.014716
	4.720000	-0.254959
	4.725000	-0.149720
	4.730000	0.116666
	4.735000	0.018005
	4.740000	-0.248382
	4.745000	-0.143143
	4.750000	0.123244
	4.755000	0.024582
	4.760000	-0.235227
	4.765000	-0.129988
	4.770000	0.133110
	4.775000	0.041026
	4.780000	-0.228650
	4.785000	-0.123410
	4.790000	0.136399
	4.795000	0.041026
	4.800000	-0.218783
	4.805000	-0.113544
	4.810000	0.149554
	4.815000	0.047603
	4.820000	-0.218783
	4.825000	-0.120122
	4.830000	0.142976
	4.835000	0.037737
	4.840000	-0.222072
	4.845000	-0.123410
	4.850000	0.136399
	4.855000	0.027871
	4.860000	-0.231938
	4.865000	-0.136565
	4.870000	0.116666
	4.875000	0.014716
	4.880000	-0.251671
	4.885000	-0.159586
	4.890000	0.096934
	4.895000	-0.005016
	4.900000	-0.261537
	4.905000	-0.153009
	4.910000	0.106800
	4.915000	0.014716
	4.920000	-0.241804
	4.925000	-0.149720
	4.930000	0.106800
	4.935000	0.014716
	4.940000	-0.238516
	4.945000	-0.136565
	4.950000	0.119955
	4.955000	0.014716
	4.960000	-0.241804
	4.965000	-0.129988
	4.970000	0.126533
	4.975000	0.031160
	4.980000	-0.225361
	4.985000	-0.133277
	4.990000	0.116666
	4.995000	0.034448
	5.000000	-0.208917
	5.005000	-0.133277
	5.010000	0.103511
	5.015000	0.024582
	5.020000	-0.215495
	5.025000	-0.143143
	5.030000	0.090357
	5.035000	0.018005
	5.040000	-0.218783
	5.045000	-0.146431
	5.050000	0.090357
	5.055000	0.018005
	5.060000	-0.215495
	5.065000	-0.139854
	5.070000	0.090357
	5.075000	0.014716
	5.080000	-0.215495
	5.085000	-0.139854
	5.090000	0.090357
	5.095000	0.021293
	5.100000	-0.212206
	5.105000	-0.133277
	5.110000	0.093645
	5.115000	0.024582
	5.120000	-0.215495
	5.125000	-0.136565
	5.130000	0.093645
	5.135000	0.014716
	5.140000	-0.218783
	5.145000	-0.149720
	5.150000	0.077202
	5.155000	-0.001728
	5.160000	-0.235227
	5.165000	-0.159586
	5.170000	0.067335
	5.175000	-0.011594
	5.180000	-0.248382
	5.185000	-0.153009
	5.190000	0.087068
	5.195000	-0.014883
	5.200000	-0.261537
	5.205000	-0.179319
	5.210000	0.054181
	5.215000	-0.021460
	5.220000	-0.254959
	5.225000	-0.166164
	5.230000	0.064047
	5.235000	-0.011594
	5.240000	-0.248382
	5.245000	-0.149720
	5.250000	0.087068
	5.255000	-0.001728
	5.260000	-0.238516
	5.265000	-0.149720
	5.270000	0.090357
	5.275000	-0.001728
	5.280000	-0.238516
	5.285000	-0.143143
	5.290000	0.103511
	5.295000	-0.011594
	5.300000	-0.254959
	5.305000	-0.143143
	5.310000	0.103511
	5.315000	-0.011594
	5.320000	-0.261537
	5.325000	-0.129988
	5.330000	0.119955
	5.335000	-0.011594
	5.340000	-0.258248
	5.345000	-0.120122
	5.350000	0.123244
	5.355000	-0.008305
	5.360000	-0.254959
	5.365000	-0.120122
	5.370000	0.129821
	5.375000	-0.008305
	5.380000	-0.254959
	5.385000	-0.116833
	5.390000	0.133110
	5.395000	-0.008305
	5.400000	-0.251671
	5.405000	-0.116833
	5.410000	0.129821
	5.415000	-0.008305
	5.420000	-0.254959
	5.425000	-0.113544
	5.430000	0.126533
	5.435000	-0.008305
	5.440000	-0.258248
	5.445000	-0.113544
	5.450000	0.126533
	5.455000	-0.011594
	5.460000	-0.251671
	5.465000	-0.113544
	5.470000	0.126533
	5.475000	-0.011594
	5.480000	-0.254959
	5.485000	-0.110256
	5.490000	0.136399
	5.495000	-0.011594
	5.500000	-0.258248
	5.505000	-0.106967
	5.510000	0.136399
	5.515000	-0.014883
	5.520000	-0.254959
	5.525000	-0.106967
	5.530000	0.129821
	5.535000	-0.014883
	5.540000	-0.254959
	5.545000	-0.106967
	5.550000	0.136399
	5.555000	-0.021460
	5.560000	-0.258248
	5.565000	-0.110256
	5.570000	0.129821
	5.575000	-0.018171
	5.580000	-0.264826
	5.585000	-0.110256
	5.590000	0.133110
	5.595000	-0.024749
	5.600000	-0.264826
	5.605000	-0.116833
	5.610000	0.129821
	5.615000	-0.024749
	5.620000	-0.271403
	5.625000	-0.113544
	5.630000	0.126533
	5.635000	-0.028037
	5.640000	-0.268114
	5.645000	-0.116833
	5.650000	0.123244
	5.655000	-0.031326
	5.660000	-0.271403
	5.665000	-0.113544
	5.670000	0.123244
	5.675000	-0.034615
	5.680000	-0.271403
	5.685000	-0.110256
	5.690000	0.116666
	5.695000	-0.034615
	5.700000	-0.271403
	5.705000	-0.110256
	5.710000	0.123244
	5.715000	-0.031326
	5.720000	-0.271403
	5.725000	-0.110256
	5.730000	0.123244
	5.735000	-0.034615
	5.740000	-0.274692
	5.745000	-0.113544
	5.750000	0.119955
	5.755000	-0.037904
	5.760000	-0.274692
	5.765000	-0.106967
	5.770000	0.123244
	5.775000	-0.037904
	5.780000	-0.271403
	5.785000	-0.116833
	5.790000	0.116666
	5.795000	-0.037904
	5.800000	-0.271403
	5.805000	-0.113544
	5.810000	0.106800
	5.815000	-0.037904
	5.820000	-0.271403
	5.825000	-0.120122
	5.830000	0.110089
	5.835000	-0.044481
	5.840000	-0.274692
	5.845000	-0.120122
	5.850000	0.110089
	5.855000	-0.047770
	5.860000	-0.277980
	5.865000	-0.120122
	5.870000	0.110089
	5.875000	-0.047770
	5.880000	-0.277980
	5.885000	-0.116833
	5.890000	0.113378
	5.895000	-0.047770
	5.900000	-0.277980
	5.905000	-0.113544
	5.910000	0.110089
	5.915000	-0.047770
	5.920000	-0.271403
	5.925000	-0.113544
	5.930000	0.110089
	5.935000	-0.047770
	5.940000	-0.281269
	5.945000	-0.113544
	5.950000	0.113378
	5.955000	-0.051059
	5.960000	-0.274692
	5.965000	-0.110256
	5.970000	0.110089
	5.975000	-0.051059
	5.980000	-0.274692
	5.985000	-0.110256
	5.990000	0.116666
	5.995000	-0.047770
	6.000000	-0.274692
	6.005000	-0.106967
	6.010000	0.110089
	6.015000	-0.051059
	6.020000	-0.277980
	6.025000	-0.110256
	6.030000	0.110089
	6.035000	-0.051059
	6.040000	-0.277980
	6.045000	-0.106967
	6.050000	0.110089
	6.055000	-0.051059
	6.060000	-0.277980
	6.065000	-0.110256
	6.070000	0.113378
	6.075000	-0.054347
	6.080000	-0.277980
	6.085000	-0.106967
	6.090000	0.113378
	6.095000	-0.054347
	6.100000	-0.274692
	6.105000	-0.106967
	6.110000	0.113378
	6.115000	-0.054347
	6.120000	-0.277980
	6.125000	-0.106967
	6.130000	0.113378
	6.135000	-0.054347
	6.140000	-0.281269
	6.145000	-0.106967
	6.150000	0.116666
	6.155000	-0.060925
	6.160000	-0.277980
	6.165000	-0.103678
	6.170000	0.110089
	6.175000	-0.057636
	6.180000	-0.277980
	6.185000	-0.103678
	6.190000	0.113378
	6.195000	-0.060925
	6.200000	-0.277980
	6.205000	-0.103678
	6.210000	0.113378
	6.215000	-0.060925
	6.220000	-0.274692
	6.225000	-0.100389
	6.230000	0.110089
	6.235000	-0.067502
	6.240000	-0.277980
	6.245000	-0.100389
	6.250000	0.116666
	6.255000	-0.064213
	6.260000	-0.277980
	6.265000	-0.100389
	6.270000	0.110089
	6.275000	-0.067502
	6.280000	-0.277980
	6.285000	-0.100389
	6.290000	0.110089
	6.295000	-0.070791
	6.300000	-0.281269
	6.305000	-0.100389
	6.310000	0.110089
	6.315000	-0.067502
	6.320000	-0.281269
	6.325000	-0.097101
	6.330000	0.110089
	6.335000	-0.074080
	6.340000	-0.281269
	6.345000	-0.097101
	6.350000	0.106800
	6.355000	-0.070791
	6.360000	-0.284558
	6.365000	-0.100389
	6.370000	0.110089
	6.375000	-0.070791
	6.380000	-0.277980
	6.385000	-0.097101
	6.390000	0.110089
	6.395000	-0.074080
	6.400000	-0.281269
	6.405000	-0.093812
	6.410000	0.113378
	6.415000	-0.067502
	6.420000	-0.277980
	6.425000	-0.090523
	6.430000	0.113378
	6.435000	-0.067502
	6.440000	-0.277980
	6.445000	-0.100389
	6.450000	0.113378
	6.455000	-0.074080
	6.460000	-0.281269
	6.465000	-0.090523
	6.470000	0.110089
	6.475000	-0.077368
	6.480000	-0.281269
	6.485000	-0.090523
	6.490000	0.110089
	6.495000	-0.077368
	6.500000	-0.277980
	6.505000	-0.090523
	6.510000	0.116666
	6.515000	-0.074080
	6.520000	-0.277980
	6.525000	-0.087234
	6.530000	0.116666
	6.535000	-0.070791
	6.540000	-0.277980
	6.545000	-0.090523
	6.550000	0.110089
	6.555000	-0.077368
	6.560000	-0.277980
	6.565000	-0.087234
	6.570000	0.110089
	6.575000	-0.090523
	6.580000	-0.284558
	6.585000	-0.080657
	6.590000	0.119955
	6.595000	-0.087234
	6.600000	-0.281269
	6.605000	-0.083946
	6.610000	0.116666
	6.615000	-0.090523
	6.620000	-0.287847
	6.625000	-0.080657
	6.630000	0.113378
	6.635000	-0.090523
	6.640000	-0.287847
	6.645000	-0.077368
	6.650000	0.110089
	6.655000	-0.090523
	6.660000	-0.287847
	6.665000	-0.080657
	6.670000	0.110089
	6.675000	-0.097101
	6.680000	-0.294424
	6.685000	-0.087234
	6.690000	0.106800
	6.695000	-0.103678
	6.700000	-0.297713
	6.705000	-0.087234
	6.710000	0.103511
	6.715000	-0.106967
	6.720000	-0.304290
	6.725000	-0.087234
	6.730000	0.100223
	6.735000	-0.110256
	6.740000	-0.304290
	6.745000	-0.083946
	6.750000	0.100223
	6.755000	-0.110256
	6.760000	-0.304290
	6.765000	-0.080657
	6.770000	0.103511
	6.775000	-0.110256
	6.780000	-0.297713
	6.785000	-0.083946
	6.790000	0.110089
	6.795000	-0.106967
	6.800000	-0.291135
	6.805000	-0.070791
	6.810000	0.113378
	6.815000	-0.097101
	6.820000	-0.284558
	6.825000	-0.067502
	6.830000	0.116666
	6.835000	-0.097101
	6.840000	-0.281269
	6.845000	-0.070791
	6.850000	0.116666
	6.855000	-0.093812
	6.860000	-0.277980
	6.865000	-0.077368
	6.870000	0.110089
	6.875000	-0.083946
	6.880000	-0.271403
	6.885000	-0.077368
	6.890000	0.110089
	6.895000	-0.080657
	6.900000	-0.268114
	6.905000	-0.077368
	6.910000	0.110089
	6.915000	-0.074080
	6.920000	-0.261537
	6.925000	-0.080657
	6.930000	0.103511
	6.935000	-0.074080
	6.940000	-0.264826
	6.945000	-0.093812
	6.950000	0.087068
	6.955000	-0.093812
	6.960000	-0.284558
	6.965000	-0.113544
	6.970000	0.064047
	6.975000	-0.116833
	6.980000	-0.304290
	6.985000	-0.129988
	6.990000	0.044314
	6.995000	-0.129988
	7.000000	-0.314156
	7.005000	-0.139854
	7.010000	0.041026
	7.015000	-0.133277
	7.020000	-0.314156
	7.025000	-0.133277
	7.030000	0.047603
	7.035000	-0.126699
	7.040000	-0.307579
	7.045000	-0.116833
	7.050000	0.057469
	7.055000	-0.113544
	7.060000	-0.287847
	7.065000	-0.113544
	7.070000	0.070624
	7.075000	-0.113544
	7.080000	-0.294424
	7.085000	-0.110256
	7.090000	0.067335
	7.095000	-0.113544
	7.100000	-0.297713
	7.105000	-0.106967
	7.110000	0.070624
	7.115000	-0.110256
	7.120000	-0.291135
	7.125000	-0.106967
	7.130000	0.070624
	7.135000	-0.106967
	7.140000	-0.291135
	7.145000	-0.087234
	7.150000	0.090357
	7.155000	-0.116833
	7.160000	-0.291135
	7.165000	-0.087234
	7.170000	0.083779
	7.175000	-0.097101
	7.180000	-0.274692
	7.185000	-0.093812
	7.190000	0.080490
	7.195000	-0.106967
	7.200000	-0.284558
	7.205000	-0.103678
	7.210000	0.070624
	7.215000	-0.113544
	7.220000	-0.291135
	7.225000	-0.106967
	7.230000	0.067335
	7.235000	-0.113544
	7.240000	-0.294424
	7.245000	-0.100389
	7.250000	0.077202
	7.255000	-0.136565
	7.260000	-0.310868
	7.265000	-0.090523
	7.270000	0.080490
	7.275000	-0.126699
	7.280000	-0.294424
	7.285000	-0.087234
	7.290000	0.087068
	7.295000	-0.129988
	7.300000	-0.297713
	7.305000	-0.077368
	7.310000	0.093645
	7.315000	-0.120122
	7.320000	-0.294424
	7.325000	-0.074080
	7.330000	0.087068
	7.335000	-0.123410
	7.340000	-0.291135
	7.345000	-0.060925
	7.350000	0.096934
	7.355000	-0.129988
	7.360000	-0.291135
	7.365000	-0.067502
	7.370000	0.093645
	7.375000	-0.136565
	7.380000	-0.297713
	7.385000	-0.064213
	7.390000	0.093645
	7.395000	-0.143143
	7.400000	-0.307579
	7.405000	-0.067502
	7.410000	0.083779
	7.415000	-0.153009
	7.420000	-0.310868
	7.425000	-0.070791
	7.430000	0.087068
	7.435000	-0.149720
	7.440000	-0.304290
	7.445000	-0.067502
	7.450000	0.087068
	7.455000	-0.153009
	7.460000	-0.304290
	7.465000	-0.067502
	7.470000	0.087068
	7.475000	-0.153009
	7.480000	-0.304290
	7.485000	-0.064213
	7.490000	0.087068
	7.495000	-0.153009
	7.500000	-0.304290
	7.505000	-0.064213
	7.510000	0.087068
	7.515000	-0.149720
	7.520000	-0.307579
	7.525000	-0.070791
	7.530000	0.083779
	7.535000	-0.159586
	7.540000	-0.310868
	7.545000	-0.064213
	7.550000	0.083779
	7.555000	-0.159586
	7.560000	-0.307579
	7.565000	-0.067502
	7.570000	0.083779
	7.575000	-0.156298
	7.580000	-0.304290
	7.585000	-0.060925
	7.590000	0.080490
	7.595000	-0.156298
	7.600000	-0.304290
	7.605000	-0.064213
	7.610000	0.087068
	7.615000	-0.159586
	7.620000	-0.304290
	7.625000	-0.060925
	7.630000	0.083779
	7.635000	-0.159586
	7.640000	-0.304290
	7.645000	-0.060925
	7.650000	0.080490
	7.655000	-0.162875
	7.660000	-0.304290
	7.665000	-0.064213
	7.670000	0.083779
	7.675000	-0.166164
	7.680000	-0.307579
	7.685000	-0.060925
	7.690000	0.077202
	7.695000	-0.169453
	7.700000	-0.307579
	7.705000	-0.064213
	7.710000	0.077202
	7.715000	-0.172741
	7.720000	-0.310868
	7.725000	-0.064213
	7.730000	0.073913
	7.735000	-0.169453
	7.740000	-0.314156
	7.745000	-0.057636
	7.750000	0.077202
	7.755000	-0.172741
	7.760000	-0.314156
	7.765000	-0.060925
	7.770000	0.073913
	7.775000	-0.172741
	7.780000	-0.307579
	7.785000	-0.054347
	7.790000	0.080490
	7.795000	-0.172741
	7.800000	-0.304290
	7.805000	-0.054347
	7.810000	0.080490
	7.815000	-0.172741
	7.820000	-0.307579
	7.825000	-0.054347
	7.830000	0.083779
	7.835000	-0.172741
	7.840000	-0.304290
	7.845000	-0.057636
	7.850000	0.087068
	7.855000	-0.172741
	7.860000	-0.307579
	7.865000	-0.060925
	7.870000	0.080490
	7.875000	-0.176030
	7.880000	-0.304290
	7.885000	-0.054347
	7.890000	0.073913
	7.895000	-0.176030
	7.900000	-0.307579
	7.905000	-0.054347
	7.910000	0.073913
	7.915000	-0.179319
	7.920000	-0.307579
	7.925000	-0.054347
	7.930000	0.070624
	7.935000	-0.182607
	7.940000	-0.314156
	7.945000	-0.054347
	7.950000	0.077202
	7.955000	-0.182607
	7.960000	-0.310868
	7.965000	-0.054347
	7.970000	0.073913
	7.975000	-0.182607
	7.980000	-0.307579
	7.985000	-0.054347
	7.990000	0.070624
	7.995000	-0.182607
	8.000000	-0.307579
	8.005000	-0.047770
	8.010000	0.067335
	8.015000	-0.182607
	8.020000	-0.304290
	8.025000	-0.051059
	8.030000	0.073913
	8.035000	-0.185896
	8.040000	-0.301001
	8.045000	-0.051059
	8.050000	0.073913
	8.055000	-0.185896
	8.060000	-0.304290
	8.065000	-0.047770
	8.070000	0.067335
	8.075000	-0.189185
	8.080000	-0.307579
	8.085000	-0.054347
	8.090000	0.070624
	8.095000	-0.192474
	8.100000	-0.310868
	8.105000	-0.044481
	8.110000	0.067335
	8.115000	-0.195762
	8.120000	-0.307579
	8.125000	-0.051059
	8.130000	0.067335
	8.135000	-0.189185
	8.140000	-0.310868
	8.145000	-0.047770
	8.150000	0.067335
	8.155000	-0.189185
	8.160000	-0.304290
	8.165000	-0.044481
	8.170000	0.070624
	8.175000	-0.195762
	8.180000	-0.307579
	8.185000	-0.044481
	8.190000	0.070624
	8.195000	-0.192474
	8.200000	-0.304290
	8.205000	-0.047770
	8.210000	0.070624
	8.215000	-0.195762
	8.220000	-0.307579
	8.225000	-0.041192
	8.230000	0.070624
	8.235000	-0.195762
	8.240000	-0.304290
	8.245000	-0.037904
	8.250000	0.070624
	8.255000	-0.192474
	8.260000	-0.304290
	8.265000	-0.037904
	8.270000	0.070624
	8.275000	-0.192474
	8.280000	-0.297713
	8.285000	-0.034615
	8.290000	0.077202
	8.295000	-0.192474
	8.300000	-0.297713
	8.305000	-0.031326
	8.310000	0.073913
	8.315000	-0.189185
	8.320000	-0.297713
	8.325000	-0.031326
	8.330000	0.077202
	8.335000	-0.185896
	8.340000	-0.294424
	8.345000	-0.028037
	8.350000	0.077202
	8.355000	-0.192474
	8.360000	-0.294424
	8.365000	-0.028037
	8.370000	0.073913
	8.375000	-0.192474
	8.380000	-0.297713
	8.385000	-0.031326
	8.390000	0.073913
	8.395000	-0.192474
	8.400000	-0.297713
	8.405000	-0.028037
	8.410000	0.067335
	8.415000	-0.195762
	8.420000	-0.294424
	8.425000	-0.028037
	8.430000	0.073913
	8.435000	-0.199051
	8.440000	-0.294424
	8.445000	-0.031326
	8.450000	0.070624
	8.455000	-0.192474
	8.460000	-0.297713
	8.465000	-0.031326
	8.470000	0.073913
	8.475000	-0.199051
	8.480000	-0.297713
	8.485000	-0.028037
	8.490000	0.067335
	8.495000	-0.199051
	8.500000	-0.301001
	8.505000	-0.031326
	8.510000	0.067335
	8.515000	-0.212206
	8.520000	-0.307579
	8.525000	-0.037904
	8.530000	0.060758
	8.535000	-0.212206
	8.540000	-0.307579
	8.545000	-0.037904
	8.550000	0.054181
	8.555000	-0.215495
	8.560000	-0.310868
	8.565000	-0.041192
	8.570000	0.047603
	8.575000	-0.222072
	8.580000	-0.310868
	8.585000	-0.044481
	8.590000	0.047603
	8.595000	-0.218783
	8.600000	-0.317445
	8.605000	-0.037904
	8.610000	0.047603
	8.615000	-0.222072
	8.620000	-0.304290
	8.625000	-0.041192
	8.630000	0.057469
	8.635000	-0.215495
	8.640000	-0.304290
	8.645000	-0.028037
	8.650000	0.054181
	8.655000	-0.212206
	8.660000	-0.304290
	8.665000	-0.031326
	8.670000	0.057469
	8.675000	-0.215495
	8.680000	-0.307579
	8.685000	-0.037904
	8.690000	0.047603
	8.695000	-0.228650
	8.700000	-0.317445
	8.705000	-0.047770
	8.710000	0.037737
	8.715000	-0.235227
	8.720000	-0.320734
	8.725000	-0.047770
	8.730000	0.037737
	8.735000	-0.231938
	8.740000	-0.317445
	8.745000	-0.044481
	8.750000	0.047603
	8.755000	-0.231938
	8.760000	-0.310868
	8.765000	-0.034615
	8.770000	0.047603
	8.775000	-0.222072
	8.780000	-0.304290
	8.785000	-0.028037
	8.790000	0.047603
	8.795000	-0.222072
	8.800000	-0.301001
	8.805000	-0.028037
	8.810000	0.044314
	8.815000	-0.225361
	8.820000	-0.307579
	8.825000	-0.037904
	8.830000	0.041026
	8.835000	-0.238516
	8.840000	-0.314156
	8.845000	-0.041192
	8.850000	0.034448
	8.855000	-0.238516
	8.860000	-0.314156
	8.865000	-0.037904
	8.870000	0.041026
	8.875000	-0.235227
	8.880000	-0.310868
	8.885000	-0.041192
	8.890000	0.041026
	8.895000	-0.235227
	8.900000	-0.307579
	8.905000	-0.031326
	8.910000	0.044314
	8.915000	-0.231938
	8.920000	-0.301001
	8.925000	-0.034615
	8.930000	0.047603
	8.935000	-0.218783
	8.940000	-0.297713
	8.945000	-0.037904
	8.950000	0.041026
	8.955000	-0.218783
	8.960000	-0.301001
	8.965000	-0.041192
	8.970000	0.041026
	8.975000	-0.218783
	8.980000	-0.307579
	8.985000	-0.041192
	8.990000	0.037737
	8.995000	-0.225361
	9.000000	-0.304290
	9.005000	-0.028037
	9.010000	0.047603
	9.015000	-0.215495
	9.020000	-0.297713
	9.025000	-0.041192
	9.030000	0.041026
	9.035000	-0.225361
	9.040000	-0.304290
	9.045000	-0.051059
	9.050000	0.027871
	9.055000	-0.231938
	9.060000	-0.310868
	9.065000	-0.054347
	9.070000	0.024582
	9.075000	-0.235227
	9.080000	-0.314156
	9.085000	-0.047770
	9.090000	0.024582
	9.095000	-0.238516
	9.100000	-0.310868
	9.105000	-0.047770
	9.110000	0.027871
	9.115000	-0.235227
	9.120000	-0.304290
	9.125000	-0.037904
	9.130000	0.037737
	9.135000	-0.235227
	9.140000	-0.304290
	9.145000	-0.037904
	9.150000	0.027871
	9.155000	-0.238516
	9.160000	-0.310868
	9.165000	-0.047770
	9.170000	0.011427
	9.175000	-0.251671
	9.180000	-0.324023
	9.185000	-0.060925
	9.190000	-0.005016
	9.195000	-0.284558
	9.200000	-0.337177
	9.205000	-0.067502
	9.210000	-0.005016
	9.215000	-0.284558
	9.220000	-0.343755
	9.225000	-0.064213
	9.230000	0.001561
	9.235000	-0.268114
	9.240000	-0.327311
	9.245000	-0.054347
	9.250000	0.011427
	9.255000	-0.258248
	9.260000	-0.320734
	9.265000	-0.044481
	9.270000	0.018005
	9.275000	-0.254959
	9.280000	-0.304290
	9.285000	-0.028037
	9.290000	0.031160
	9.295000	-0.248382
	9.300000	-0.301001
	9.305000	-0.021460
	9.310000	0.034448
	9.315000	-0.245093
	9.320000	-0.297713
	9.325000	-0.021460
	9.330000	0.034448
	9.335000	-0.248382
	9.340000	-0.297713
	9.345000	-0.024749
	9.350000	0.024582
	9.355000	-0.251671
	9.360000	-0.307579
	9.365000	-0.041192
	9.370000	0.008138
	9.375000	-0.261537
	9.380000	-0.314156
	9.385000	-0.044481
	9.390000	0.008138
	9.395000	-0.268114
	9.400000	-0.317445
	9.405000	-0.047770
	9.410000	0.008138
	9.415000	-0.264826
	9.420000	-0.314156
	9.425000	-0.037904
	9.430000	0.011427
	9.435000	-0.258248
	9.440000	-0.310868
	9.445000	-0.031326
	9.450000	0.014716
	9.455000	-0.258248
	9.460000	-0.301001
	9.465000	-0.031326
	9.470000	0.024582
	9.475000	-0.254959
	9.480000	-0.301001
	9.485000	-0.028037
	9.490000	0.018005
	9.495000	-0.258248
	9.500000	-0.304290
	9.505000	-0.031326
	9.510000	0.014716
	9.515000	-0.268114
	9.520000	-0.307579
	9.525000	-0.037904
	9.530000	0.011427
	9.535000	-0.271403
	9.540000	-0.307579
	9.545000	-0.037904
	9.550000	0.001561
	9.555000	-0.268114
	9.560000	-0.307579
	9.565000	-0.031326
	9.570000	0.011427
	9.575000	-0.268114
	9.580000	-0.301001
	9.585000	-0.024749
	9.590000	0.011427
	9.595000	-0.264826
	9.600000	-0.297713
	9.605000	-0.024749
	9.610000	0.011427
	9.615000	-0.264826
	9.620000	-0.297713
	9.625000	-0.028037
	9.630000	0.014716
	9.635000	-0.268114
	9.640000	-0.301001
	9.645000	-0.024749
	9.650000	0.011427
	9.655000	-0.268114
	9.660000	-0.304290
	9.665000	-0.028037
	9.670000	0.001561
	9.675000	-0.274692
	9.680000	-0.304290
	9.685000	-0.028037
	9.690000	0.001561
	9.695000	-0.277980
	9.700000	-0.304290
	9.705000	-0.034615
	9.710000	0.004850
	9.715000	-0.277980
	9.720000	-0.307579
	9.725000	-0.031326
	9.730000	0.001561
	9.735000	-0.277980
	9.740000	-0.304290
	9.745000	-0.028037
	9.750000	0.001561
	9.755000	-0.281269
	9.760000	-0.304290
	9.765000	-0.028037
	9.770000	-0.001728
	9.775000	-0.284558
	9.780000	-0.301001
	9.785000	-0.028037
	9.790000	-0.005016
	9.795000	-0.284558
	9.800000	-0.304290
	9.805000	-0.024749
	9.810000	-0.001728
	9.815000	-0.284558
	9.820000	-0.304290
	9.825000	-0.031326
	9.830000	-0.005016
	9.835000	-0.284558
	9.840000	-0.304290
	9.845000	-0.031326
	9.850000	-0.001728
	9.855000	-0.284558
	9.860000	-0.304290
	9.865000	-0.024749
	9.870000	-0.005016
	9.875000	-0.281269
	9.880000	-0.307579
	9.885000	-0.021460
	9.890000	-0.005016
	9.895000	-0.287847
	9.900000	-0.301001
	9.905000	-0.024749
	9.910000	-0.001728
	9.915000	-0.281269
	9.920000	-0.301001
	9.925000	-0.024749
	9.930000	-0.005016
	9.935000	-0.284558
	9.940000	-0.301001
	9.945000	-0.018171
	9.950000	-0.011594
	9.955000	-0.287847
	9.960000	-0.301001
	9.965000	-0.024749
	9.970000	-0.011594
	9.975000	-0.287847
	9.980000	-0.301001
	9.985000	-0.028037
	9.990000	-0.008305
	9.995000	-0.287847
	10.000000	-0.301001
	10.005000	-0.021460
	10.010000	-0.008305
	10.015000	-0.287847
	10.020000	-0.304290
	10.025000	-0.024749
	10.030000	-0.011594
	10.035000	-0.287847
	10.040000	-0.301001
	10.045000	-0.021460
	10.050000	-0.011594
	10.055000	-0.287847
	10.060000	-0.297713
	10.065000	-0.021460
	10.070000	-0.014883
	10.075000	-0.291135
	10.080000	-0.294424
	10.085000	-0.024749
	10.090000	-0.011594
	10.095000	-0.291135
	10.100000	-0.304290
	10.105000	-0.028037
	10.110000	-0.014883
	10.115000	-0.291135
	10.120000	-0.301001
	10.125000	-0.031326
	10.130000	-0.018171
	10.135000	-0.291135
	10.140000	-0.294424
	10.145000	-0.021460
	10.150000	-0.005016
	10.155000	-0.281269
	10.160000	-0.297713
	10.165000	-0.024749
	10.170000	-0.011594
	10.175000	-0.277980
	10.180000	-0.294424
	10.185000	-0.028037
	10.190000	-0.014883
	10.195000	-0.277980
	10.200000	-0.291135
	10.205000	-0.028037
	10.210000	-0.008305
	10.215000	-0.281269
	10.220000	-0.291135
	10.225000	-0.024749
	10.230000	-0.011594
	10.235000	-0.287847
	10.240000	-0.294424
	10.245000	-0.028037
	10.250000	-0.011594
	10.255000	-0.277980
	10.260000	-0.310868
	10.265000	-0.074080
	10.270000	-0.037904
	10.275000	-0.271403
	10.280000	-0.294424
	10.285000	-0.067502
	10.290000	-0.028037
	10.295000	-0.261537
	10.300000	-0.287847
	10.305000	-0.060925
	10.310000	-0.031326
	10.315000	-0.258248
	10.320000	-0.291135
	10.325000	-0.057636
	10.330000	-0.028037
	10.335000	-0.268114
	10.340000	-0.271403
	10.345000	-0.005016
	10.350000	-0.014883
	10.355000	-0.294424
	10.360000	-0.281269
	10.365000	-0.008305
	10.370000	-0.018171
	10.375000	-0.294424
	10.380000	-0.284558
	10.385000	-0.011594
	10.390000	-0.021460
	10.395000	-0.301001
	10.400000	-0.291135
	10.405000	-0.011594
	10.410000	-0.024749
	10.415000	-0.304290
	10.420000	-0.291135
	10.425000	-0.014883
	10.430000	-0.021460
	10.435000	-0.307579
	10.440000	-0.287847
	10.445000	-0.011594
	10.450000	-0.028037
	10.455000	-0.304290
	10.460000	-0.291135
	10.465000	-0.008305
	10.470000	-0.031326
	10.475000	-0.310868
	10.480000	-0.284558
	10.485000	-0.001728
	10.490000	-0.031326
	10.495000	-0.314156
	10.500000	-0.281269
	10.505000	-0.001728
	10.510000	-0.031326
	10.515000	-0.317445
	10.520000	-0.284558
	10.525000	-0.001728
	10.530000	-0.024749
	10.535000	-0.317445
	10.540000	-0.284558
	10.545000	-0.001728
	10.550000	-0.031326
	10.555000	-0.317445
	10.560000	-0.284558
	10.565000	-0.005016
	10.570000	-0.031326
	10.575000	-0.317445
	10.580000	-0.284558
	10.585000	-0.001728
	10.590000	-0.031326
	10.595000	-0.314156
	10.600000	-0.284558
	10.605000	0.001561
	10.610000	-0.024749
	10.615000	-0.307579
	10.620000	-0.277980
	10.625000	0.001561
	10.630000	-0.037904
	10.635000	-0.314156
	10.640000	-0.281269
	10.645000	0.001561
	10.650000	-0.028037
	10.655000	-0.317445
	10.660000	-0.277980
	10.665000	0.001561
	10.670000	-0.034615
	10.675000	-0.317445
	10.680000	-0.277980
	10.685000	0.004850
	10.690000	-0.034615
	10.695000	-0.320734
	10.700000	-0.281269
	10.705000	0.001561
	10.710000	-0.041192
	10.715000	-0.320734
	10.720000	-0.281269
	10.725000	-0.001728
	10.730000	-0.041192
	10.735000	-0.324023
	10.740000	-0.284558
	10.745000	-0.001728
	10.750000	-0.041192
	10.755000	-0.320734
	10.760000	-0.277980
	10.765000	0.001561
	10.770000	-0.031326
	10.775000	-0.314156
	10.780000	-0.271403
	10.785000	-0.001728
	10.790000	-0.037904
	10.795000	-0.314156
	10.800000	-0.281269
	10.805000	-0.005016
	10.810000	-0.037904
	10.815000	-0.314156
	10.820000	-0.277980
	10.825000	-0.005016
	10.830000	-0.041192
	10.835000	-0.320734
	10.840000	-0.274692
	10.845000	-0.001728
	10.850000	-0.047770
	10.855000	-0.314156
	10.860000	-0.274692
	10.865000	-0.005016
	10.870000	-0.044481
	10.875000	-0.320734
	10.880000	-0.277980
	10.885000	-0.008305
	10.890000	-0.051059
	10.895000	-0.320734
	10.900000	-0.281269
	10.905000	-0.008305
	10.910000	-0.047770
	10.915000	-0.320734
	10.920000	-0.287847
	10.925000	-0.014883
	10.930000	-0.057636
	10.935000	-0.330600
	10.940000	-0.294424
	10.945000	-0.021460
	10.950000	-0.064213
	10.955000	-0.347044
	10.960000	-0.301001
	10.965000	-0.028037
	10.970000	-0.077368
	10.975000	-0.343755
	10.980000	-0.297713
	10.985000	-0.031326
	10.990000	-0.074080
	10.995000	-0.350332
	11.000000	-0.297713
	11.005000	-0.021460
	11.010000	-0.064213
	11.015000	-0.330600
	11.020000	-0.284558
	11.025000	-0.005016
	11.030000	-0.051059
	11.035000	-0.317445
	11.040000	-0.264826
	11.045000	0.008138
	11.050000	-0.037904
	11.055000	-0.304290
	11.060000	-0.254959
	11.065000	0.014716
	11.070000	-0.031326
	11.075000	-0.307579
	11.080000	-0.258248
	11.085000	0.004850
	11.090000	-0.044481
	11.095000	-0.320734
	11.100000	-0.274692
	11.105000	-0.014883
	11.110000	-0.070791
	11.115000	-0.340466
	11.120000	-0.294424
	11.125000	-0.031326
	11.130000	-0.083946
	11.135000	-0.356910
	11.140000	-0.297713
	11.145000	-0.031326
	11.150000	-0.093812
	11.155000	-0.373353
	11.160000	-0.314156
	11.165000	-0.051059
	11.170000	-0.097101
	11.175000	-0.356910
	11.180000	-0.304290
	11.185000	-0.047770
	11.190000	-0.083946
	11.195000	-0.330600
	11.200000	-0.294424
	11.205000	-0.044481
	11.210000	-0.074080
	11.215000	-0.317445
	11.220000	-0.287847
	11.225000	-0.044481
	11.230000	-0.067502
	11.235000	-0.304290
	11.240000	-0.281269
	11.245000	-0.051059
	11.250000	-0.074080
	11.255000	-0.310868
	11.260000	-0.277980
	11.265000	-0.054347
	11.270000	-0.077368
	11.275000	-0.307579
	11.280000	-0.287847
	11.285000	-0.057636
	11.290000	-0.087234
	11.295000	-0.317445
	11.300000	-0.284558
	11.305000	-0.054347
	11.310000	-0.077368
	11.315000	-0.310868
	11.320000	-0.277980
	11.325000	-0.051059
	11.330000	-0.080657
	11.335000	-0.310868
	11.340000	-0.287847
	11.345000	-0.060925
	11.350000	-0.093812
	11.355000	-0.330600
	11.360000	-0.297713
	11.365000	-0.060925
	11.370000	-0.106967
	11.375000	-0.347044
	11.380000	-0.310868
	11.385000	-0.080657
	11.390000	-0.136565
	11.395000	-0.389797
	11.400000	-0.327311
	11.405000	-0.067502
	11.410000	-0.116833
	11.415000	-0.356910
	11.420000	-0.310868
	11.425000	-0.064213
	11.430000	-0.106967
	11.435000	-0.353621
	11.440000	-0.304290
	11.445000	-0.054347
	11.450000	-0.097101
	11.455000	-0.340466
	11.460000	-0.291135
	11.465000	-0.044481
	11.470000	-0.087234
	11.475000	-0.333889
	11.480000	-0.287847
	11.485000	-0.031326
	11.490000	-0.080657
	11.495000	-0.330600
	11.500000	-0.281269
	11.505000	-0.037904
	11.510000	-0.080657
	11.515000	-0.333889
	11.520000	-0.277980
	11.525000	-0.031326
	11.530000	-0.103678
	11.535000	-0.366776
	11.540000	-0.281269
	11.545000	-0.018171
	11.550000	-0.097101
	11.555000	-0.356910
	11.560000	-0.274692
	11.565000	-0.011594
	11.570000	-0.093812
	11.575000	-0.353621
	11.580000	-0.268114
	11.585000	-0.008305
	11.590000	-0.097101
	11.595000	-0.356910
	11.600000	-0.264826
	11.605000	-0.011594
	11.610000	-0.097101
	11.615000	-0.363487
	11.620000	-0.268114
	11.625000	-0.001728
	11.630000	-0.103678
	11.635000	-0.370065
	11.640000	-0.268114
	11.645000	-0.008305
	11.650000	-0.106967
	11.655000	-0.373353
	11.660000	-0.271403
	11.665000	-0.008305
	11.670000	-0.106967
	11.675000	-0.376642
	11.680000	-0.264826
	11.685000	-0.008305
	11.690000	-0.106967
	11.695000	-0.373353
	11.700000	-0.268114
	11.705000	-0.008305
	11.710000	-0.106967
	11.715000	-0.373353
	11.720000	-0.268114
	11.725000	-0.008305
	11.730000	-0.106967
	11.735000	-0.370065
	11.740000	-0.271403
	11.745000	-0.008305
	11.750000	-0.106967
	11.755000	-0.370065
	11.760000	-0.268114
	11.765000	-0.011594
	11.770000	-0.113544
	11.775000	-0.370065
	11.780000	-0.268114
	11.785000	-0.011594
	11.790000	-0.106967
	11.795000	-0.370065
	11.800000	-0.264826
	11.805000	-0.014883
	11.810000	-0.110256
	11.815000	-0.373353
	11.820000	-0.268114
	11.825000	-0.014883
	11.830000	-0.113544
	11.835000	-0.370065
	11.840000	-0.268114
	11.845000	-0.011594
	11.850000	-0.113544
	11.855000	-0.373353
	11.860000	-0.268114
	11.865000	-0.008305
	11.870000	-0.113544
	11.875000	-0.373353
	11.880000	-0.268114
	11.885000	-0.008305
	11.890000	-0.113544
	11.895000	-0.376642
	11.900000	-0.264826
	11.905000	-0.011594
	11.910000	-0.120122
	11.915000	-0.370065
	11.920000	-0.268114
	11.925000	-0.011594
	11.930000	-0.113544
	11.935000	-0.373353
	11.940000	-0.264826
	11.945000	-0.011594
	11.950000	-0.120122
	11.955000	-0.376642
	11.960000	-0.264826
	11.965000	-0.011594
	11.970000	-0.123410
	11.975000	-0.370065
	11.980000	-0.258248
	11.985000	-0.008305
	11.990000	-0.120122
	11.995000	-0.383220
	12.000000	-0.264826
	12.005000	-0.008305
	12.010000	-0.120122
	12.015000	-0.379931
	12.020000	-0.258248
	12.025000	-0.008305
	12.030000	-0.123410
	12.035000	-0.379931
	12.040000	-0.264826
	12.045000	-0.014883
	12.050000	-0.129988
	12.055000	-0.379931
	12.060000	-0.261537
	12.065000	-0.008305
	12.070000	-0.129988
	12.075000	-0.383220
	12.080000	-0.261537
	12.085000	-0.011594
	12.090000	-0.126699
	12.095000	-0.383220
	12.100000	-0.261537
	12.105000	-0.011594
	12.110000	-0.133277
	12.115000	-0.383220
	12.120000	-0.258248
	12.125000	-0.011594
	12.130000	-0.136565
	12.135000	-0.386508
	12.140000	-0.258248
	12.145000	-0.011594
	12.150000	-0.133277
	12.155000	-0.386508
	12.160000	-0.254959
	12.165000	-0.008305
	12.170000	-0.139854
	12.175000	-0.383220
	12.180000	-0.258248
	12.185000	-0.008305
	12.190000	-0.136565
	12.195000	-0.383220
	12.200000	-0.258248
	12.205000	-0.005016
	12.210000	-0.136565
	12.215000	-0.383220
	12.220000	-0.251671
	12.225000	-0.008305
	12.230000	-0.136565
	12.235000	-0.383220
	12.240000	-0.251671
	12.245000	-0.008305
	12.250000	-0.136565
	12.255000	-0.383220
	12.260000	-0.254959
	12.265000	-0.008305
	12.270000	-0.139854
	12.275000	-0.383220
	12.280000	-0.251671
	12.285000	-0.011594
	12.290000	-0.139854
	12.295000	-0.386508
	12.300000	-0.254959
	12.305000	-0.011594
	12.310000	-0.136565
	12.315000	-0.389797
	12.320000	-0.254959
	12.325000	-0.011594
	12.330000	-0.146431
	12.335000	-0.389797
	12.340000	-0.251671
	12.345000	-0.011594
	12.350000	-0.143143
	12.355000	-0.389797
	12.360000	-0.251671
	12.365000	-0.011594
	12.370000	-0.149720
	12.375000	-0.386508
	12.380000	-0.251671
	12.385000	-0.005016
	12.390000	-0.146431
	12.395000	-0.389797
	12.400000	-0.248382
	12.405000	-0.011594
	12.410000	-0.146431
	12.415000	-0.393086
	12.420000	-0.251671
	12.425000	-0.014883
	12.430000	-0.149720
	12.435000	-0.386508
	12.440000	-0.251671
	12.445000	-0.008305
	12.450000	-0.149720
	12.455000	-0.393086
	12.460000	-0.251671
	12.465000	-0.011594
	12.470000	-0.153009
	12.475000	-0.389797
	12.480000	-0.248382
	12.485000	-0.014883
	12.490000	-0.156298
	12.495000	-0.396374
	12.500000	-0.248382
	12.505000	-0.011594
	12.510000	-0.153009
	12.515000	-0.393086
	12.520000	-0.251671
	12.525000	-0.014883
	12.530000	-0.156298
	12.535000	-0.393086
	12.540000	-0.248382
	12.545000	-0.011594
	12.550000	-0.153009
	12.555000	-0.399663
	12.560000	-0.248382
	12.565000	-0.011594
	12.570000	-0.156298
	12.575000	-0.396374
	12.580000	-0.245093
	12.585000	-0.008305
	12.590000	-0.149720
	12.595000	-0.393086
	12.600000	-0.245093
	12.605000	-0.011594
	12.610000	-0.156298
	12.615000	-0.396374
	12.620000	-0.241804
	12.625000	-0.011594
	12.630000	-0.156298
	12.635000	-0.393086
	12.640000	-0.248382
	12.645000	-0.008305
	12.650000	-0.156298
	12.655000	-0.393086
	12.660000	-0.245093
	12.665000	-0.008305
	12.670000	-0.159586
	12.675000	-0.389797
	12.680000	-0.241804
	12.685000	-0.008305
	12.690000	-0.159586
	12.695000	-0.393086
	12.700000	-0.238516
	12.705000	-0.005016
	12.710000	-0.153009
	12.715000	-0.389797
	12.720000	-0.235227
	12.725000	-0.008305
	12.730000	-0.156298
	12.735000	-0.393086
	12.740000	-0.235227
	12.745000	-0.005016
	12.750000	-0.162875
	12.755000	-0.393086
	12.760000	-0.235227
	12.765000	-0.001728
	12.770000	-0.156298
	12.775000	-0.389797
	12.780000	-0.235227
	12.785000	0.001561
	12.790000	-0.159586
	12.795000	-0.389797
	12.800000	-0.231938
	12.805000	-0.005016
	12.810000	-0.162875
	12.815000	-0.389797
	12.820000	-0.235227
	12.825000	-0.005016
	12.830000	-0.162875
	12.835000	-0.393086
	12.840000	-0.231938
	12.845000	-0.001728
	12.850000	-0.159586
	12.855000	-0.389797
	12.860000	-0.231938
	12.865000	0.001561
	12.870000	-0.162875
	12.875000	-0.389797
	12.880000	-0.225361
	12.885000	0.001561
	12.890000	-0.159586
	12.895000	-0.389797
	12.900000	-0.225361
	12.905000	-0.001728
	12.910000	-0.159586
	12.915000	-0.393086
	12.920000	-0.228650
	12.925000	0.001561
	12.930000	-0.162875
	12.935000	-0.393086
	12.940000	-0.225361
	12.945000	0.001561
	12.950000	-0.166164
	12.955000	-0.389797
	12.960000	-0.225361
	12.965000	0.001561
	12.970000	-0.162875
	12.975000	-0.393086
	12.980000	-0.215495
	12.985000	0.004850
	12.990000	-0.172741
	12.995000	-0.393086
	13.000000	-0.218783
	13.005000	0.004850
	13.010000	-0.169453
	13.015000	-0.396374
	13.020000	-0.215495
	13.025000	0.004850
	13.030000	-0.176030
	13.035000	-0.399663
	13.040000	-0.222072
	13.045000	0.001561
	13.050000	-0.182607
	13.055000	-0.399663
	13.060000	-0.218783
	13.065000	-0.005016
	13.070000	-0.182607
	13.075000	-0.406241
	13.080000	-0.218783
	13.085000	-0.005016
	13.090000	-0.179319
	13.095000	-0.406241
	13.100000	-0.218783
	13.105000	-0.001728
	13.110000	-0.182607
	13.115000	-0.396374
	13.120000	-0.212206
	13.125000	0.004850
	13.130000	-0.176030
	13.135000	-0.396374
	13.140000	-0.208917
	13.145000	0.008138
	13.150000	-0.176030
	13.155000	-0.396374
	13.160000	-0.212206
	13.165000	0.001561
	13.170000	-0.182607
	13.175000	-0.406241
	13.180000	-0.218783
	13.185000	-0.011594
	13.190000	-0.199051
	13.195000	-0.419395
	13.200000	-0.235227
	13.205000	-0.024749
	13.210000	-0.215495
	13.215000	-0.432550
	13.220000	-0.241804
	13.225000	-0.024749
	13.230000	-0.212206
	13.235000	-0.425973
	13.240000	-0.235227
	13.245000	-0.024749
	13.250000	-0.205628
	13.255000	-0.419395
	13.260000	-0.225361
	13.265000	-0.011594
	13.270000	-0.192474
	13.275000	-0.406241
	13.280000	-0.212206
	13.285000	0.001561
	13.290000	-0.185896
	13.295000	-0.396374
	13.300000	-0.208917
	13.305000	-0.001728
	13.310000	-0.192474
	13.315000	-0.402952
	13.320000	-0.215495
	13.325000	-0.005016
	13.330000	-0.195762
	13.335000	-0.406241
	13.340000	-0.218783
	13.345000	-0.011594
	13.350000	-0.202340
	13.355000	-0.412818
	13.360000	-0.225361
	13.365000	-0.018171
	13.370000	-0.205628
	13.375000	-0.416107
	13.380000	-0.222072
	13.385000	-0.014883
	13.390000	-0.212206
	13.395000	-0.416107
	13.400000	-0.222072
	13.405000	-0.014883
	13.410000	-0.205628
	13.415000	-0.409529
	13.420000	-0.228650
	13.425000	-0.018171
	13.430000	-0.195762
	13.435000	-0.402952
	13.440000	-0.218783
	13.445000	-0.014883
	13.450000	-0.195762
	13.455000	-0.406241
	13.460000	-0.222072
	13.465000	-0.014883
	13.470000	-0.199051
	13.475000	-0.409529
	13.480000	-0.225361
	13.485000	-0.024749
	13.490000	-0.202340
	13.495000	-0.409529
	13.500000	-0.228650
	13.505000	-0.024749
	13.510000	-0.199051
	13.515000	-0.399663
	13.520000	-0.212206
	13.525000	-0.011594
	13.530000	-0.199051
	13.535000	-0.399663
	13.540000	-0.225361
	13.545000	-0.021460
	13.550000	-0.192474
	13.555000	-0.389797
	13.560000	-0.222072
	13.565000	-0.018171
	13.570000	-0.192474
	13.575000	-0.396374
	13.580000	-0.225361
	13.585000	-0.031326
	13.590000	-0.195762
	13.595000	-0.396374
	13.600000	-0.231938
	13.605000	-0.034615
	13.610000	-0.199051
	13.615000	-0.406241
	13.620000	-0.231938
	13.625000	-0.034615
	13.630000	-0.208917
	13.635000	-0.406241
	13.640000	-0.238516
	13.645000	-0.034615
	13.650000	-0.205628
	13.655000	-0.402952
	13.660000	-0.231938
	13.665000	-0.034615
	13.670000	-0.202340
	13.675000	-0.402952
	13.680000	-0.235227
	13.685000	-0.031326
	13.690000	-0.208917
	13.695000	-0.409529
	13.700000	-0.225361
	13.705000	-0.031326
	13.710000	-0.228650
	13.715000	-0.432550
	13.720000	-0.235227
	13.725000	-0.037904
	13.730000	-0.222072
	13.735000	-0.422684
	13.740000	-0.245093
	13.745000	-0.051059
	13.750000	-0.225361
	13.755000	-0.422684
	13.760000	-0.245093
	13.765000	-0.047770
	13.770000	-0.231938
	13.775000	-0.419395
	13.780000	-0.231938
	13.785000	-0.031326
	13.790000	-0.218783
	13.795000	-0.409529
	13.800000	-0.218783
	13.805000	-0.024749
	13.810000	-0.218783
	13.815000	-0.409529
	13.820000	-0.218783
	13.825000	-0.021460
	13.830000	-0.215495
	13.835000	-0.409529
	13.840000	-0.208917
	13.845000	-0.021460
	13.850000	-0.218783
	13.855000	-0.419395
	13.860000	-0.215495
	13.865000	-0.024749
	13.870000	-0.222072
	13.875000	-0.416107
	13.880000	-0.208917
	13.885000	-0.021460
	13.890000	-0.218783
	13.895000	-0.409529
	13.900000	-0.212206
	13.905000	-0.024749
	13.910000	-0.215495
	13.915000	-0.406241
	13.920000	-0.199051
	13.925000	-0.011594
	13.930000	-0.225361
	13.935000	-0.409529
	13.940000	-0.195762
	13.945000	-0.011594
	13.950000	-0.225361
	13.955000	-0.409529
	13.960000	-0.192474
	13.965000	-0.011594
	13.970000	-0.225361
	13.975000	-0.409529
	13.980000	-0.195762
	13.985000	-0.011594
	13.990000	-0.225361
	13.995000	-0.412818
	14.000000	-0.199051
	14.005000	-0.021460
	14.010000	-0.231938
	14.015000	-0.416107
	14.020000	-0.202340
	14.025000	-0.014883
	14.030000	-0.235227
	14.035000	-0.412818
	14.040000	-0.202340
	14.045000	-0.018171
	14.050000	-0.235227
	14.055000	-0.419395
	14.060000	-0.199051
	14.065000	-0.021460
	14.070000	-0.235227
	14.075000	-0.416107
	14.080000	-0.202340
	14.085000	-0.018171
	14.090000	-0.231938
	14.095000	-0.416107
	14.100000	-0.192474
	14.105000	-0.014883
	14.110000	-0.231938
	14.115000	-0.412818
	14.120000	-0.195762
	14.125000	-0.014883
	14.130000	-0.235227
	14.135000	-0.409529
	14.140000	-0.192474
	14.145000	-0.014883
	14.150000	-0.235227
	14.155000	-0.406241
	14.160000	-0.192474
	14.165000	-0.018171
	14.170000	-0.231938
	14.175000	-0.409529
	14.180000	-0.195762
	14.185000	-0.018171
	14.190000	-0.235227
	14.195000	-0.409529
	14.200000	-0.195762
	14.205000	-0.018171
	14.210000	-0.238516
	14.215000	-0.412818
	14.220000	-0.199051
	14.225000	-0.021460
	14.230000	-0.238516
	14.235000	-0.409529
	14.240000	-0.195762
	14.245000	-0.021460
	14.250000	-0.241804
	14.255000	-0.412818
	14.260000	-0.195762
	14.265000	-0.024749
	14.270000	-0.241804
	14.275000	-0.409529
	14.280000	-0.192474
	14.285000	-0.028037
	14.290000	-0.241804
	14.295000	-0.416107
	14.300000	-0.192474
	14.305000	-0.028037
	14.310000	-0.241804
	14.315000	-0.406241
	14.320000	-0.192474
	14.325000	-0.028037
	14.330000	-0.248382
	14.335000	-0.412818
	14.340000	-0.189185
	14.345000	-0.028037
	14.350000	-0.245093
	14.355000	-0.416107
	14.360000	-0.192474
	14.365000	-0.024749
	14.370000	-0.248382
	14.375000	-0.412818
	14.380000	-0.189185
	14.385000	-0.024749
	14.390000	-0.248382
	14.395000	-0.409529
	14.400000	-0.192474
	14.405000	-0.024749
	14.410000	-0.245093
	14.415000	-0.409529
	14.420000	-0.185896
	14.425000	-0.024749
	14.430000	-0.245093
	14.435000	-0.412818
	14.440000	-0.185896
	14.445000	-0.028037
	14.450000	-0.248382
	14.455000	-0.412818
	14.460000	-0.182607
	14.465000	-0.024749
	14.470000	-0.251671
	14.475000	-0.409529
	14.480000	-0.182607
	14.485000	-0.024749
	14.490000	-0.251671
	14.495000	-0.409529
	14.500000	-0.185896
	14.505000	-0.024749
	14.510000	-0.248382
	14.515000	-0.409529
	14.520000	-0.185896
	14.525000	-0.024749
	14.530000	-0.251671
	14.535000	-0.409529
	14.540000	-0.185896
	14.545000	-0.021460
	14.550000	-0.251671
	14.555000	-0.409529
	14.560000	-0.176030
	14.565000	-0.021460
	14.570000	-0.258248
	14.575000	-0.416107
	14.580000	-0.179319
	14.585000	-0.024749
	14.590000	-0.251671
	14.595000	-0.409529
	14.600000	-0.182607
	14.605000	-0.028037
	14.610000	-0.258248
	14.615000	-0.412818
	14.620000	-0.179319
	14.625000	-0.024749
	14.630000	-0.258248
	14.635000	-0.412818
	14.640000	-0.182607
	14.645000	-0.024749
	14.650000	-0.258248
	14.655000	-0.416107
	14.660000	-0.182607
	14.665000	-0.024749
	14.670000	-0.261537
	14.675000	-0.412818
	14.680000	-0.176030
	14.685000	-0.028037
	14.690000	-0.258248
	14.695000	-0.409529
	14.700000	-0.179319
	14.705000	-0.024749
	14.710000	-0.261537
	14.715000	-0.412818
	14.720000	-0.172741
	14.725000	-0.028037
	14.730000	-0.261537
	14.735000	-0.412818
	14.740000	-0.176030
	14.745000	-0.028037
	14.750000	-0.258248
	14.755000	-0.409529
	14.760000	-0.172741
	14.765000	-0.031326
	14.770000	-0.261537
	14.775000	-0.412818
	14.780000	-0.172741
	14.785000	-0.028037
	14.790000	-0.261537
	14.795000	-0.409529
	14.800000	-0.169453
	14.805000	-0.028037
	14.810000	-0.268114
	14.815000	-0.416107
	14.820000	-0.179319
	14.825000	-0.031326
	14.830000	-0.271403
	14.835000	-0.416107
	14.840000	-0.179319
	14.845000	-0.037904
	14.850000	-0.274692
	14.855000	-0.419395
	14.860000	-0.176030
	14.865000	-0.037904
	14.870000	-0.271403
	14.875000	-0.412818
	14.880000	-0.172741
	14.885000	-0.031326
	14.890000	-0.268114
	14.895000	-0.416107
	14.900000	-0.169453
	14.905000	-0.031326
	14.910000	-0.274692
	14.915000	-0.416107
	14.920000	-0.169453
	14.925000	-0.031326
	14.930000	-0.271403
	14.935000	-0.416107
	14.940000	-0.169453
	14.945000	-0.031326
	14.950000	-0.274692
	14.955000	-0.412818
	14.960000	-0.172741
	14.965000	-0.028037
	14.970000	-0.277980
	14.975000	-0.409529
	14.980000	-0.169453
	14.985000	-0.034615
	14.990000	-0.274692
	14.995000	-0.409529
	15.000000	-0.169453
	15.005000	-0.034615
	15.010000	-0.277980
	15.015000	-0.412818
	15.020000	-0.169453
	15.025000	-0.034615
	15.030000	-0.281269
	15.035000	-0.412818
	15.040000	-0.166164
	15.045000	-0.037904
	15.050000	-0.281269
	15.055000	-0.412818
	15.060000	-0.169453
	15.065000	-0.034615
	15.070000	-0.284558
	15.075000	-0.416107
	15.080000	-0.172741
	15.085000	-0.037904
	15.090000	-0.284558
	15.095000	-0.412818
	15.100000	-0.166164
	15.105000	-0.037904
	15.110000	-0.281269
	15.115000	-0.409529
	15.120000	-0.162875
	15.125000	-0.034615
	15.130000	-0.294424
	15.135000	-0.406241
	15.140000	-0.156298
	15.145000	-0.031326
	15.150000	-0.284558
	15.155000	-0.412818
	15.160000	-0.156298
	15.165000	-0.031326
	15.170000	-0.284558
	15.175000	-0.406241
	15.180000	-0.149720
	15.185000	-0.031326
	15.190000	-0.287847
	15.195000	-0.409529
	15.200000	-0.153009
	15.205000	-0.034615
	15.210000	-0.297713
	15.215000	-0.419395
	15.220000	-0.156298
	15.225000	-0.037904
	15.230000	-0.301001
	15.235000	-0.422684
	15.240000	-0.162875
	15.245000	-0.051059
	15.250000	-0.310868
	15.255000	-0.429262
	15.260000	-0.169453
	15.265000	-0.051059
	15.270000	-0.307579
	15.275000	-0.422684
	15.280000	-0.162875
	15.285000	-0.054347
	15.290000	-0.301001
	15.295000	-0.416107
	15.300000	-0.166164
	15.305000	-0.047770
	15.310000	-0.291135
	15.315000	-0.406241
	15.320000	-0.159586
	15.325000	-0.037904
	15.330000	-0.277980
	15.335000	-0.402952
	15.340000	-0.153009
	15.345000	-0.031326
	15.350000	-0.274692
	15.355000	-0.396374
	15.360000	-0.149720
	15.365000	-0.031326
	15.370000	-0.284558
	15.375000	-0.402952
	15.380000	-0.153009
	15.385000	-0.037904
	15.390000	-0.284558
	15.395000	-0.406241
	15.400000	-0.172741
	15.405000	-0.054347
	15.410000	-0.304290
	15.415000	-0.425973
	15.420000	-0.182607
	15.425000	-0.067502
	15.430000	-0.310868
	15.435000	-0.429262
	15.440000	-0.192474
	15.445000	-0.064213
	15.450000	-0.314156
	15.455000	-0.422684
	15.460000	-0.182607
	15.465000	-0.060925
	15.470000	-0.304290
	15.475000	-0.416107
	15.480000	-0.166164
	15.485000	-0.047770
	15.490000	-0.294424
	15.495000	-0.402952
	15.500000	-0.153009
	15.505000	-0.041192
	15.510000	-0.287847
	15.515000	-0.402952
	15.520000	-0.169453
	15.525000	-0.041192
	15.530000	-0.248382
	15.535000	-0.376642
	15.540000	-0.238516
	15.545000	-0.153009
	15.550000	-0.291135
	15.555000	-0.363487
	15.560000	-0.202340
	15.565000	-0.123410
	15.570000	-0.268114
	15.575000	-0.333889
	15.580000	-0.192474
	15.585000	-0.116833
	15.590000	-0.258248
	15.595000	-0.330600
	15.600000	-0.185896
	15.605000	-0.103678
	15.610000	-0.251671
	15.615000	-0.317445
	15.620000	-0.182607
	15.625000	-0.129988
	15.630000	-0.264826
	15.635000	-0.310868
	15.640000	-0.162875
	15.645000	-0.106967
	15.650000	-0.245093
	15.655000	-0.284558
	15.660000	-0.143143
	15.665000	-0.093812
	15.670000	-0.228650
	15.675000	-0.277980
	15.680000	-0.143143
	15.685000	-0.093812
	15.690000	-0.231938
	15.695000	-0.284558
	15.700000	-0.146431
	15.705000	-0.100389
	15.710000	-0.241804
	15.715000	-0.294424
	15.720000	-0.149720
	15.725000	-0.110256
	15.730000	-0.245093
	15.735000	-0.297713
	15.740000	-0.156298
	15.745000	-0.106967
	15.750000	-0.248382
	15.755000	-0.294424
	15.760000	-0.156298
	15.765000	-0.106967
	15.770000	-0.245093
	15.775000	-0.281269
	15.780000	-0.139854
	15.785000	-0.097101
	15.790000	-0.235227
	15.795000	-0.271403
	15.800000	-0.136565
	15.805000	-0.087234
	15.810000	-0.228650
	15.815000	-0.268114
	15.820000	-0.129988
	15.825000	-0.083946
	15.830000	-0.225361
	15.835000	-0.261537
	15.840000	-0.123410
	15.845000	-0.083946
	15.850000	-0.218783
	15.855000	-0.254959
	15.860000	-0.123410
	15.865000	-0.077368
	15.870000	-0.212206
	15.875000	-0.248382
	15.880000	-0.116833
	15.885000	-0.070791
	15.890000	-0.212206
	15.895000	-0.251671
	15.900000	-0.113544
	15.905000	-0.067502
	15.910000	-0.208917
	15.915000	-0.251671
	15.920000	-0.113544
	15.925000	-0.070791
	15.930000	-0.212206
	15.935000	-0.251671
	15.940000	-0.116833
	15.945000	-0.070791
	15.950000	-0.218783
	15.955000	-0.261537
	15.960000	-0.123410
	15.965000	-0.083946
	15.970000	-0.225361
	15.975000	-0.268114
	15.980000	-0.133277
	15.985000	-0.093812
	15.990000	-0.231938
	15.995000	-0.274692
	16.000000	-0.136565
	16.005000	-0.093812
	16.010000	-0.238516
	16.015000	-0.277980
	16.020000	-0.143143
	16.025000	-0.100389
	16.030000	-0.238516
	16.035000	-0.277980
	16.040000	-0.139854
	16.045000	-0.100389
	16.050000	-0.238516
	16.055000	-0.274692
	16.060000	-0.139854
	16.065000	-0.093812
	16.070000	-0.235227
	16.075000	-0.271403
	16.080000	-0.110256
	16.085000	-0.031326
	16.090000	-0.254959
	16.095000	-0.353621
	16.100000	-0.139854
	16.105000	-0.044481
	16.110000	-0.264826
	16.115000	-0.360198
	16.120000	-0.139854
	16.125000	-0.047770
	16.130000	-0.271403
	16.135000	-0.366776
	16.140000	-0.136565
	16.145000	-0.051059
	16.150000	-0.271403
	16.155000	-0.366776
	16.160000	-0.133277
	16.165000	-0.051059
	16.170000	-0.271403
	16.175000	-0.363487
	16.180000	-0.133277
	16.185000	-0.044481
	16.190000	-0.274692
	16.195000	-0.363487
	16.200000	-0.106967
	16.205000	-0.041192
	16.210000	-0.310868
	16.215000	-0.376642
	16.220000	-0.113544
	16.225000	-0.044481
	16.230000	-0.317445
	16.235000	-0.383220
	16.240000	-0.116833
	16.245000	-0.044481
	16.250000	-0.317445
	16.255000	-0.386508
	16.260000	-0.113544
	16.265000	-0.047770
	16.270000	-0.320734
	16.275000	-0.383220
	16.280000	-0.120122
	16.285000	-0.054347
	16.290000	-0.324023
	16.295000	-0.389797
	16.300000	-0.116833
	16.305000	-0.054347
	16.310000	-0.327311
	16.315000	-0.386508
	16.320000	-0.116833
	16.325000	-0.054347
	16.330000	-0.327311
	16.335000	-0.389797
	16.340000	-0.120122
	16.345000	-0.057636
	16.350000	-0.330600
	16.355000	-0.389797
	16.360000	-0.116833
	16.365000	-0.057636
	16.370000	-0.330600
	16.375000	-0.393086
	16.380000	-0.116833
	16.385000	-0.060925
	16.390000	-0.330600
	16.395000	-0.386508
	16.400000	-0.120122
	16.405000	-0.060925
	16.410000	-0.333889
	16.415000	-0.396374
	16.420000	-0.123410
	16.425000	-0.064213
	16.430000	-0.337177
	16.435000	-0.389797
	16.440000	-0.120122
	16.445000	-0.067502
	16.450000	-0.340466
	16.455000	-0.386508
	16.460000	-0.116833
	16.465000	-0.064213
	16.470000	-0.337177
	16.475000	-0.389797
	16.480000	-0.116833
	16.485000	-0.064213
	16.490000	-0.337177
	16.495000	-0.386508
	16.500000	-0.110256
	16.505000	-0.064213
	16.510000	-0.337177
	16.515000	-0.386508
	16.520000	-0.110256
	16.525000	-0.060925
	16.530000	-0.337177
	16.535000	-0.389797
	16.540000	-0.113544
	16.545000	-0.060925
	16.550000	-0.337177
	16.555000	-0.386508
	16.560000	-0.113544
	16.565000	-0.064213
	16.570000	-0.337177
	16.575000	-0.383220
	16.580000	-0.113544
	16.585000	-0.067502
	16.590000	-0.343755
	16.595000	-0.386508
	16.600000	-0.110256
	16.605000	-0.067502
	16.610000	-0.347044
	16.615000	-0.383220
	16.620000	-0.106967
	16.625000	-0.064213
	16.630000	-0.340466
	16.635000	-0.383220
	16.640000	-0.113544
	16.645000	-0.067502
	16.650000	-0.340466
	16.655000	-0.379931
	16.660000	-0.103678
	16.665000	-0.064213
	16.670000	-0.343755
	16.675000	-0.379931
	16.680000	-0.106967
	16.685000	-0.067502
	16.690000	-0.343755
	16.695000	-0.379931
	16.700000	-0.106967
	16.705000	-0.064213
	16.710000	-0.340466
	16.715000	-0.379931
	16.720000	-0.113544
	16.725000	-0.070791
	16.730000	-0.343755
	16.735000	-0.379931
	16.740000	-0.106967
	16.745000	-0.074080
	16.750000	-0.343755
	16.755000	-0.379931
	16.760000	-0.103678
	16.765000	-0.067502
	16.770000	-0.343755
	16.775000	-0.376642
	16.780000	-0.106967
	16.785000	-0.067502
	16.790000	-0.343755
	16.795000	-0.376642
	16.800000	-0.103678
	16.805000	-0.070791
	16.810000	-0.343755
	16.815000	-0.376642
	16.820000	-0.103678
	16.825000	-0.067502
	16.830000	-0.340466
	16.835000	-0.376642
	16.840000	-0.103678
	16.845000	-0.070791
	16.850000	-0.347044
	16.855000	-0.383220
	16.860000	-0.100389
	16.865000	-0.067502
	16.870000	-0.353621
	16.875000	-0.379931
	16.880000	-0.097101
	16.885000	-0.070791
	16.890000	-0.353621
	16.895000	-0.379931
	16.900000	-0.103678
	16.905000	-0.074080
	16.910000	-0.356910
	16.915000	-0.376642
	16.920000	-0.093812
	16.925000	-0.074080
	16.930000	-0.353621
	16.935000	-0.376642
	16.940000	-0.100389
	16.945000	-0.077368
	16.950000	-0.360198
	16.955000	-0.376642
	16.960000	-0.100389
	16.965000	-0.077368
	16.970000	-0.356910
	16.975000	-0.379931
	16.980000	-0.103678
	16.985000	-0.080657
	16.990000	-0.360198
	16.995000	-0.376642
	17.000000	-0.103678
	17.005000	-0.080657
	17.010000	-0.363487
	17.015000	-0.383220
	17.020000	-0.106967
	17.025000	-0.087234
	17.030000	-0.363487
	17.035000	-0.383220
	17.040000	-0.106967
	17.045000	-0.083946
	17.050000	-0.366776
	17.055000	-0.383220
	17.060000	-0.106967
	17.065000	-0.090523
	17.070000	-0.373353
	17.075000	-0.386508
	17.080000	-0.110256
	17.085000	-0.090523
	17.090000	-0.373353
	17.095000	-0.383220
	17.100000	-0.103678
	17.105000	-0.090523
	17.110000	-0.370065
	17.115000	-0.383220
	17.120000	-0.103678
	17.125000	-0.087234
	17.130000	-0.366776
	17.135000	-0.376642
	17.140000	-0.097101
	17.145000	-0.087234
	17.150000	-0.363487
	17.155000	-0.370065
	17.160000	-0.097101
	17.165000	-0.080657
	17.170000	-0.360198
	17.175000	-0.376642
	17.180000	-0.097101
	17.185000	-0.083946
	17.190000	-0.366776
	17.195000	-0.379931
	17.200000	-0.103678
	17.205000	-0.093812
	17.210000	-0.376642
	17.215000	-0.383220
	17.220000	-0.110256
	17.225000	-0.103678
	17.230000	-0.379931
	17.235000	-0.389797
	17.240000	-0.110256
	17.245000	-0.100389
	17.250000	-0.379931
	17.255000	-0.386508
	17.260000	-0.106967
	17.265000	-0.097101
	17.270000	-0.373353
	17.275000	-0.376642
	17.280000	-0.103678
	17.285000	-0.097101
	17.290000	-0.373353
	17.295000	-0.373353
	17.300000	-0.097101
	17.305000	-0.090523
	17.310000	-0.370065
	17.315000	-0.373353
	17.320000	-0.097101
	17.325000	-0.090523
	17.330000	-0.370065
	17.335000	-0.373353
	17.340000	-0.097101
	17.345000	-0.090523
	17.350000	-0.370065
	17.355000	-0.373353
	17.360000	-0.093812
	17.365000	-0.090523
	17.370000	-0.366776
	17.375000	-0.366776
	17.380000	-0.093812
	17.385000	-0.087234
	17.390000	-0.370065
	17.395000	-0.366776
	17.400000	-0.087234
	17.405000	-0.090523
	17.410000	-0.370065
	17.415000	-0.356910
	17.420000	-0.077368
	17.425000	-0.083946
	17.430000	-0.370065
	17.435000	-0.356910
	17.440000	-0.080657
	17.445000	-0.080657
	17.450000	-0.363487
	17.455000	-0.363487
	17.460000	-0.090523
	17.465000	-0.090523
	17.470000	-0.376642
	17.475000	-0.373353
	17.480000	-0.100389
	17.485000	-0.100389
	17.490000	-0.379931
	17.495000	-0.379931
	17.500000	-0.103678
	17.505000	-0.110256
	17.510000	-0.383220
	17.515000	-0.383220
	17.520000	-0.106967
	17.525000	-0.110256
	17.530000	-0.389797
	17.535000	-0.379931
	17.540000	-0.103678
	17.545000	-0.106967
	17.550000	-0.386508
	17.555000	-0.373353
	17.560000	-0.093812
	17.565000	-0.103678
	17.570000	-0.383220
	17.575000	-0.370065
	17.580000	-0.093812
	17.585000	-0.103678
	17.590000	-0.383220
	17.595000	-0.373353
	17.600000	-0.097101
	17.605000	-0.113544
	17.610000	-0.393086
	17.615000	-0.379931
	17.620000	-0.103678
	17.625000	-0.116833
	17.630000	-0.393086
	17.635000	-0.379931
	17.640000	-0.106967
	17.645000	-0.129988
	17.650000	-0.419395
	17.655000	-0.389797
	17.660000	-0.103678
	17.665000	-0.136565
	17.670000	-0.422684
	17.675000	-0.389797
	17.680000	-0.103678
	17.685000	-0.129988
	17.690000	-0.416107
	17.695000	-0.383220
	17.700000	-0.100389
	17.705000	-0.120122
	17.710000	-0.406241
	17.715000	-0.379931
	17.720000	-0.100389
	17.725000	-0.110256
	17.730000	-0.396374
	17.735000	-0.366776
	17.740000	-0.093812
	17.745000	-0.116833
	17.750000	-0.389797
	17.755000	-0.370065
	17.760000	-0.093812
	17.765000	-0.113544
	17.770000	-0.393086
	17.775000	-0.373353
	17.780000	-0.097101
	17.785000	-0.113544
	17.790000	-0.399663
	17.795000	-0.373353
	17.800000	-0.100389
	17.805000	-0.123410
	17.810000	-0.402952
	17.815000	-0.379931
	17.820000	-0.106967
	17.825000	-0.126699
	17.830000	-0.402952
	17.835000	-0.376642
	17.840000	-0.103678
	17.845000	-0.126699
	17.850000	-0.399663
	17.855000	-0.373353
	17.860000	-0.097101
	17.865000	-0.120122
	17.870000	-0.396374
	17.875000	-0.370065
	17.880000	-0.090523
	17.885000	-0.113544
	17.890000	-0.396374
	17.895000	-0.363487
	17.900000	-0.083946
	17.905000	-0.116833
	17.910000	-0.393086
	17.915000	-0.360198
	17.920000	-0.083946
	17.925000	-0.113544
	17.930000	-0.396374
	17.935000	-0.366776
	17.940000	-0.090523
	17.945000	-0.116833
	17.950000	-0.396374
	17.955000	-0.363487
	17.960000	-0.093812
	17.965000	-0.123410
	17.970000	-0.399663
	17.975000	-0.366776
	17.980000	-0.090523
	17.985000	-0.123410
	17.990000	-0.402952
	17.995000	-0.370065
	18.000000	-0.093812
	18.005000	-0.123410
	18.010000	-0.402952
	18.015000	-0.363487
	18.020000	-0.087234
	18.025000	-0.126699
	18.030000	-0.396374
	18.035000	-0.363487
	18.040000	-0.087234
	18.045000	-0.123410
	18.050000	-0.402952
	18.055000	-0.360198
	18.060000	-0.090523
	18.065000	-0.126699
	18.070000	-0.399663
	18.075000	-0.360198
	18.080000	-0.087234
	18.085000	-0.120122
	18.090000	-0.396374
	18.095000	-0.363487
	18.100000	-0.087234
	18.105000	-0.129988
	18.110000	-0.402952
	18.115000	-0.360198
	18.120000	-0.087234
	18.125000	-0.129988
	18.130000	-0.402952
	18.135000	-0.363487
	18.140000	-0.083946
	18.145000	-0.126699
	18.150000	-0.402952
	18.155000	-0.356910
	18.160000	-0.083946
	18.165000	-0.123410
	18.170000	-0.402952
	18.175000	-0.360198
	18.180000	-0.080657
	18.185000	-0.129988
	18.190000	-0.409529
	18.195000	-0.356910
	18.200000	-0.083946
	18.205000	-0.126699
	18.210000	-0.406241
	18.215000	-0.360198
	18.220000	-0.090523
	18.225000	-0.136565
	18.230000	-0.406241
	18.235000	-0.363487
	18.240000	-0.087234
	18.245000	-0.136565
	18.250000	-0.409529
	18.255000	-0.356910
	18.260000	-0.087234
	18.265000	-0.133277
	18.270000	-0.406241
	18.275000	-0.360198
	18.280000	-0.083946
	18.285000	-0.133277
	18.290000	-0.406241
	18.295000	-0.353621
	18.300000	-0.083946
	18.305000	-0.136565
	18.310000	-0.412818
	18.315000	-0.353621
	18.320000	-0.080657
	18.325000	-0.136565
	18.330000	-0.409529
	18.335000	-0.353621
	18.340000	-0.080657
	18.345000	-0.139854
	18.350000	-0.409529
	18.355000	-0.356910
	18.360000	-0.080657
	18.365000	-0.136565
	18.370000	-0.412818
	18.375000	-0.360198
	18.380000	-0.080657
	18.385000	-0.139854
	18.390000	-0.416107
	18.395000	-0.353621
	18.400000	-0.083946
	18.405000	-0.139854
	18.410000	-0.412818
	18.415000	-0.356910
	18.420000	-0.083946
	18.425000	-0.143143
	18.430000	-0.416107
	18.435000	-0.353621
	18.440000	-0.077368
	18.445000	-0.143143
	18.450000	-0.416107
	18.455000	-0.353621
	18.460000	-0.083946
	18.465000	-0.143143
	18.470000	-0.416107
	18.475000	-0.353621
	18.480000	-0.080657
	18.485000	-0.143143
	18.490000	-0.412818
	18.495000	-0.353621
	18.500000	-0.080657
	18.505000	-0.139854
	18.510000	-0.416107
	18.515000	-0.347044
	18.520000	-0.083946
	18.525000	-0.143143
	18.530000	-0.419395
	18.535000	-0.347044
	18.540000	-0.077368
	18.545000	-0.146431
	18.550000	-0.419395
	18.555000	-0.350332
	18.560000	-0.077368
	18.565000	-0.143143
	18.570000	-0.416107
	18.575000	-0.347044
	18.580000	-0.077368
	18.585000	-0.139854
	18.590000	-0.416107
	18.595000	-0.343755
	18.600000	-0.080657
	18.605000	-0.146431
	18.610000	-0.419395
	18.615000	-0.343755
	18.620000	-0.077368
	18.625000	-0.146431
	18.630000	-0.416107
	18.635000	-0.340466
	18.640000	-0.074080
	18.645000	-0.146431
	18.650000	-0.422684
	18.655000	-0.343755
	18.660000	-0.070791
	18.665000	-0.146431
	18.670000	-0.416107
	18.675000	-0.347044
	18.680000	-0.074080
	18.685000	-0.149720
	18.690000	-0.419395
	18.695000	-0.343755
	18.700000	-0.074080
	18.705000	-0.153009
	18.710000	-0.422684
	18.715000	-0.340466
	18.720000	-0.074080
	18.725000	-0.153009
	18.730000	-0.419395
	18.735000	-0.337177
	18.740000	-0.077368
	18.745000	-0.149720
	18.750000	-0.416107
	18.755000	-0.340466
	18.760000	-0.074080
	18.765000	-0.149720
	18.770000	-0.419395
	18.775000	-0.337177
	18.780000	-0.074080
	18.785000	-0.149720
	18.790000	-0.422684
	18.795000	-0.337177
	18.800000	-0.074080
	18.805000	-0.149720
	18.810000	-0.419395
	18.815000	-0.337177
	18.820000	-0.070791
	18.825000	-0.149720
	18.830000	-0.416107
	18.835000	-0.333889
	18.840000	-0.067502
	18.845000	-0.143143
	18.850000	-0.419395
	18.855000	-0.330600
	18.860000	-0.067502
	18.865000	-0.153009
	18.870000	-0.416107
	18.875000	-0.330600
	18.880000	-0.064213
	18.885000	-0.143143
	18.890000	-0.416107
	18.895000	-0.324023
	18.900000	-0.064213
	18.905000	-0.143143
	18.910000	-0.412818
	18.915000	-0.327311
	18.920000	-0.064213
	18.925000	-0.149720
	18.930000	-0.412818
	18.935000	-0.324023
	18.940000	-0.064213
	18.945000	-0.153009
	18.950000	-0.419395
	18.955000	-0.330600
	18.960000	-0.070791
	18.965000	-0.159586
	18.970000	-0.422684
	18.975000	-0.330600
	18.980000	-0.067502
	18.985000	-0.159586
	18.990000	-0.425973
	18.995000	-0.330600
	19.000000	-0.064213
	19.005000	-0.156298
	19.010000	-0.419395
	19.015000	-0.330600
	19.020000	-0.064213
	19.025000	-0.153009
	19.030000	-0.412818
	19.035000	-0.317445
	19.040000	-0.057636
	19.045000	-0.149720
	19.050000	-0.409529
	19.055000	-0.317445
	19.060000	-0.057636
	19.065000	-0.153009
	19.070000	-0.409529
	19.075000	-0.317445
	19.080000	-0.060925
	19.085000	-0.153009
	19.090000	-0.412818
	19.095000	-0.320734
	19.100000	-0.067502
	19.105000	-0.156298
	19.110000	-0.419395
	19.115000	-0.320734
	19.120000	-0.067502
	19.125000	-0.166164
	19.130000	-0.429262
	19.135000	-0.330600
	19.140000	-0.077368
	19.145000	-0.172741
	19.150000	-0.439128
	19.155000	-0.337177
	19.160000	-0.080657
	19.165000	-0.182607
	19.170000	-0.445705
	19.175000	-0.343755
	19.180000	-0.090523
	19.185000	-0.189185
	19.190000	-0.452283
	19.195000	-0.343755
	19.200000	-0.090523
	19.205000	-0.192474
	19.210000	-0.448994
	19.215000	-0.340466
	19.220000	-0.083946
	19.225000	-0.182607
	19.230000	-0.435839
	19.235000	-0.330600
	19.240000	-0.074080
	19.245000	-0.169453
	19.250000	-0.422684
	19.255000	-0.320734
	19.260000	-0.054347
	19.265000	-0.159586
	19.270000	-0.409529
	19.275000	-0.304290
	19.280000	-0.051059
	19.285000	-0.146431
	19.290000	-0.402952
	19.295000	-0.297713
	19.300000	-0.047770
	19.305000	-0.156298
	19.310000	-0.412818
	19.315000	-0.314156
	19.320000	-0.064213
	19.325000	-0.176030
	19.330000	-0.439128
	19.335000	-0.337177
	19.340000	-0.093812
	19.345000	-0.199051
	19.350000	-0.458860
	19.355000	-0.347044
	19.360000	-0.100389
	19.365000	-0.208917
	19.370000	-0.462149
	19.375000	-0.353621
	19.380000	-0.103678
	19.385000	-0.212206
	19.390000	-0.458860
	19.395000	-0.347044
	19.400000	-0.093812
	19.405000	-0.199051
	19.410000	-0.452283
	19.415000	-0.337177
	19.420000	-0.087234
	19.425000	-0.185896
	19.430000	-0.445705
	19.435000	-0.327311
	19.440000	-0.077368
	19.445000	-0.185896
	19.450000	-0.439128
	19.455000	-0.320734
	19.460000	-0.070791
	19.465000	-0.185896
	19.470000	-0.432550
	19.475000	-0.324023
	19.480000	-0.077368
	19.485000	-0.185896
	19.490000	-0.435839
	19.495000	-0.324023
	19.500000	-0.074080
	19.505000	-0.185896
	19.510000	-0.439128
	19.515000	-0.320734
	19.520000	-0.067502
	19.525000	-0.185896
	19.530000	-0.442417
	19.535000	-0.317445
	19.540000	-0.070791
	19.545000	-0.185896
	19.550000	-0.439128
	19.555000	-0.314156
	19.560000	-0.070791
	19.565000	-0.185896
	19.570000	-0.432550
	19.575000	-0.317445
	19.580000	-0.064213
	19.585000	-0.185896
	19.590000	-0.435839
	19.595000	-0.314156
	19.600000	-0.064213
	19.605000	-0.176030
	19.610000	-0.432550
	19.615000	-0.317445
	19.620000	-0.067502
	19.625000	-0.185896
	19.630000	-0.435839
	19.635000	-0.317445
	19.640000	-0.080657
	19.645000	-0.185896
	19.650000	-0.422684
	19.655000	-0.327311
	19.660000	-0.093812
	19.665000	-0.179319
	19.670000	-0.419395
	19.675000	-0.327311
	19.680000	-0.103678
	19.685000	-0.195762
	19.690000	-0.425973
	19.695000	-0.337177
	19.700000	-0.110256
	19.705000	-0.199051
	19.710000	-0.429262
	19.715000	-0.340466
	19.720000	-0.110256
	19.725000	-0.202340
	19.730000	-0.425973
	19.735000	-0.333889
	19.740000	-0.103678
	19.745000	-0.195762
	19.750000	-0.419395
	19.755000	-0.333889
	19.760000	-0.103678
	19.765000	-0.192474
	19.770000	-0.419395
	19.775000	-0.324023
	19.780000	-0.103678
	19.785000	-0.192474
	19.790000	-0.422684
	19.795000	-0.324023
	19.800000	-0.106967
	19.805000	-0.202340
	19.810000	-0.432550
	19.815000	-0.337177
	19.820000	-0.116833
	19.825000	-0.215495
	19.830000	-0.445705
	19.835000	-0.347044
	19.840000	-0.116833
	19.845000	-0.218783
	19.850000	-0.445705
	19.855000	-0.347044
	19.860000	-0.116833
	19.865000	-0.212206
	19.870000	-0.445705
	19.875000	-0.333889
	19.880000	-0.100389
	19.885000	-0.205628
	19.890000	-0.432550
	19.895000	-0.314156
	19.900000	-0.080657
	19.905000	-0.192474
	19.910000	-0.416107
	19.915000	-0.304290
	19.920000	-0.074080
	19.925000	-0.182607
	19.930000	-0.412818
	19.935000	-0.304290
	19.940000	-0.074080
	19.945000	-0.185896
	19.950000	-0.412818
	19.955000	-0.281269
	19.960000	-0.047770
	19.965000	-0.192474
	19.970000	-0.435839
	19.975000	-0.301001
	19.980000	-0.067502
	19.985000	-0.185896
	19.990000	-0.425973
	19.995000	-0.304290
	20.000000	-0.083946
	20.005000	-0.195762
	20.010000	-0.425973
	20.015000	-0.310868
	20.020000	-0.080657
	20.025000	-0.199051
	20.030000	-0.422684
	20.035000	-0.307579
	20.040000	-0.080657
	20.045000	-0.195762
	20.050000	-0.419395
	20.055000	-0.301001
	20.060000	-0.074080
	20.065000	-0.192474
	20.070000	-0.419395
	20.075000	-0.297713
	20.080000	-0.074080
	20.085000	-0.195762
	20.090000	-0.429262
	20.095000	-0.277980
	20.100000	-0.057636
	20.105000	-0.208917
	20.110000	-0.439128
	20.115000	-0.291135
	20.120000	-0.064213
	20.125000	-0.218783
	20.130000	-0.452283
	20.135000	-0.297713
	20.140000	-0.064213
	20.145000	-0.222072
	20.150000	-0.458860
	20.155000	-0.297713
	20.160000	-0.067502
	20.165000	-0.225361
	20.170000	-0.458860
	20.175000	-0.297713
	20.180000	-0.067502
	20.185000	-0.222072
	20.190000	-0.452283
	20.195000	-0.297713
	20.200000	-0.064213
	20.205000	-0.215495
	20.210000	-0.445705
	20.215000	-0.291135
	20.220000	-0.060925
	20.225000	-0.212206
	20.230000	-0.442417
	20.235000	-0.281269
	20.240000	-0.054347
	20.245000	-0.212206
	20.250000	-0.442417
	20.255000	-0.277980
	20.260000	-0.054347
	20.265000	-0.212206
	20.270000	-0.442417
	20.275000	-0.284558
	20.280000	-0.054347
	20.285000	-0.222072
	20.290000	-0.445705
	20.295000	-0.281269
	20.300000	-0.054347
	20.305000	-0.218783
	20.310000	-0.448994
	20.315000	-0.284558
	20.320000	-0.057636
	20.325000	-0.222072
	20.330000	-0.448994
	20.335000	-0.284558
	20.340000	-0.060925
	20.345000	-0.225361
	20.350000	-0.452283
	20.355000	-0.281269
	20.360000	-0.060925
	20.365000	-0.222072
	20.370000	-0.448994
	20.375000	-0.281269
	20.380000	-0.060925
	20.385000	-0.228650
	20.390000	-0.448994
	20.395000	-0.287847
	20.400000	-0.057636
	20.405000	-0.235227
	20.410000	-0.448994
	20.415000	-0.281269
	20.420000	-0.057636
	20.425000	-0.231938
	20.430000	-0.448994
	20.435000	-0.284558
	20.440000	-0.060925
	20.445000	-0.231938
	20.450000	-0.455571
	20.455000	-0.284558
	20.460000	-0.057636
	20.465000	-0.235227
	20.470000	-0.448994
	20.475000	-0.274692
	20.480000	-0.057636
	20.485000	-0.228650
	20.490000	-0.448994
	20.495000	-0.277980
	20.500000	-0.060925
	20.505000	-0.235227
	20.510000	-0.448994
	20.515000	-0.274692
	20.520000	-0.057636
	20.525000	-0.225361
	20.530000	-0.445705
	20.535000	-0.271403
	20.540000	-0.054347
	20.545000	-0.231938
	20.550000	-0.445705
	20.555000	-0.271403
	20.560000	-0.054347
	20.565000	-0.228650
	20.570000	-0.452283
	20.575000	-0.271403
	20.580000	-0.054347
	20.585000	-0.235227
	20.590000	-0.448994
	20.595000	-0.271403
	20.600000	-0.057636
	20.605000	-0.238516
	20.610000	-0.455571
	20.615000	-0.268114
	20.620000	-0.054347
	20.625000	-0.238516
	20.630000	-0.448994
	20.635000	-0.271403
	20.640000	-0.060925
	20.645000	-0.235227
	20.650000	-0.445705
	20.655000	-0.271403
	20.660000	-0.054347
	20.665000	-0.235227
	20.670000	-0.445705
	20.675000	-0.271403
	20.680000	-0.054347
	20.685000	-0.235227
	20.690000	-0.445705
	20.695000	-0.261537
	20.700000	-0.047770
	20.705000	-0.231938
	20.710000	-0.442417
	20.715000	-0.258248
	20.720000	-0.047770
	20.725000	-0.235227
	20.730000	-0.442417
	20.735000	-0.251671
	20.740000	-0.044481
	20.745000	-0.228650
	20.750000	-0.435839
	20.755000	-0.251671
	20.760000	-0.044481
	20.765000	-0.228650
	20.770000	-0.439128
	20.775000	-0.248382
	20.780000	-0.041192
	20.785000	-0.231938
	20.790000	-0.442417
	20.795000	-0.245093
	20.800000	-0.044481
	20.805000	-0.238516
	20.810000	-0.442417
	20.815000	-0.251671
	20.820000	-0.044481
	20.825000	-0.231938
	20.830000	-0.442417
	20.835000	-0.251671
	20.840000	-0.044481
	20.845000	-0.231938
	20.850000	-0.442417
	20.855000	-0.245093
	20.860000	-0.047770
	20.865000	-0.235227
	20.870000	-0.442417
	20.875000	-0.245093
	20.880000	-0.047770
	20.885000	-0.235227
	20.890000	-0.435839
	20.895000	-0.245093
	20.900000	-0.044481
	20.905000	-0.235227
	20.910000	-0.435839
	20.915000	-0.241804
	20.920000	-0.044481
	20.925000	-0.235227
	20.930000	-0.439128
	20.935000	-0.238516
	20.940000	-0.041192
	20.945000	-0.235227
	20.950000	-0.435839
	20.955000	-0.241804
	20.960000	-0.041192
	20.965000	-0.238516
	20.970000	-0.439128
	20.975000	-0.238516
	20.980000	-0.041192
	20.985000	-0.241804
	20.990000	-0.435839
	20.995000	-0.238516
	21.000000	-0.044481
	21.005000	-0.241804
	21.010000	-0.435839
	21.015000	-0.235227
	21.020000	-0.037904
	21.025000	-0.238516
	21.030000	-0.432550
	21.035000	-0.235227
	21.040000	-0.037904
	21.045000	-0.238516
	21.050000	-0.432550
	21.055000	-0.231938
	21.060000	-0.037904
	21.065000	-0.235227
	21.070000	-0.425973
	21.075000	-0.225361
	21.080000	-0.031326
	21.085000	-0.228650
	21.090000	-0.419395
	21.095000	-0.218783
	21.100000	-0.024749
	21.105000	-0.222072
	21.110000	-0.416107
	21.115000	-0.208917
	21.120000	-0.014883
	21.125000	-0.208917
	21.130000	-0.396374
	21.135000	-0.195762
	21.140000	-0.001728
	21.145000	-0.199051
	21.150000	-0.386508
	21.155000	-0.182607
	21.160000	0.008138
	21.165000	-0.192474
	21.170000	-0.383220
	21.175000	-0.179319
	21.180000	0.011427
	21.185000	-0.192474
	21.190000	-0.386508
	21.195000	-0.176030
	21.200000	0.008138
	21.205000	-0.199051
	21.210000	-0.386508
	21.215000	-0.185896
	21.220000	0.004850
	21.225000	-0.202340
	21.230000	-0.386508
	21.235000	-0.182607
	21.240000	-0.005016
	21.245000	-0.205628
	21.250000	-0.393086
	21.255000	-0.189185
	21.260000	-0.001728
	21.265000	-0.212206
	21.270000	-0.396374
	21.275000	-0.192474
	21.280000	-0.005016
	21.285000	-0.215495
	21.290000	-0.399663
	21.295000	-0.189185
	21.300000	-0.011594
	21.305000	-0.215495
	21.310000	-0.402952
	21.315000	-0.189185
	21.320000	-0.008305
	21.325000	-0.212206
	21.330000	-0.396374
	21.335000	-0.189185
	21.340000	-0.005016
	21.345000	-0.208917
	21.350000	-0.393086
	21.355000	-0.179319
	21.360000	0.001561
	21.365000	-0.205628
	21.370000	-0.383220
	21.375000	-0.172741
	21.380000	0.004850
	21.385000	-0.208917
	21.390000	-0.386508
	21.395000	-0.172741
	21.400000	0.001561
	21.405000	-0.208917
	21.410000	-0.393086
	21.415000	-0.179319
	21.420000	-0.008305
	21.425000	-0.215495
	21.430000	-0.393086
	21.435000	-0.179319
	21.440000	-0.008305
	21.445000	-0.218783
	21.450000	-0.393086
	21.455000	-0.182607
	21.460000	-0.008305
	21.465000	-0.215495
	21.470000	-0.393086
	21.475000	-0.172741
	21.480000	0.001561
	21.485000	-0.208917
	21.490000	-0.379931
	21.495000	-0.162875
	21.500000	0.011427
	21.505000	-0.202340
	21.510000	-0.373353
	21.515000	-0.156298
	21.520000	0.021293
	21.525000	-0.199051
	21.530000	-0.366776
	21.535000	-0.149720
	21.540000	0.021293
	21.545000	-0.192474
	21.550000	-0.363487
	21.555000	-0.143143
	21.560000	0.027871
	21.565000	-0.189185
	21.570000	-0.360198
	21.575000	-0.139854
	21.580000	0.027871
	21.585000	-0.182607
	21.590000	-0.356910
	21.595000	-0.139854
	21.600000	0.031160
	21.605000	-0.185896
	21.610000	-0.350332
	21.615000	-0.139854
	21.620000	0.027871
	21.625000	-0.195762
	21.630000	-0.356910
	21.635000	-0.143143
	21.640000	0.031160
	21.645000	-0.176030
	21.650000	-0.347044
	21.655000	-0.139854
	21.660000	0.031160
	21.665000	-0.169453
	21.670000	-0.330600
	21.675000	-0.136565
	21.680000	0.031160
	21.685000	-0.159586
	21.690000	-0.330600
	21.695000	-0.139854
	21.700000	0.021293
	21.705000	-0.169453
	21.710000	-0.343755
	21.715000	-0.159586
	21.720000	-0.001728
	21.725000	-0.189185
	21.730000	-0.356910
	21.735000	-0.169453
	21.740000	-0.011594
	21.745000	-0.199051
	21.750000	-0.360198
	21.755000	-0.179319
	21.760000	-0.014883
	21.765000	-0.202340
	21.770000	-0.366776
	21.775000	-0.172741
	21.780000	-0.014883
	21.785000	-0.195762
	21.790000	-0.360198
	21.795000	-0.166164
	21.800000	0.001561
	21.805000	-0.185896
	21.810000	-0.340466
	21.815000	-0.146431
	21.820000	0.014716
	21.825000	-0.182607
	21.830000	-0.353621
	21.835000	-0.149720
	21.840000	0.004850
	21.845000	-0.205628
	21.850000	-0.373353
	21.855000	-0.169453
	21.860000	-0.021460
	21.865000	-0.231938
	21.870000	-0.393086
	21.875000	-0.189185
	21.880000	-0.034615
	21.885000	-0.251671
	21.890000	-0.402952
	21.895000	-0.192474
	21.900000	-0.037904
	21.905000	-0.245093
	21.910000	-0.396374
	21.915000	-0.182607
	21.920000	-0.024749
	21.925000	-0.231938
	21.930000	-0.386508
	21.935000	-0.162875
	21.940000	-0.005016
	21.945000	-0.222072
	21.950000	-0.366776
	21.955000	-0.139854
	21.960000	0.018005
	21.965000	-0.222072
	21.970000	-0.366776
	21.975000	-0.133277
	21.980000	0.014716
	21.985000	-0.225361
	21.990000	-0.373353
	21.995000	-0.133277
	22.000000	0.008138
	22.005000	-0.241804
	22.010000	-0.383220
	22.015000	-0.136565
	22.020000	0.001561
	22.025000	-0.241804
	22.030000	-0.386508
	22.035000	-0.143143
	22.040000	-0.005016
	22.045000	-0.248382
	22.050000	-0.383220
	22.055000	-0.133277
	22.060000	0.008138
	22.065000	-0.245093
	22.070000	-0.379931
	22.075000	-0.133277
	22.080000	0.014716
	22.085000	-0.225361
	22.090000	-0.366776
	22.095000	-0.126699
	22.100000	0.008138
	22.105000	-0.225361
	22.110000	-0.366776
	22.115000	-0.133277
	22.120000	0.014716
	22.125000	-0.228650
	22.130000	-0.373353
	22.135000	-0.139854
	22.140000	-0.001728
	22.145000	-0.235227
	22.150000	-0.373353
	22.155000	-0.143143
	22.160000	-0.008305
	22.165000	-0.245093
	22.170000	-0.386508
	22.175000	-0.143143
	22.180000	-0.011594
	22.185000	-0.248382
	22.190000	-0.386508
	22.195000	-0.149720
	22.200000	-0.011594
	22.205000	-0.254959
	22.210000	-0.389797
	22.215000	-0.146431
	22.220000	-0.011594
	22.225000	-0.254959
	22.230000	-0.389797
	22.235000	-0.149720
	22.240000	-0.014883
	22.245000	-0.254959
	22.250000	-0.389797
	22.255000	-0.149720
	22.260000	-0.011594
	22.265000	-0.258248
	22.270000	-0.393086
	22.275000	-0.149720
	22.280000	-0.014883
	22.285000	-0.254959
	22.290000	-0.386508
	22.295000	-0.143143
	22.300000	-0.014883
	22.305000	-0.251671
	22.310000	-0.386508
	22.315000	-0.139854
	22.320000	-0.008305
	22.325000	-0.251671
	22.330000	-0.376642
	22.335000	-0.126699
	22.340000	0.004850
	22.345000	-0.235227
	22.350000	-0.360198
	22.355000	-0.110256
	22.360000	0.018005
	22.365000	-0.225361
	22.370000	-0.350332
	22.375000	-0.097101
	22.380000	0.024582
	22.385000	-0.222072
	22.390000	-0.343755
	22.395000	-0.100389
	22.400000	0.027871
	22.405000	-0.222072
	22.410000	-0.347044
	22.415000	-0.093812
	22.420000	0.027871
	22.425000	-0.225361
	22.430000	-0.340466
	22.435000	-0.097101
	22.440000	0.027871
	22.445000	-0.222072
	22.450000	-0.343755
	22.455000	-0.093812
	22.460000	0.024582
	22.465000	-0.225361
	22.470000	-0.350332
	22.475000	-0.103678
	22.480000	0.021293
	22.485000	-0.235227
	22.490000	-0.353621
	22.495000	-0.103678
	22.500000	0.011427
	22.505000	-0.241804
	22.510000	-0.363487
	22.515000	-0.110256
	22.520000	0.008138
	22.525000	-0.241804
	22.530000	-0.363487
	22.535000	-0.110256
	22.540000	0.001561
	22.545000	-0.245093
	22.550000	-0.360198
	22.555000	-0.110256
	22.560000	0.004850
	22.565000	-0.248382
	22.570000	-0.363487
	22.575000	-0.110256
	22.580000	0.004850
	22.585000	-0.248382
	22.590000	-0.366776
	22.595000	-0.106967
	22.600000	0.001561
	22.605000	-0.251671
	22.610000	-0.363487
	22.615000	-0.116833
	22.620000	-0.001728
	22.625000	-0.251671
	22.630000	-0.366776
	22.635000	-0.110256
	22.640000	-0.001728
	22.645000	-0.258248
	22.650000	-0.366776
	22.655000	-0.116833
	22.660000	-0.005016
	22.665000	-0.261537
	22.670000	-0.370065
	22.675000	-0.123410
	22.680000	-0.005016
	22.685000	-0.261537
	22.690000	-0.376642
	22.695000	-0.116833
	22.700000	-0.011594
	22.705000	-0.268114
	22.710000	-0.373353
	22.715000	-0.116833
	22.720000	-0.014883
	22.725000	-0.274692
	22.730000	-0.379931
	22.735000	-0.120122
	22.740000	-0.014883
	22.745000	-0.281269
	22.750000	-0.386508
	22.755000	-0.133277
	22.760000	-0.034615
	22.765000	-0.291135
	22.770000	-0.399663
	22.775000	-0.146431
	22.780000	-0.047770
	22.785000	-0.304290
	22.790000	-0.416107
	22.795000	-0.156298
	22.800000	-0.060925
	22.805000	-0.324023
	22.810000	-0.422684
	22.815000	-0.162875
	22.820000	-0.067502
	22.825000	-0.327311
	22.830000	-0.429262
	22.835000	-0.172741
	22.840000	-0.074080
	22.845000	-0.333889
	22.850000	-0.432550
	22.855000	-0.179319
	22.860000	-0.080657
	22.865000	-0.337177
	22.870000	-0.435839
	22.875000	-0.182607
	22.880000	-0.080657
	22.885000	-0.343755
	22.890000	-0.439128
	22.895000	-0.179319
	22.900000	-0.083946
	22.905000	-0.343755
	22.910000	-0.442417
	22.915000	-0.185896
	22.920000	-0.090523
	22.925000	-0.353621
	22.930000	-0.442417
	22.935000	-0.185896
	22.940000	-0.093812
	22.945000	-0.353621
	22.950000	-0.442417
	22.955000	-0.182607
	22.960000	-0.090523
	22.965000	-0.350332
	22.970000	-0.439128
	22.975000	-0.179319
	22.980000	-0.087234
	22.985000	-0.350332
	22.990000	-0.442417
	22.995000	-0.182607
	23.000000	-0.087234
	23.005000	-0.350332
	23.010000	-0.442417
	23.015000	-0.179319
	23.020000	-0.090523
	23.025000	-0.350332
	23.030000	-0.439128
	23.035000	-0.179319
	23.040000	-0.090523
	23.045000	-0.350332
	23.050000	-0.442417
	23.055000	-0.179319
	23.060000	-0.087234
	23.065000	-0.356910
	23.070000	-0.439128
	23.075000	-0.179319
	23.080000	-0.083946
	23.085000	-0.353621
	23.090000	-0.439128
	23.095000	-0.176030
	23.100000	-0.090523
	23.105000	-0.350332
	23.110000	-0.439128
	23.115000	-0.176030
	23.120000	-0.087234
	23.125000	-0.353621
	23.130000	-0.435839
	23.135000	-0.172741
	23.140000	-0.087234
	23.145000	-0.353621
	23.150000	-0.435839
	23.155000	-0.169453
	23.160000	-0.087234
	23.165000	-0.350332
	23.170000	-0.435839
	23.175000	-0.169453
	23.180000	-0.083946
	23.185000	-0.353621
	23.190000	-0.432550
	23.195000	-0.169453
	23.200000	-0.087234
	23.205000	-0.350332
	23.210000	-0.429262
	23.215000	-0.169453
	23.220000	-0.087234
	23.225000	-0.350332
	23.230000	-0.429262
	23.235000	-0.162875
	23.240000	-0.083946
	23.245000	-0.353621
	23.250000	-0.432550
	23.255000	-0.169453
	23.260000	-0.093812
	23.265000	-0.366776
	23.270000	-0.448994
	23.275000	-0.185896
	23.280000	-0.110256
	23.285000	-0.389797
	23.290000	-0.462149
	23.295000	-0.208917
	23.300000	-0.129988
	23.305000	-0.402952
	23.310000	-0.481881
	23.315000	-0.215495
	23.320000	-0.146431
	23.325000	-0.412818
	23.330000	-0.488459
	23.335000	-0.218783
	23.340000	-0.149720
	23.345000	-0.419395
	23.350000	-0.491747
	23.355000	-0.225361
	23.360000	-0.153009
	23.365000	-0.422684
	23.370000	-0.495036
	23.375000	-0.235227
	23.380000	-0.159586
	23.385000	-0.425973
	23.390000	-0.501614
	23.395000	-0.231938
	23.400000	-0.166164
	23.405000	-0.435839
	23.410000	-0.504902
	23.415000	-0.238516
	23.420000	-0.169453
	23.425000	-0.435839
	23.430000	-0.504902
	23.435000	-0.235227
	23.440000	-0.162875
	23.445000	-0.432550
	23.450000	-0.501614
	23.455000	-0.231938
	23.460000	-0.162875
	23.465000	-0.439128
	23.470000	-0.501614
	23.475000	-0.231938
	23.480000	-0.162875
	23.485000	-0.435839
	23.490000	-0.495036
	23.495000	-0.225361
	23.500000	-0.156298
	23.505000	-0.422684
	23.510000	-0.485170
	23.515000	-0.212206
	23.520000	-0.146431
	23.525000	-0.416107
	23.530000	-0.475304
	23.535000	-0.205628
	23.540000	-0.139854
	23.545000	-0.406241
	23.550000	-0.462149
	23.555000	-0.195762
	23.560000	-0.133277
	23.565000	-0.402952
	23.570000	-0.462149
	23.575000	-0.195762
	23.580000	-0.139854
	23.585000	-0.412818
	23.590000	-0.468726
	23.595000	-0.205628
	23.600000	-0.153009
	23.605000	-0.425973
	23.610000	-0.481881
	23.615000	-0.212206
	23.620000	-0.159586
	23.625000	-0.432550
	23.630000	-0.491747
	23.635000	-0.222072
	23.640000	-0.159586
	23.645000	-0.435839
	23.650000	-0.491747
	23.655000	-0.212206
	23.660000	-0.159586
	23.665000	-0.429262
	23.670000	-0.478592
	23.675000	-0.212206
	23.680000	-0.149720
	23.685000	-0.425973
	23.690000	-0.472015
	23.695000	-0.199051
	23.700000	-0.146431
	23.705000	-0.419395
	23.710000	-0.472015
	23.715000	-0.202340
	23.720000	-0.146431
	23.725000	-0.419395
	23.730000	-0.468726
	23.735000	-0.199051
	23.740000	-0.146431
	23.745000	-0.422684
	23.750000	-0.475304
	23.755000	-0.202340
	23.760000	-0.149720
	23.765000	-0.422684
	23.770000	-0.475304
	23.775000	-0.208917
	23.780000	-0.153009
	23.785000	-0.425973
	23.790000	-0.472015
	23.795000	-0.202340
	23.800000	-0.146431
	23.805000	-0.419395
	23.810000	-0.462149
	23.815000	-0.192474
	23.820000	-0.143143
	23.825000	-0.422684
	23.830000	-0.455571
	23.835000	-0.176030
	23.840000	-0.129988
	23.845000	-0.402952
	23.850000	-0.448994
	23.855000	-0.179319
	23.860000	-0.126699
	23.865000	-0.396374
	23.870000	-0.445705
	23.875000	-0.189185
	23.880000	-0.133277
	23.885000	-0.399663
	23.890000	-0.452283
	23.895000	-0.195762
	23.900000	-0.143143
	23.905000	-0.402952
	23.910000	-0.455571
	23.915000	-0.208917
	23.920000	-0.153009
	23.925000	-0.396374
	23.930000	-0.458860
	23.935000	-0.222072
	23.940000	-0.162875
	23.945000	-0.409529
	23.950000	-0.468726
	23.955000	-0.225361
	23.960000	-0.172741
	23.965000	-0.419395
	23.970000	-0.478592
	23.975000	-0.231938
	23.980000	-0.176030
	23.985000	-0.425973
	23.990000	-0.481881
	23.995000	-0.225361
	24.000000	-0.169453
	24.005000	-0.422684
	24.010000	-0.468726
	24.015000	-0.208917
	24.020000	-0.153009
	24.025000	-0.406241
	24.030000	-0.455571
	24.035000	-0.199051
	24.040000	-0.146431
	24.045000	-0.402952
	24.050000	-0.455571
	24.055000	-0.192474
	24.060000	-0.149720
	24.065000	-0.419395
	24.070000	-0.462149
	24.075000	-0.208917
	24.080000	-0.166164
	24.085000	-0.432550
	24.090000	-0.472015
	24.095000	-0.215495
	24.100000	-0.176030
	24.105000	-0.435839
	24.110000	-0.478592
	24.115000	-0.212206
	24.120000	-0.169453
	24.125000	-0.435839
	24.130000	-0.468726
	24.135000	-0.205628
	24.140000	-0.159586
	24.145000	-0.422684
	24.150000	-0.448994
	24.155000	-0.162875
	24.160000	-0.133277
	24.165000	-0.416107
	24.170000	-0.439128
	24.175000	-0.153009
	24.180000	-0.126699
	24.185000	-0.409529
	24.190000	-0.425973
	24.195000	-0.143143
	24.200000	-0.123410
	24.205000	-0.399663
	24.210000	-0.425973
	24.215000	-0.146431
	24.220000	-0.126699
	24.225000	-0.406241
	24.230000	-0.432550
	24.235000	-0.153009
	24.240000	-0.136565
	24.245000	-0.419395
	24.250000	-0.442417
	24.255000	-0.166164
	24.260000	-0.146431
	24.265000	-0.435839
	24.270000	-0.448994
	24.275000	-0.172741
	24.280000	-0.156298
	24.285000	-0.435839
	24.290000	-0.452283
	24.295000	-0.172741
	24.300000	-0.153009
	24.305000	-0.432550
	24.310000	-0.448994
	24.315000	-0.172741
	24.320000	-0.139854
	24.325000	-0.402952
	24.330000	-0.432550
	24.335000	-0.172741
	24.340000	-0.149720
	24.345000	-0.425973
	24.350000	-0.435839
	24.355000	-0.159586
	24.360000	-0.139854
	24.365000	-0.422684
	24.370000	-0.435839
	24.375000	-0.159586
	24.380000	-0.146431
	24.385000	-0.425973
	24.390000	-0.439128
	24.395000	-0.166164
	24.400000	-0.153009
	24.405000	-0.439128
	24.410000	-0.448994
	24.415000	-0.176030
	24.420000	-0.166164
	24.425000	-0.439128
	24.430000	-0.448994
	24.435000	-0.182607
	24.440000	-0.169453
	24.445000	-0.448994
	24.450000	-0.452283
	24.455000	-0.179319
	24.460000	-0.166164
	24.465000	-0.445705
	24.470000	-0.452283
	24.475000	-0.172741
	24.480000	-0.166164
	24.485000	-0.442417
	24.490000	-0.452283
	24.495000	-0.172741
	24.500000	-0.162875
	24.505000	-0.445705
	24.510000	-0.448994
	24.515000	-0.172741
	24.520000	-0.166164
	24.525000	-0.439128
	24.530000	-0.445705
	24.535000	-0.172741
	24.540000	-0.166164
	24.545000	-0.448994
	24.550000	-0.445705
	24.555000	-0.169453
	24.560000	-0.166164
	24.565000	-0.445705
	24.570000	-0.445705
	24.575000	-0.169453
	24.580000	-0.169453
	24.585000	-0.448994
	24.590000	-0.448994
	24.595000	-0.169453
	24.600000	-0.169453
	24.605000	-0.445705
	24.610000	-0.445705
	24.615000	-0.166164
	24.620000	-0.169453
	24.625000	-0.445705
	24.630000	-0.439128
	24.635000	-0.159586
	24.640000	-0.166164
	24.645000	-0.442417
	24.650000	-0.439128
	24.655000	-0.159586
	24.660000	-0.159586
	24.665000	-0.442417
	24.670000	-0.439128
	24.675000	-0.159586
	24.680000	-0.159586
	24.685000	-0.445705
	24.690000	-0.435839
	24.695000	-0.159586
	24.700000	-0.162875
	24.705000	-0.442417
	24.710000	-0.439128
	24.715000	-0.159586
	24.720000	-0.169453
	24.725000	-0.445705
	24.730000	-0.439128
	24.735000	-0.153009
	24.740000	-0.166164
	24.745000	-0.445705
	24.750000	-0.435839
	24.755000	-0.153009
	24.760000	-0.162875
	24.765000	-0.442417
	24.770000	-0.429262
	24.775000	-0.146431
	24.780000	-0.162875
	24.785000	-0.445705
	24.790000	-0.425973
	24.795000	-0.156298
	24.800000	-0.159586
	24.805000	-0.442417
	24.810000	-0.429262
	24.815000	-0.149720
	24.820000	-0.162875
	24.825000	-0.439128
	24.830000	-0.425973
	24.835000	-0.146431
	24.840000	-0.159586
	24.845000	-0.442417
	24.850000	-0.422684
	24.855000	-0.146431
	24.860000	-0.166164
	24.865000	-0.442417
	24.870000	-0.425973
	24.875000	-0.146431
	24.880000	-0.162875
	24.885000	-0.442417
	24.890000	-0.419395
	24.895000	-0.146431
	24.900000	-0.166164
	24.905000	-0.442417
	24.910000	-0.422684
	24.915000	-0.143143
	24.920000	-0.159586
	24.925000	-0.442417
	24.930000	-0.419395
	24.935000	-0.146431
	24.940000	-0.166164
	24.945000	-0.445705
	24.950000	-0.419395
	24.955000	-0.146431
	24.960000	-0.162875
	24.965000	-0.442417
	24.970000	-0.422684
	24.975000	-0.143143
	24.980000	-0.166164
	24.985000	-0.445705
	24.990000	-0.419395
	24.995000	-0.139854
	25.000000	-0.162875
	25.005000	-0.445705
	25.010000	-0.419395
	25.015000	-0.136565
	25.020000	-0.162875
	25.025000	-0.445705
	25.030000	-0.416107
	25.035000	-0.139854
	25.040000	-0.166164
	25.045000	-0.445705
	25.050000	-0.412818
	25.055000	-0.139854
	25.060000	-0.166164
	25.065000	-0.448994
	25.070000	-0.412818
	25.075000	-0.146431
	25.080000	-0.166164
	25.085000	-0.452283
	25.090000	-0.419395
	25.095000	-0.143143
	25.100000	-0.169453
	25.105000	-0.448994
	25.110000	-0.419395
	25.115000	-0.139854
	25.120000	-0.169453
	25.125000	-0.448994
	25.130000	-0.419395
	25.135000	-0.143143
	25.140000	-0.172741
	25.145000	-0.448994
	25.150000	-0.419395
	25.155000	-0.136565
	25.160000	-0.169453
	25.165000	-0.445705
	25.170000	-0.416107
	25.175000	-0.136565
	25.180000	-0.169453
	25.185000	-0.448994
	25.190000	-0.409529
	25.195000	-0.139854
	25.200000	-0.172741
	25.205000	-0.448994
	25.210000	-0.409529
	25.215000	-0.139854
	25.220000	-0.169453
	25.225000	-0.452283
	25.230000	-0.409529
	25.235000	-0.133277
	25.240000	-0.176030
	25.245000	-0.448994
	25.250000	-0.409529
	25.255000	-0.139854
	25.260000	-0.176030
	25.265000	-0.452283
	25.270000	-0.412818
	25.275000	-0.136565
	25.280000	-0.172741
	25.285000	-0.452283
	25.290000	-0.409529
	25.295000	-0.129988
	25.300000	-0.172741
	25.305000	-0.448994
	25.310000	-0.406241
	25.315000	-0.136565
	25.320000	-0.172741
	25.325000	-0.452283
	25.330000	-0.409529
	25.335000	-0.133277
	25.340000	-0.176030
	25.345000	-0.452283
	25.350000	-0.406241
	25.355000	-0.133277
	25.360000	-0.179319
	25.365000	-0.452283
	25.370000	-0.409529
	25.375000	-0.133277
	25.380000	-0.185896
	25.385000	-0.458860
	25.390000	-0.406241
	25.395000	-0.136565
	25.400000	-0.179319
	25.405000	-0.458860
	25.410000	-0.406241
	25.415000	-0.129988
	25.420000	-0.179319
	25.425000	-0.458860
	25.430000	-0.406241
	25.435000	-0.133277
	25.440000	-0.182607
	25.445000	-0.458860
	25.450000	-0.406241
	25.455000	-0.129988
	25.460000	-0.179319
	25.465000	-0.458860
	25.470000	-0.399663
	25.475000	-0.129988
	25.480000	-0.182607
	25.485000	-0.458860
	25.490000	-0.402952
	25.495000	-0.129988
	25.500000	-0.179319
	25.505000	-0.455571
	25.510000	-0.406241
	25.515000	-0.129988
	25.520000	-0.182607
	25.525000	-0.455571
	25.530000	-0.402952
	25.535000	-0.126699
	25.540000	-0.182607
	25.545000	-0.455571
	25.550000	-0.399663
	25.555000	-0.126699
	25.560000	-0.185896
	25.565000	-0.458860
	25.570000	-0.396374
	25.575000	-0.123410
	25.580000	-0.185896
	25.585000	-0.455571
	25.590000	-0.399663
	25.595000	-0.126699
	25.600000	-0.185896
	25.605000	-0.458860
	25.610000	-0.396374
	25.615000	-0.126699
	25.620000	-0.189185
	25.625000	-0.458860
	25.630000	-0.399663
	25.635000	-0.133277
	25.640000	-0.185896
	25.645000	-0.462149
	25.650000	-0.396374
	25.655000	-0.126699
	25.660000	-0.185896
	25.665000	-0.458860
	25.670000	-0.399663
	25.675000	-0.126699
	25.680000	-0.192474
	25.685000	-0.458860
	25.690000	-0.396374
	25.695000	-0.123410
	25.700000	-0.185896
	25.705000	-0.462149
	25.710000	-0.389797
	25.715000	-0.120122
	25.720000	-0.189185
	25.725000	-0.458860
	25.730000	-0.396374
	25.735000	-0.126699
	25.740000	-0.195762
	25.745000	-0.465438
	25.750000	-0.396374
	25.755000	-0.126699
	25.760000	-0.195762
	25.765000	-0.472015
	25.770000	-0.396374
	25.775000	-0.129988
	25.780000	-0.199051
	25.785000	-0.472015
	25.790000	-0.402952
	25.795000	-0.129988
	25.800000	-0.202340
	25.805000	-0.475304
	25.810000	-0.406241
	25.815000	-0.136565
	25.820000	-0.208917
	25.825000	-0.478592
	25.830000	-0.409529
	25.835000	-0.139854
	25.840000	-0.212206
	25.845000	-0.481881
	25.850000	-0.409529
	25.855000	-0.136565
	25.860000	-0.218783
	25.865000	-0.488459
	25.870000	-0.409529
	25.875000	-0.143143
	25.880000	-0.212206
	25.885000	-0.478592
	25.890000	-0.399663
	25.895000	-0.133277
	25.900000	-0.202340
	25.905000	-0.472015
	25.910000	-0.389797
	25.915000	-0.120122
	25.920000	-0.195762
	25.925000	-0.458860
	25.930000	-0.379931
	25.935000	-0.110256
	25.940000	-0.185896
	25.945000	-0.458860
	25.950000	-0.376642
	25.955000	-0.113544
	25.960000	-0.189185
	25.965000	-0.458860
	25.970000	-0.386508
	25.975000	-0.116833
	25.980000	-0.199051
	25.985000	-0.472015
	25.990000	-0.393086
	25.995000	-0.136565
	26.000000	-0.218783
	26.005000	-0.485170
	26.010000	-0.412818
	26.015000	-0.146431
	26.020000	-0.231938
	26.025000	-0.498325
	26.030000	-0.416107
	26.035000	-0.153009
	26.040000	-0.231938
	26.045000	-0.491747
	26.050000	-0.412818
	26.055000	-0.149720
	26.060000	-0.222072
	26.065000	-0.481881
	26.070000	-0.402952
	26.075000	-0.143143
	26.080000	-0.218783
	26.085000	-0.472015
	26.090000	-0.399663
	26.095000	-0.136565
	26.100000	-0.212206
	26.105000	-0.472015
	26.110000	-0.386508
	26.115000	-0.120122
	26.120000	-0.212206
	26.125000	-0.475304
	26.130000	-0.393086
	26.135000	-0.126699
	26.140000	-0.215495
	26.145000	-0.475304
	26.150000	-0.393086
	26.155000	-0.126699
	26.160000	-0.208917
	26.165000	-0.475304
	26.170000	-0.386508
	26.175000	-0.129988
	26.180000	-0.205628
	26.185000	-0.465438
	26.190000	-0.389797
	26.195000	-0.129988
	26.200000	-0.199051
	26.205000	-0.462149
	26.210000	-0.383220
	26.215000	-0.129988
	26.220000	-0.208917
	26.225000	-0.468726
	26.230000	-0.393086
	26.235000	-0.136565
	26.240000	-0.222072
	26.245000	-0.478592
	26.250000	-0.402952
	26.255000	-0.146431
	26.260000	-0.231938
	26.265000	-0.488459
	26.270000	-0.409529
	26.275000	-0.153009
	26.280000	-0.231938
	26.285000	-0.495036
	26.290000	-0.409529
	26.295000	-0.153009
	26.300000	-0.235227
	26.305000	-0.491747
	26.310000	-0.409529
	26.315000	-0.146431
	26.320000	-0.231938
	26.325000	-0.488459
	26.330000	-0.402952
	26.335000	-0.149720
	26.340000	-0.238516
	26.345000	-0.498325
	26.350000	-0.406241
	26.355000	-0.159586
	26.360000	-0.248382
	26.365000	-0.504902
	26.370000	-0.425973
	26.375000	-0.166164
	26.380000	-0.254959
	26.385000	-0.514768
	26.390000	-0.425973
	26.395000	-0.169453
	26.400000	-0.254959
	26.405000	-0.518057
	26.410000	-0.425973
	26.415000	-0.162875
	26.420000	-0.254959
	26.425000	-0.511480
	26.430000	-0.409529
	26.435000	-0.149720
	26.440000	-0.238516
	26.445000	-0.495036
	26.450000	-0.396374
	26.455000	-0.143143
	26.460000	-0.228650
	26.465000	-0.485170
	26.470000	-0.383220
	26.475000	-0.129988
	26.480000	-0.225361
	26.485000	-0.478592
	26.490000	-0.379931
	26.495000	-0.129988
	26.500000	-0.225361
	26.505000	-0.481881
	26.510000	-0.370065
	26.515000	-0.120122
	26.520000	-0.238516
	26.525000	-0.495036
	26.530000	-0.383220
	26.535000	-0.126699
	26.540000	-0.251671
	26.545000	-0.508191
	26.550000	-0.383220
	26.555000	-0.129988
	26.560000	-0.248382
	26.565000	-0.508191
	26.570000	-0.393086
	26.575000	-0.133277
	26.580000	-0.251671
	26.585000	-0.508191
	26.590000	-0.386508
	26.595000	-0.133277
	26.600000	-0.248382
	26.605000	-0.504902
	26.610000	-0.379931
	26.615000	-0.126699
	26.620000	-0.248382
	26.625000	-0.504902
	26.630000	-0.376642
	26.635000	-0.123410
	26.640000	-0.245093
	26.645000	-0.501614
	26.650000	-0.373353
	26.655000	-0.120122
	26.660000	-0.245093
	26.665000	-0.504902
	26.670000	-0.373353
	26.675000	-0.120122
	26.680000	-0.248382
	26.685000	-0.511480
	26.690000	-0.373353
	26.695000	-0.120122
	26.700000	-0.248382
	26.705000	-0.504902
	26.710000	-0.376642
	26.715000	-0.123410
	26.720000	-0.251671
	26.725000	-0.504902
	26.730000	-0.376642
	26.735000	-0.123410
	26.740000	-0.251671
	26.745000	-0.508191
	26.750000	-0.370065
	26.755000	-0.120122
	26.760000	-0.251671
	26.765000	-0.504902
	26.770000	-0.370065
	26.775000	-0.123410
	26.780000	-0.254959
	26.785000	-0.504902
	26.790000	-0.370065
	26.795000	-0.116833
	26.800000	-0.251671
	26.805000	-0.504902
	26.810000	-0.370065
	26.815000	-0.113544
	26.820000	-0.251671
	26.825000	-0.504902
	26.830000	-0.366776
	26.835000	-0.123410
	26.840000	-0.258248
	26.845000	-0.508191
	26.850000	-0.366776
	26.855000	-0.116833
	26.860000	-0.258248
	26.865000	-0.508191
	26.870000	-0.373353
	26.875000	-0.120122
	26.880000	-0.261537
	26.885000	-0.511480
	26.890000	-0.370065
	26.895000	-0.120122
	26.900000	-0.258248
	26.905000	-0.511480
	26.910000	-0.370065
	26.915000	-0.116833
	26.920000	-0.258248
	26.925000	-0.504902
	26.930000	-0.370065
	26.935000	-0.116833
	26.940000	-0.254959
	26.945000	-0.501614
	26.950000	-0.366776
	26.955000	-0.120122
	26.960000	-0.251671
	26.965000	-0.501614
	26.970000	-0.366776
	26.975000	-0.123410
	26.980000	-0.258248
	26.985000	-0.501614
	26.990000	-0.363487
	26.995000	-0.120122
	27.000000	-0.258248
	27.005000	-0.501614
	27.010000	-0.370065
	27.015000	-0.123410
	27.020000	-0.264826
	27.025000	-0.504902
	27.030000	-0.370065
	27.035000	-0.123410
	27.040000	-0.261537
	27.045000	-0.508191
	27.050000	-0.366776
	27.055000	-0.123410
	27.060000	-0.258248
	27.065000	-0.504902
	27.070000	-0.366776
	27.075000	-0.129988
	27.080000	-0.261537
	27.085000	-0.504902
	27.090000	-0.363487
	27.095000	-0.126699
	27.100000	-0.264826
	27.105000	-0.504902
	27.110000	-0.370065
	27.115000	-0.123410
	27.120000	-0.261537
	27.125000	-0.504902
	27.130000	-0.360198
	27.135000	-0.123410
	27.140000	-0.261537
	27.145000	-0.504902
	27.150000	-0.363487
	27.155000	-0.120122
	27.160000	-0.264826
	27.165000	-0.501614
	27.170000	-0.363487
	27.175000	-0.126699
	27.180000	-0.264826
	27.185000	-0.501614
	27.190000	-0.360198
	27.195000	-0.120122
	27.200000	-0.264826
	27.205000	-0.504902
	27.210000	-0.356910
	27.215000	-0.123410
	27.220000	-0.264826
	27.225000	-0.504902
	27.230000	-0.363487
	27.235000	-0.120122
	27.240000	-0.271403
	27.245000	-0.508191
	27.250000	-0.356910
	27.255000	-0.126699
	27.260000	-0.268114
	27.265000	-0.504902
	27.270000	-0.363487
	27.275000	-0.120122
	27.280000	-0.274692
	27.285000	-0.508191
	27.290000	-0.360198
	27.295000	-0.126699
	27.300000	-0.271403
	27.305000	-0.508191
	27.310000	-0.360198
	27.315000	-0.123410
	27.320000	-0.268114
	27.325000	-0.504902
	27.330000	-0.353621
	27.335000	-0.120122
	27.340000	-0.271403
	27.345000	-0.504902
	27.350000	-0.347044
	27.355000	-0.116833
	27.360000	-0.264826
	27.365000	-0.498325
	27.370000	-0.350332
	27.375000	-0.116833
	27.380000	-0.268114
	27.385000	-0.501614
	27.390000	-0.350332
	27.395000	-0.116833
	27.400000	-0.268114
	27.405000	-0.501614
	27.410000	-0.350332
	27.415000	-0.116833
	27.420000	-0.271403
	27.425000	-0.504902
	27.430000	-0.353621
	27.435000	-0.120122
	27.440000	-0.277980
	27.445000	-0.508191
	27.450000	-0.353621
	27.455000	-0.126699
	27.460000	-0.277980
	27.465000	-0.508191
	27.470000	-0.350332
	27.475000	-0.126699
	27.480000	-0.274692
	27.485000	-0.514768
	27.490000	-0.353621
	27.495000	-0.123410
	27.500000	-0.277980
	27.505000	-0.511480
	27.510000	-0.353621
	27.515000	-0.123410
	27.520000	-0.277980
	27.525000	-0.511480
	27.530000	-0.343755
	27.535000	-0.120122
	27.540000	-0.281269
	27.545000	-0.504902
	27.550000	-0.347044
	27.555000	-0.116833
	27.560000	-0.274692
	27.565000	-0.508191
	27.570000	-0.343755
	27.575000	-0.116833
	27.580000	-0.274692
	27.585000	-0.501614
	27.590000	-0.340466
	27.595000	-0.113544
	27.600000	-0.274692
	27.605000	-0.501614
	27.610000	-0.343755
	27.615000	-0.116833
	27.620000	-0.277980
	27.625000	-0.504902
	27.630000	-0.343755
	27.635000	-0.113544
	27.640000	-0.277980
	27.645000	-0.501614
	27.650000	-0.343755
	27.655000	-0.120122
	27.660000	-0.281269
	27.665000	-0.508191
	27.670000	-0.340466
	27.675000	-0.113544
	27.680000	-0.274692
	27.685000	-0.501614
	27.690000	-0.337177
	27.695000	-0.116833
	27.700000	-0.281269
	27.705000	-0.504902
	27.710000	-0.333889
	27.715000	-0.113544
	27.720000	-0.277980
	27.725000	-0.498325
	27.730000	-0.333889
	27.735000	-0.116833
	27.740000	-0.281269
	27.745000	-0.504902
	27.750000	-0.337177
	27.755000	-0.113544
	27.760000	-0.284558
	27.765000	-0.501614
	27.770000	-0.337177
	27.775000	-0.113544
	27.780000	-0.287847
	27.785000	-0.504902
	27.790000	-0.333889
	27.795000	-0.113544
	27.800000	-0.284558
	27.805000	-0.508191
	27.810000	-0.337177
	27.815000	-0.113544
	27.820000	-0.287847
	27.825000	-0.504902
	27.830000	-0.330600
	27.835000	-0.113544
	27.840000	-0.287847
	27.845000	-0.508191
	27.850000	-0.337177
	27.855000	-0.120122
	27.860000	-0.291135
	27.865000	-0.511480
	27.870000	-0.337177
	27.875000	-0.120122
	27.880000	-0.291135
	27.885000	-0.514768
	27.890000	-0.337177
	27.895000	-0.123410
	27.900000	-0.294424
	27.905000	-0.514768
	27.910000	-0.337177
	27.915000	-0.126699
	27.920000	-0.297713
	27.925000	-0.514768
	27.930000	-0.337177
	27.935000	-0.126699
	27.940000	-0.297713
	27.945000	-0.511480
	27.950000	-0.337177
	27.955000	-0.120122
	27.960000	-0.301001
	27.965000	-0.518057
	27.970000	-0.337177
	27.975000	-0.126699
	27.980000	-0.297713
	27.985000	-0.508191
	27.990000	-0.330600
	27.995000	-0.120122
	28.000000	-0.297713
	28.005000	-0.504902
	28.010000	-0.327311
	28.015000	-0.116833
	28.020000	-0.294424
	28.025000	-0.504902
	28.030000	-0.324023
	28.035000	-0.113544
	28.040000	-0.291135
	28.045000	-0.498325
	28.050000	-0.317445
	28.055000	-0.110256
	28.060000	-0.287847
	28.065000	-0.498325
	28.070000	-0.324023
	28.075000	-0.110256
	28.080000	-0.294424
	28.085000	-0.504902
	28.090000	-0.320734
	28.095000	-0.120122
	28.100000	-0.294424
	28.105000	-0.511480
	28.110000	-0.327311
	28.115000	-0.126699
	28.120000	-0.304290
	28.125000	-0.514768
	28.130000	-0.333889
	28.135000	-0.123410
	28.140000	-0.304290
	28.145000	-0.511480
	28.150000	-0.327311
	28.155000	-0.116833
	28.160000	-0.301001
	28.165000	-0.508191
	28.170000	-0.320734
	28.175000	-0.113544
	28.180000	-0.297713
	28.185000	-0.501614
	28.190000	-0.317445
	28.195000	-0.110256
	28.200000	-0.294424
	28.205000	-0.498325
	28.210000	-0.310868
	28.215000	-0.110256
	28.220000	-0.294424
	28.225000	-0.495036
	28.230000	-0.320734
	28.235000	-0.116833
	28.240000	-0.301001
	28.245000	-0.501614
	28.250000	-0.324023
	28.255000	-0.123410
	28.260000	-0.297713
	28.265000	-0.495036
	28.270000	-0.327311
	28.275000	-0.126699
	28.280000	-0.294424
	28.285000	-0.491747
	28.290000	-0.327311
	28.295000	-0.123410
	28.300000	-0.281269
	28.305000	-0.478592
	28.310000	-0.320734
	28.315000	-0.126699
	28.320000	-0.277980
	28.325000	-0.475304
	28.330000	-0.320734
	28.335000	-0.126699
	28.340000	-0.287847
	28.345000	-0.495036
	28.350000	-0.337177
	28.355000	-0.146431
	28.360000	-0.310868
	28.365000	-0.508191
	28.370000	-0.353621
	28.375000	-0.162875
	28.380000	-0.330600
	28.385000	-0.531212
	28.390000	-0.366776
	28.395000	-0.172741
	28.400000	-0.333889
	28.405000	-0.534501
	28.410000	-0.373353
	28.415000	-0.169453
	28.420000	-0.337177
	28.425000	-0.531212
	28.430000	-0.363487
	28.435000	-0.169453
	28.440000	-0.330600
	28.445000	-0.527923
	28.450000	-0.356910
	28.455000	-0.169453
	28.460000	-0.333889
	28.465000	-0.524635
	28.470000	-0.360198
	28.475000	-0.166164
	28.480000	-0.337177
	28.485000	-0.527923
	28.490000	-0.360198
	28.495000	-0.169453
	28.500000	-0.343755
	28.505000	-0.534501
	28.510000	-0.363487
	28.515000	-0.169453
	28.520000	-0.347044
	28.525000	-0.531212
	28.530000	-0.356910
	28.535000	-0.162875
	28.540000	-0.340466
	28.545000	-0.534501
	28.550000	-0.353621
	28.555000	-0.149720
	28.560000	-0.337177
	28.565000	-0.527923
	28.570000	-0.343755
	28.575000	-0.149720
	28.580000	-0.333889
	28.585000	-0.524635
	28.590000	-0.340466
	28.595000	-0.153009
	28.600000	-0.356910
	28.605000	-0.541078
	28.610000	-0.333889
	28.615000	-0.146431
	28.620000	-0.356910
	28.625000	-0.544367
	28.630000	-0.330600
	28.635000	-0.143143
	28.640000	-0.356910
	28.645000	-0.550944
	28.650000	-0.327311
	28.655000	-0.143143
	28.660000	-0.360198
	28.665000	-0.537790
	28.670000	-0.320734
	28.675000	-0.139854
	28.680000	-0.350332
	28.685000	-0.534501
	28.690000	-0.317445
	28.695000	-0.133277
	28.700000	-0.343755
	28.705000	-0.524635
	28.710000	-0.314156
	28.715000	-0.133277
	28.720000	-0.350332
	28.725000	-0.531212
	28.730000	-0.314156
	28.735000	-0.139854
	28.740000	-0.356910
	28.745000	-0.534501
	28.750000	-0.327311
	28.755000	-0.143143
	28.760000	-0.353621
	28.765000	-0.534501
	28.770000	-0.320734
	28.775000	-0.143143
	28.780000	-0.353621
	28.785000	-0.531212
	28.790000	-0.324023
	28.795000	-0.146431
	28.800000	-0.353621
	28.805000	-0.531212
	28.810000	-0.320734
	28.815000	-0.146431
	28.820000	-0.353621
	28.825000	-0.534501
	28.830000	-0.324023
	28.835000	-0.146431
	28.840000	-0.353621
	28.845000	-0.537790
	28.850000	-0.327311
	28.855000	-0.146431
	28.860000	-0.356910
	28.865000	-0.534501
	28.870000	-0.320734
	28.875000	-0.146431
	28.880000	-0.360198
	28.885000	-0.531212
	28.890000	-0.320734
	28.895000	-0.146431
	28.900000	-0.360198
	28.905000	-0.527923
	28.910000	-0.320734
	28.915000	-0.146431
	28.920000	-0.356910
	28.925000	-0.527923
	28.930000	-0.317445
	28.935000	-0.146431
	28.940000	-0.363487
	28.945000	-0.534501
	28.950000	-0.317445
	28.955000	-0.139854
	28.960000	-0.363487
	28.965000	-0.531212
	28.970000	-0.314156
	28.975000	-0.139854
	28.980000	-0.360198
	28.985000	-0.534501
	28.990000	-0.314156
	28.995000	-0.143143
	29.000000	-0.363487
	29.005000	-0.531212
	29.010000	-0.314156
	29.015000	-0.143143
	29.020000	-0.366776
	29.025000	-0.531212
	29.030000	-0.314156
	29.035000	-0.146431
	29.040000	-0.366776
	29.045000	-0.534501
	29.050000	-0.314156
	29.055000	-0.146431
	29.060000	-0.370065
	29.065000	-0.534501
	29.070000	-0.314156
	29.075000	-0.139854
	29.080000	-0.366776
	29.085000	-0.534501
	29.090000	-0.304290
	29.095000	-0.143143
	29.100000	-0.366776
	29.105000	-0.527923
	29.110000	-0.304290
	29.115000	-0.146431
	29.120000	-0.366776
	29.125000	-0.531212
	29.130000	-0.307579
	29.135000	-0.143143
	29.140000	-0.366776
	29.145000	-0.527923
	29.150000	-0.304290
	29.155000	-0.146431
	29.160000	-0.370065
	29.165000	-0.524635
	29.170000	-0.301001
	29.175000	-0.143143
	29.180000	-0.370065
	29.185000	-0.527923
	29.190000	-0.304290
	29.195000	-0.143143
	29.200000	-0.370065
	29.205000	-0.527923
	29.210000	-0.304290
	29.215000	-0.146431
	29.220000	-0.373353
	29.225000	-0.527923
	29.230000	-0.304290
	29.235000	-0.143143
	29.240000	-0.373353
	29.245000	-0.531212
	29.250000	-0.297713
	29.255000	-0.143143
	29.260000	-0.373353
	29.265000	-0.527923
	29.270000	-0.304290
	29.275000	-0.146431
	29.280000	-0.373353
	29.285000	-0.527923
	29.290000	-0.297713
	29.295000	-0.146431
	29.300000	-0.373353
	29.305000	-0.524635
	29.310000	-0.291135
	29.315000	-0.143143
	29.320000	-0.370065
	29.325000	-0.527923
	29.330000	-0.297713
	29.335000	-0.146431
	29.340000	-0.376642
	29.345000	-0.524635
	29.350000	-0.294424
	29.355000	-0.143143
	29.360000	-0.376642
	29.365000	-0.531212
	29.370000	-0.291135
	29.375000	-0.139854
	29.380000	-0.376642
	29.385000	-0.524635
	29.390000	-0.291135
	29.395000	-0.139854
	29.400000	-0.376642
	29.405000	-0.527923
	29.410000	-0.287847
	29.415000	-0.139854
	29.420000	-0.379931
	29.425000	-0.524635
	29.430000	-0.287847
	29.435000	-0.143143
	29.440000	-0.376642
	29.445000	-0.521346
	29.450000	-0.287847
	29.455000	-0.139854
	29.460000	-0.376642
	29.465000	-0.521346
	29.470000	-0.287847
	29.475000	-0.143143
	29.480000	-0.383220
	29.485000	-0.524635
	29.490000	-0.281269
	29.495000	-0.146431
	29.500000	-0.383220
	29.505000	-0.524635
	29.510000	-0.287847
	29.515000	-0.146431
	29.520000	-0.383220
	29.525000	-0.521346
	29.530000	-0.284558
	29.535000	-0.146431
	29.540000	-0.389797
	29.545000	-0.527923
	29.550000	-0.281269
	29.555000	-0.146431
	29.560000	-0.389797
	29.565000	-0.527923
	29.570000	-0.281269
	29.575000	-0.146431
	29.580000	-0.389797
	29.585000	-0.524635
	29.590000	-0.277980
	29.595000	-0.146431
	29.600000	-0.389797
	29.605000	-0.521346
	29.610000	-0.287847
	29.615000	-0.149720
	29.620000	-0.393086
	29.625000	-0.527923
	29.630000	-0.284558
	29.635000	-0.149720
	29.640000	-0.393086
	29.645000	-0.524635
	29.650000	-0.284558
	29.655000	-0.149720
	29.660000	-0.389797
	29.665000	-0.531212
	29.670000	-0.281269
	29.675000	-0.149720
	29.680000	-0.393086
	29.685000	-0.527923
	29.690000	-0.284558
	29.695000	-0.149720
	29.700000	-0.396374
	29.705000	-0.524635
	29.710000	-0.281269
	29.715000	-0.153009
	29.720000	-0.396374
	29.725000	-0.524635
	29.730000	-0.277980
	29.735000	-0.149720
	29.740000	-0.396374
	29.745000	-0.524635
	29.750000	-0.277980
	29.755000	-0.153009
	29.760000	-0.396374
	29.765000	-0.521346
	29.770000	-0.274692
	29.775000	-0.153009
	29.780000	-0.396374
	29.785000	-0.521346
	29.790000	-0.277980
	29.795000	-0.146431
	29.800000	-0.399663
	29.805000	-0.521346
	29.810000	-0.274692
	29.815000	-0.149720
	29.820000	-0.399663
	29.825000	-0.521346
	29.830000	-0.277980
	29.835000	-0.149720
	29.840000	-0.402952
	29.845000	-0.527923
	29.850000	-0.274692
	29.855000	-0.149720
	29.860000	-0.402952
	29.865000	-0.524635
	29.870000	-0.271403
	29.875000	-0.156298
	29.880000	-0.402952
	29.885000	-0.521346
	29.890000	-0.277980
	29.895000	-0.156298
	29.900000	-0.409529
	29.905000	-0.524635
	29.910000	-0.274692
	29.915000	-0.156298
	29.920000	-0.406241
	29.925000	-0.531212
	29.930000	-0.277980
	29.935000	-0.156298
	29.940000	-0.409529
	29.945000	-0.524635
	29.950000	-0.271403
	29.955000	-0.162875
	29.960000	-0.416107
	29.965000	-0.527923
	29.970000	-0.277980
	29.975000	-0.162875
	29.980000	-0.409529
	29.985000	-0.524635
	29.990000	-0.271403
	29.995000	-0.159586
	30.000000	-0.412818
	30.005000	-0.527923
	30.010000	-0.274692
	30.015000	-0.156298
	30.020000	-0.416107
	30.025000	-0.524635
	30.030000	-0.274692
	30.035000	-0.159586
	30.040000	-0.409529
	30.045000	-0.527923
	30.050000	-0.274692
	30.055000	-0.159586
	30.060000	-0.412818
	30.065000	-0.521346
	30.070000	-0.271403
	30.075000	-0.159586
	30.080000	-0.416107
	30.085000	-0.521346
	30.090000	-0.268114
	30.095000	-0.159586
	30.100000	-0.416107
	30.105000	-0.524635
	30.110000	-0.268114
	30.115000	-0.162875
	30.120000	-0.422684
	30.125000	-0.527923
	30.130000	-0.271403
	30.135000	-0.162875
	30.140000	-0.422684
	30.145000	-0.524635
	30.150000	-0.268114
	30.155000	-0.166164
	30.160000	-0.425973
	30.165000	-0.527923
	30.170000	-0.268114
	30.175000	-0.162875
	30.180000	-0.422684
	30.185000	-0.524635
	30.190000	-0.268114
	30.195000	-0.162875
	30.200000	-0.422684
	30.205000	-0.524635
	30.210000	-0.268114
	30.215000	-0.162875
	30.220000	-0.425973
	30.225000	-0.527923
	30.230000	-0.264826
	30.235000	-0.166164
	30.240000	-0.425973
	30.245000	-0.521346
	30.250000	-0.264826
	30.255000	-0.166164
	30.260000	-0.429262
	30.265000	-0.521346
	30.270000	-0.264826
	30.275000	-0.166164
	30.280000	-0.429262
	30.285000	-0.521346
	30.290000	-0.268114
	30.295000	-0.162875
	30.300000	-0.425973
	30.305000	-0.521346
	30.310000	-0.268114
	30.315000	-0.169453
	30.320000	-0.429262
	30.325000	-0.524635
	30.330000	-0.264826
	30.335000	-0.169453
	30.340000	-0.432550
	30.345000	-0.518057
	30.350000	-0.261537
	30.355000	-0.162875
	30.360000	-0.429262
	30.365000	-0.521346
	30.370000	-0.258248
	30.375000	-0.166164
	30.380000	-0.429262
	30.385000	-0.518057
	30.390000	-0.254959
	30.395000	-0.162875
	30.400000	-0.429262
	30.405000	-0.518057
	30.410000	-0.251671
	30.415000	-0.162875
	30.420000	-0.425973
	30.425000	-0.518057
	30.430000	-0.251671
	30.435000	-0.166164
	30.440000	-0.432550
	30.445000	-0.514768
	30.450000	-0.254959
	30.455000	-0.169453
	30.460000	-0.432550
	30.465000	-0.518057
	30.470000	-0.254959
	30.475000	-0.169453
	30.480000	-0.435839
	30.485000	-0.518057
	30.490000	-0.251671
	30.495000	-0.169453
	30.500000	-0.435839
	30.505000	-0.518057
	30.510000	-0.251671
	30.515000	-0.172741
	30.520000	-0.439128
	30.525000	-0.514768
	30.530000	-0.254959
	30.535000	-0.169453
	30.540000	-0.432550
	30.545000	-0.514768
	30.550000	-0.251671
	30.555000	-0.166164
	30.560000	-0.435839
	30.565000	-0.511480
	30.570000	-0.245093
	30.575000	-0.169453
	30.580000	-0.439128
	30.585000	-0.511480
	30.590000	-0.248382
	30.595000	-0.169453
	30.600000	-0.435839
	30.605000	-0.511480
	30.610000	-0.248382
	30.615000	-0.172741
	30.620000	-0.439128
	30.625000	-0.514768
	30.630000	-0.251671
	30.635000	-0.172741
	30.640000	-0.448994
	30.645000	-0.518057
	30.650000	-0.251671
	30.655000	-0.182607
	30.660000	-0.452283
	30.665000	-0.521346
	30.670000	-0.251671
	30.675000	-0.176030
	30.680000	-0.448994
	30.685000	-0.518057
	30.690000	-0.248382
	30.695000	-0.176030
	30.700000	-0.445705
	30.705000	-0.508191
	30.710000	-0.241804
	30.715000	-0.166164
	30.720000	-0.432550
	30.725000	-0.501614
	30.730000	-0.238516
	30.735000	-0.166164
	30.740000	-0.432550
	30.745000	-0.495036
	30.750000	-0.228650
	30.755000	-0.159586
	30.760000	-0.422684
	30.765000	-0.495036
	30.770000	-0.215495
	30.775000	-0.149720
	30.780000	-0.412818
	30.785000	-0.478592
	30.790000	-0.212206
	30.795000	-0.143143
	30.800000	-0.409529
	30.805000	-0.475304
	30.810000	-0.208917
	30.815000	-0.146431
	30.820000	-0.416107
	30.825000	-0.478592
	30.830000	-0.218783
	30.835000	-0.153009
	30.840000	-0.419395
	30.845000	-0.495036
	30.850000	-0.231938
	30.855000	-0.169453
	30.860000	-0.439128
	30.865000	-0.501614
	30.870000	-0.245093
	30.875000	-0.185896
	30.880000	-0.458860
	30.885000	-0.514768
	30.890000	-0.248382
	30.895000	-0.185896
	30.900000	-0.455571
	30.905000	-0.514768
	30.910000	-0.241804
	30.915000	-0.182607
	30.920000	-0.448994
	30.925000	-0.508191
	30.930000	-0.238516
	30.935000	-0.179319
	30.940000	-0.448994
	30.945000	-0.501614
	30.950000	-0.241804
	30.955000	-0.185896
	30.960000	-0.452283
	30.965000	-0.508191
	30.970000	-0.245093
	30.975000	-0.176030
	30.980000	-0.442417
	30.985000	-0.498325
	30.990000	-0.225361
	30.995000	-0.166164
	31.000000	-0.432550
	31.005000	-0.481881
	31.010000	-0.208917
	31.015000	-0.143143
	31.020000	-0.412818
	31.025000	-0.462149
	31.030000	-0.189185
	31.035000	-0.133277
	31.040000	-0.399663
	31.045000	-0.452283
	31.050000	-0.182607
	31.055000	-0.136565
	31.060000	-0.412818
	31.065000	-0.472015
	31.070000	-0.218783
	31.075000	-0.176030
	31.080000	-0.458860
	31.085000	-0.518057
	31.090000	-0.258248
	31.095000	-0.222072
	31.100000	-0.508191
	31.105000	-0.550944
	31.110000	-0.271403
	31.115000	-0.231938
	31.120000	-0.511480
	31.125000	-0.547656
	31.130000	-0.271403
	31.135000	-0.215495
	31.140000	-0.478592
	31.145000	-0.527923
	31.150000	-0.251671
	31.155000	-0.199051
	31.160000	-0.455571
	31.165000	-0.498325
	31.170000	-0.228650
	31.175000	-0.169453
	31.180000	-0.429262
	31.185000	-0.465438
	31.190000	-0.192474
	31.195000	-0.139854
	31.200000	-0.409529
	31.205000	-0.442417
	31.210000	-0.172741
	31.215000	-0.133277
	31.220000	-0.406241
	31.225000	-0.445705
	31.230000	-0.176030
	31.235000	-0.139854
	31.240000	-0.419395
	31.245000	-0.458860
	31.250000	-0.195762
	31.255000	-0.159586
	31.260000	-0.435839
	31.265000	-0.478592
	31.270000	-0.202340
	31.275000	-0.166164
	31.280000	-0.439128
	31.285000	-0.472015
	31.290000	-0.199051
	31.295000	-0.166164
	31.300000	-0.439128
	31.305000	-0.465438
	31.310000	-0.199051
	31.315000	-0.162875
	31.320000	-0.439128
	31.325000	-0.465438
	31.330000	-0.185896
	31.335000	-0.156298
	31.340000	-0.432550
	31.345000	-0.458860
	31.350000	-0.185896
	31.355000	-0.156298
	31.360000	-0.432550
	31.365000	-0.458860
	31.370000	-0.189185
	31.375000	-0.159586
	31.380000	-0.435839
	31.385000	-0.462149
	31.390000	-0.192474
	31.395000	-0.159586
	31.400000	-0.442417
	31.405000	-0.465438
	31.410000	-0.192474
	31.415000	-0.169453
	31.420000	-0.445705
	31.425000	-0.465438
	31.430000	-0.189185
	31.435000	-0.169453
	31.440000	-0.445705
	31.445000	-0.465438
	31.450000	-0.192474
	31.455000	-0.172741
	31.460000	-0.448994
	31.465000	-0.465438
	31.470000	-0.192474
	31.475000	-0.172741
	31.480000	-0.452283
	31.485000	-0.465438
	31.490000	-0.195762
	31.495000	-0.176030
	31.500000	-0.458860
	31.505000	-0.472015
	31.510000	-0.202340
	31.515000	-0.182607
	31.520000	-0.458860
	31.525000	-0.478592
	31.530000	-0.199051
	31.535000	-0.185896
	31.540000	-0.465438
	31.545000	-0.478592
	31.550000	-0.205628
	31.555000	-0.189185
	31.560000	-0.468726
	31.565000	-0.481881
	31.570000	-0.202340
	31.575000	-0.189185
	31.580000	-0.472015
	31.585000	-0.481881
	31.590000	-0.199051
	31.595000	-0.185896
	31.600000	-0.462149
	31.605000	-0.475304
	31.610000	-0.195762
	31.615000	-0.182607
	31.620000	-0.462149
	31.625000	-0.468726
	31.630000	-0.185896
	31.635000	-0.179319
	31.640000	-0.458860
	31.645000	-0.462149
	31.650000	-0.189185
	31.655000	-0.179319
	31.660000	-0.458860
	31.665000	-0.462149
	31.670000	-0.182607
	31.675000	-0.176030
	31.680000	-0.462149
	31.685000	-0.465438
	31.690000	-0.182607
	31.695000	-0.182607
	31.700000	-0.472015
	31.705000	-0.468726
	31.710000	-0.192474
	31.715000	-0.185896
	31.720000	-0.468726
	31.725000	-0.475304
	31.730000	-0.195762
	31.735000	-0.192474
	31.740000	-0.481881
	31.745000	-0.478592
	31.750000	-0.202340
	31.755000	-0.202340
	31.760000	-0.485170
	31.765000	-0.488459
	31.770000	-0.208917
	31.775000	-0.208917
	31.780000	-0.495036
	31.785000	-0.495036
	31.790000	-0.212206
	31.795000	-0.215495
	31.800000	-0.504902
	31.805000	-0.501614
	31.810000	-0.215495
	31.815000	-0.225361
	31.820000	-0.511480
	31.825000	-0.514768
	31.830000	-0.235227
	31.835000	-0.241804
	31.840000	-0.527923
	31.845000	-0.534501
	31.850000	-0.248382
	31.855000	-0.251671
	31.860000	-0.550944
	31.865000	-0.547656
	31.870000	-0.268114
	31.875000	-0.277980
	31.880000	-0.573965
	31.885000	-0.573965
	31.890000	-0.294424
	31.895000	-0.304290
	31.900000	-0.606853
	31.905000	-0.596987
	31.910000	-0.320734
	31.915000	-0.333889
	31.920000	-0.639740
	31.925000	-0.636451
	31.930000	-0.353621
	31.935000	-0.370065
	31.940000	-0.669338
	31.945000	-0.662761
	31.950000	-0.376642
	31.955000	-0.396374
	31.960000	-0.692359
	31.965000	-0.689071
	31.970000	-0.399663
	31.975000	-0.419395
	31.980000	-0.718669
	31.985000	-0.708803
	31.990000	-0.416107
	31.995000	-0.429262
	32.000000	-0.728535
	32.005000	-0.715381
	32.010000	-0.419395
	32.015000	-0.429262
	32.020000	-0.721958
	32.025000	-0.708803
	32.030000	-0.406241
	32.035000	-0.416107
	32.040000	-0.705514
	32.045000	-0.682493
	32.050000	-0.386508
	32.055000	-0.389797
	32.060000	-0.695648
	32.065000	-0.672627
	32.070000	-0.363487
	32.075000	-0.376642
	32.080000	-0.672627
	32.085000	-0.646317
	32.090000	-0.347044
	32.095000	-0.363487
	32.100000	-0.656184
	32.105000	-0.629874
	32.110000	-0.330600
	32.115000	-0.340466
	32.120000	-0.646317
	32.125000	-0.623296
	32.130000	-0.317445
	32.135000	-0.333889
	32.140000	-0.633162
	32.145000	-0.613430
	32.150000	-0.307579
	32.155000	-0.324023
	32.160000	-0.623296
	32.165000	-0.603564
	32.170000	-0.294424
	32.175000	-0.317445
	32.180000	-0.616719
	32.185000	-0.590409
	32.190000	-0.287847
	32.195000	-0.310868
	32.200000	-0.616719
	32.205000	-0.583832
	32.210000	-0.277980
	32.215000	-0.301001
	32.220000	-0.606853
	32.225000	-0.580543
	32.230000	-0.277980
	32.235000	-0.294424
	32.240000	-0.600275
	32.245000	-0.573965
	32.250000	-0.264826
	32.255000	-0.291135
	32.260000	-0.600275
	32.265000	-0.564099
	32.270000	-0.258248
	32.275000	-0.284558
	32.280000	-0.593698
	32.285000	-0.557522
	32.290000	-0.251671
	32.295000	-0.281269
	32.300000	-0.590409
	32.305000	-0.554233
	32.310000	-0.245093
	32.315000	-0.274692
	32.320000	-0.580543
	32.325000	-0.547656
	32.330000	-0.235227
	32.335000	-0.264826
	32.340000	-0.570677
	32.345000	-0.537790
	32.350000	-0.225361
	32.355000	-0.254959
	32.360000	-0.567388
	32.365000	-0.531212
	32.370000	-0.215495
	32.375000	-0.241804
	32.380000	-0.560811
	32.385000	-0.524635
	32.390000	-0.205628
	32.395000	-0.231938
	32.400000	-0.550944
	32.405000	-0.511480
	32.410000	-0.199051
	32.415000	-0.231938
	32.420000	-0.547656
	32.425000	-0.508191
	32.430000	-0.192474
	32.435000	-0.225361
	32.440000	-0.544367
	32.445000	-0.511480
	32.450000	-0.192474
	32.455000	-0.228650
	32.460000	-0.547656
	32.465000	-0.511480
	32.470000	-0.192474
	32.475000	-0.231938
	32.480000	-0.547656
	32.485000	-0.508191
	32.490000	-0.195762
	32.495000	-0.238516
	32.500000	-0.554233
	32.505000	-0.508191
	32.510000	-0.195762
	32.515000	-0.238516
	32.520000	-0.560811
	32.525000	-0.514768
	32.530000	-0.199051
	32.535000	-0.238516
	32.540000	-0.557522
	32.545000	-0.514768
	32.550000	-0.199051
	32.555000	-0.245093
	32.560000	-0.560811
	32.565000	-0.518057
	32.570000	-0.199051
	32.575000	-0.241804
	32.580000	-0.560811
	32.585000	-0.514768
	32.590000	-0.202340
	32.595000	-0.248382
	32.600000	-0.560811
	32.605000	-0.514768
	32.610000	-0.202340
	32.615000	-0.248382
	32.620000	-0.564099
	32.625000	-0.518057
	32.630000	-0.202340
	32.635000	-0.251671
	32.640000	-0.570677
	32.645000	-0.518057
	32.650000	-0.205628
	32.655000	-0.254959
	32.660000	-0.570677
	32.665000	-0.514768
	32.670000	-0.202340
	32.675000	-0.258248
	32.680000	-0.570677
	32.685000	-0.518057
	32.690000	-0.205628
	32.695000	-0.261537
	32.700000	-0.577254
	32.705000	-0.518057
	32.710000	-0.205628
	32.715000	-0.261537
	32.720000	-0.577254
	32.725000	-0.521346
	32.730000	-0.205628
	32.735000	-0.261537
	32.740000	-0.573965
	32.745000	-0.518057
	32.750000	-0.205628
	32.755000	-0.261537
	32.760000	-0.577254
	32.765000	-0.514768
	32.770000	-0.202340
	32.775000	-0.258248
	32.780000	-0.573965
	32.785000	-0.511480
	32.790000	-0.199051
	32.795000	-0.258248
	32.800000	-0.577254
	32.805000	-0.511480
	32.810000	-0.195762
	32.815000	-0.258248
	32.820000	-0.570677
	32.825000	-0.508191
	32.830000	-0.199051
	32.835000	-0.261537
	32.840000	-0.573965
	32.845000	-0.511480
	32.850000	-0.199051
	32.855000	-0.264826
	32.860000	-0.573965
	32.865000	-0.508191
	32.870000	-0.195762
	32.875000	-0.258248
	32.880000	-0.577254
	32.885000	-0.508191
	32.890000	-0.195762
	32.895000	-0.261537
	32.900000	-0.577254
	32.905000	-0.504902
	32.910000	-0.192474
	32.915000	-0.264826
	32.920000	-0.577254
	32.925000	-0.504902
	32.930000	-0.195762
	32.935000	-0.264826
	32.940000	-0.580543
	32.945000	-0.501614
	32.950000	-0.195762
	32.955000	-0.264826
	32.960000	-0.577254
	32.965000	-0.504902
	32.970000	-0.192474
	32.975000	-0.264826
	32.980000	-0.577254
	32.985000	-0.495036
	32.990000	-0.192474
	32.995000	-0.264826
	33.000000	-0.573965
	33.005000	-0.501614
	33.010000	-0.185896
	33.015000	-0.261537
	33.020000	-0.573965
	33.025000	-0.495036
	33.030000	-0.182607
	33.035000	-0.264826
	33.040000	-0.577254
	33.045000	-0.491747
	33.050000	-0.185896
	33.055000	-0.261537
	33.060000	-0.573965
	33.065000	-0.495036
	33.070000	-0.185896
	33.075000	-0.264826
	33.080000	-0.573965
	33.085000	-0.491747
	33.090000	-0.182607
	33.095000	-0.258248
	33.100000	-0.573965
	33.105000	-0.491747
	33.110000	-0.185896
	33.115000	-0.264826
	33.120000	-0.573965
	33.125000	-0.488459
	33.130000	-0.179319
	33.135000	-0.264826
	33.140000	-0.573965
	33.145000	-0.488459
	33.150000	-0.182607
	33.155000	-0.261537
	33.160000	-0.577254
	33.165000	-0.488459
	33.170000	-0.176030
	33.175000	-0.264826
	33.180000	-0.570677
	33.185000	-0.485170
	33.190000	-0.176030
	33.195000	-0.261537
	33.200000	-0.573965
	33.205000	-0.481881
	33.210000	-0.179319
	33.215000	-0.264826
	33.220000	-0.573965
	33.225000	-0.485170
	33.230000	-0.176030
	33.235000	-0.268114
	33.240000	-0.573965
	33.245000	-0.488459
	33.250000	-0.182607
	33.255000	-0.268114
	33.260000	-0.577254
	33.265000	-0.485170
	33.270000	-0.176030
	33.275000	-0.271403
	33.280000	-0.580543
	33.285000	-0.485170
	33.290000	-0.176030
	33.295000	-0.271403
	33.300000	-0.577254
	33.305000	-0.481881
	33.310000	-0.179319
	33.315000	-0.271403
	33.320000	-0.573965
	33.325000	-0.481881
	33.330000	-0.179319
	33.335000	-0.271403
	33.340000	-0.580543
	33.345000	-0.481881
	33.350000	-0.179319
	33.355000	-0.271403
	33.360000	-0.580543
	33.365000	-0.478592
	33.370000	-0.176030
	33.375000	-0.274692
	33.380000	-0.580543
	33.385000	-0.478592
	33.390000	-0.172741
	33.395000	-0.274692
	33.400000	-0.580543
	33.405000	-0.481881
	33.410000	-0.176030
	33.415000	-0.271403
	33.420000	-0.577254
	33.425000	-0.475304
	33.430000	-0.172741
	33.435000	-0.274692
	33.440000	-0.580543
	33.445000	-0.478592
	33.450000	-0.172741
	33.455000	-0.277980
	33.460000	-0.580543
	33.465000	-0.472015
	33.470000	-0.172741
	33.475000	-0.277980
	33.480000	-0.580543
	33.485000	-0.472015
	33.490000	-0.169453
	33.495000	-0.274692
	33.500000	-0.577254
	33.505000	-0.468726
	33.510000	-0.169453
	33.515000	-0.274692
	33.520000	-0.580543
	33.525000	-0.468726
	33.530000	-0.162875
	33.535000	-0.274692
	33.540000	-0.577254
	33.545000	-0.462149
	33.550000	-0.166164
	33.555000	-0.271403
	33.560000	-0.577254
	33.565000	-0.465438
	33.570000	-0.159586
	33.575000	-0.274692
	33.580000	-0.573965
	33.585000	-0.458860
	33.590000	-0.159586
	33.595000	-0.281269
	33.600000	-0.580543
	33.605000	-0.455571
	33.610000	-0.153009
	33.615000	-0.277980
	33.620000	-0.580543
	33.625000	-0.448994
	33.630000	-0.153009
	33.635000	-0.281269
	33.640000	-0.580543
	33.645000	-0.448994
	33.650000	-0.146431
	33.655000	-0.281269
	33.660000	-0.577254
	33.665000	-0.448994
	33.670000	-0.149720
	33.675000	-0.274692
	33.680000	-0.577254
	33.685000	-0.445705
	33.690000	-0.149720
	33.695000	-0.277980
	33.700000	-0.580543
	33.705000	-0.448994
	33.710000	-0.143143
	33.715000	-0.284558
	33.720000	-0.580543
	33.725000	-0.445705
	33.730000	-0.149720
	33.735000	-0.284558
	33.740000	-0.583832
	33.745000	-0.445705
