2024/7/21 	 8:28:59 
 This file comes from Vt only measurement 	 1.000000E-1 
 Voltage Sensitivity 	 0.000000E+0 
 Sampling rate 	 200 
 Number of samples per channel 	 -1 
 No filter from Labview 	 	 	 
 	 
 ***End_of_Header*** 
 	 Time 	  Voltage 	 Filtered Voltage 	 
	0.000000	-0.159586
	0.005000	-0.310868
	0.010000	-0.363487
	0.015000	-0.208917
	0.020000	-0.162875
	0.025000	-0.310868
	0.030000	-0.356910
	0.035000	-0.212206
	0.040000	-0.159586
	0.045000	-0.310868
	0.050000	-0.356910
	0.055000	-0.208917
	0.060000	-0.166164
	0.065000	-0.317445
	0.070000	-0.356910
	0.075000	-0.212206
	0.080000	-0.162875
	0.085000	-0.310868
	0.090000	-0.356910
	0.095000	-0.208917
	0.100000	-0.162875
	0.105000	-0.310868
	0.110000	-0.356910
	0.115000	-0.205628
	0.120000	-0.162875
	0.125000	-0.310868
	0.130000	-0.353621
	0.135000	-0.205628
	0.140000	-0.162875
	0.145000	-0.307579
	0.150000	-0.356910
	0.155000	-0.195762
	0.160000	-0.153009
	0.165000	-0.301001
	0.170000	-0.343755
	0.175000	-0.192474
	0.180000	-0.153009
	0.185000	-0.297713
	0.190000	-0.337177
	0.195000	-0.189185
	0.200000	-0.149720
	0.205000	-0.294424
	0.210000	-0.337177
	0.215000	-0.192474
	0.220000	-0.149720
	0.225000	-0.297713
	0.230000	-0.337177
	0.235000	-0.189185
	0.240000	-0.146431
	0.245000	-0.297713
	0.250000	-0.340466
	0.255000	-0.189185
	0.260000	-0.146431
	0.265000	-0.304290
	0.270000	-0.340466
	0.275000	-0.185896
	0.280000	-0.146431
	0.285000	-0.304290
	0.290000	-0.337177
	0.295000	-0.189185
	0.300000	-0.149720
	0.305000	-0.301001
	0.310000	-0.330600
	0.315000	-0.185896
	0.320000	-0.149720
	0.325000	-0.297713
	0.330000	-0.327311
	0.335000	-0.176030
	0.340000	-0.139854
	0.345000	-0.291135
	0.350000	-0.320734
	0.355000	-0.169453
	0.360000	-0.126699
	0.365000	-0.274692
	0.370000	-0.304290
	0.375000	-0.149720
	0.380000	-0.113544
	0.385000	-0.258248
	0.390000	-0.287847
	0.395000	-0.133277
	0.400000	-0.106967
	0.405000	-0.251671
	0.410000	-0.277980
	0.415000	-0.126699
	0.420000	-0.097101
	0.425000	-0.241804
	0.430000	-0.271403
	0.435000	-0.123410
	0.440000	-0.090523
	0.445000	-0.241804
	0.450000	-0.268114
	0.455000	-0.120122
	0.460000	-0.093812
	0.465000	-0.238516
	0.470000	-0.264826
	0.475000	-0.120122
	0.480000	-0.083946
	0.485000	-0.238516
	0.490000	-0.258248
	0.495000	-0.113544
	0.500000	-0.087234
	0.505000	-0.235227
	0.510000	-0.258248
	0.515000	-0.110256
	0.520000	-0.083946
	0.525000	-0.228650
	0.530000	-0.251671
	0.535000	-0.106967
	0.540000	-0.080657
	0.545000	-0.225361
	0.550000	-0.248382
	0.555000	-0.100389
	0.560000	-0.077368
	0.565000	-0.218783
	0.570000	-0.238516
	0.575000	-0.097101
	0.580000	-0.067502
	0.585000	-0.215495
	0.590000	-0.238516
	0.595000	-0.090523
	0.600000	-0.067502
	0.605000	-0.215495
	0.610000	-0.231938
	0.615000	-0.090523
	0.620000	-0.070791
	0.625000	-0.212206
	0.630000	-0.235227
	0.635000	-0.090523
	0.640000	-0.064213
	0.645000	-0.215495
	0.650000	-0.235227
	0.655000	-0.087234
	0.660000	-0.067502
	0.665000	-0.222072
	0.670000	-0.235227
	0.675000	-0.093812
	0.680000	-0.067502
	0.685000	-0.218783
	0.690000	-0.238516
	0.695000	-0.093812
	0.700000	-0.077368
	0.705000	-0.231938
	0.710000	-0.248382
	0.715000	-0.103678
	0.720000	-0.083946
	0.725000	-0.231938
	0.730000	-0.251671
	0.735000	-0.103678
	0.740000	-0.093812
	0.745000	-0.238516
	0.750000	-0.261537
	0.755000	-0.110256
	0.760000	-0.097101
	0.765000	-0.245093
	0.770000	-0.251671
	0.775000	-0.113544
	0.780000	-0.093812
	0.785000	-0.241804
	0.790000	-0.258248
	0.795000	-0.110256
	0.800000	-0.090523
	0.805000	-0.238516
	0.810000	-0.258248
	0.815000	-0.103678
	0.820000	-0.090523
	0.825000	-0.238516
	0.830000	-0.245093
	0.835000	-0.100389
	0.840000	-0.083946
	0.845000	-0.231938
	0.850000	-0.248382
	0.855000	-0.093812
	0.860000	-0.083946
	0.865000	-0.228650
	0.870000	-0.235227
	0.875000	-0.093812
	0.880000	-0.077368
	0.885000	-0.225361
	0.890000	-0.235227
	0.895000	-0.087234
	0.900000	-0.070791
	0.905000	-0.222072
	0.910000	-0.231938
	0.915000	-0.083946
	0.920000	-0.070791
	0.925000	-0.218783
	0.930000	-0.228650
	0.935000	-0.080657
	0.940000	-0.070791
	0.945000	-0.212206
	0.950000	-0.225361
	0.955000	-0.113544
	0.960000	-0.103678
	0.965000	-0.189185
	0.970000	-0.162875
	0.975000	-0.031326
	0.980000	-0.018171
	0.985000	-0.103678
	0.990000	-0.077368
	0.995000	0.057469
	1.000000	0.064047
	1.005000	-0.041192
	1.010000	-0.018171
	1.015000	0.123244
	1.020000	0.129821
	1.025000	-0.001728
	1.030000	0.011427
	1.035000	0.162708
	1.040000	0.169286
	1.045000	0.041026
	1.050000	0.047603
	1.055000	0.179152
	1.060000	0.189018
	1.065000	0.067335
	1.070000	0.077202
	1.075000	0.212039
	1.080000	0.208751
	1.085000	0.083779
	1.090000	0.096934
	1.095000	0.241638
	1.100000	0.244927
	1.105000	0.100223
	1.110000	0.096934
	1.115000	0.241638
	1.120000	0.254793
	1.125000	0.103511
	1.130000	0.100223
	1.135000	0.251504
	1.140000	0.254793
	1.145000	0.103511
	1.150000	0.103511
	1.155000	0.251504
	1.160000	0.254793
	1.165000	0.103511
	1.170000	0.103511
	1.175000	0.248215
	1.180000	0.251504
	1.185000	0.103511
	1.190000	0.103511
	1.195000	0.251504
	1.200000	0.251504
	1.205000	0.103511
	1.210000	0.103511
	1.215000	0.251504
	1.220000	0.248215
	1.225000	0.103511
	1.230000	0.100223
	1.235000	0.251504
	1.240000	0.254793
	1.245000	0.103511
	1.250000	0.103511
	1.255000	0.258081
	1.260000	0.264659
	1.265000	0.116666
	1.270000	0.123244
	1.275000	0.274525
	1.280000	0.277814
	1.285000	0.139687
	1.290000	0.152842
	1.295000	0.304124
	1.300000	0.307412
	1.305000	0.165997
	1.310000	0.172575
	1.315000	0.320567
	1.320000	0.327145
	1.325000	0.179152
	1.330000	0.179152
	1.335000	0.333722
	1.340000	0.330433
	1.345000	0.182441
	1.350000	0.189018
	1.355000	0.333722
	1.360000	0.330433
	1.365000	0.182441
	1.370000	0.182441
	1.375000	0.333722
	1.380000	0.327145
	1.385000	0.179152
	1.390000	0.179152
	1.395000	0.333722
	1.400000	0.320567
	1.405000	0.169286
	1.410000	0.175863
	1.415000	0.320567
	1.420000	0.310701
	1.425000	0.169286
	1.430000	0.179152
	1.435000	0.323856
	1.440000	0.317278
	1.445000	0.172575
	1.450000	0.185730
	1.455000	0.330433
	1.460000	0.320567
	1.465000	0.175863
	1.470000	0.185730
	1.475000	0.337011
	1.480000	0.323856
	1.485000	0.175863
	1.490000	0.189018
	1.495000	0.333722
	1.500000	0.323856
	1.505000	0.172575
	1.510000	0.182441
	1.515000	0.327145
	1.520000	0.320567
	1.525000	0.169286
	1.530000	0.175863
	1.535000	0.317278
	1.540000	0.304124
	1.545000	0.149554
	1.550000	0.162708
	1.555000	0.310701
	1.560000	0.300835
	1.565000	0.152842
	1.570000	0.162708
	1.575000	0.307412
	1.580000	0.300835
	1.585000	0.149554
	1.590000	0.165997
	1.595000	0.313990
	1.600000	0.297546
	1.605000	0.162708
	1.610000	0.172575
	1.615000	0.327145
	1.620000	0.320567
	1.625000	0.172575
	1.630000	0.185730
	1.635000	0.333722
	1.640000	0.320567
	1.645000	0.175863
	1.650000	0.189018
	1.655000	0.330433
	1.660000	0.313990
	1.665000	0.172575
	1.670000	0.185730
	1.675000	0.327145
	1.680000	0.304124
	1.685000	0.156131
	1.690000	0.169286
	1.695000	0.307412
	1.700000	0.290969
	1.705000	0.139687
	1.710000	0.156131
	1.715000	0.294257
	1.720000	0.271236
	1.725000	0.126533
	1.730000	0.146265
	1.735000	0.284391
	1.740000	0.271236
	1.745000	0.126533
	1.750000	0.149554
	1.755000	0.290969
	1.760000	0.271236
	1.765000	0.129821
	1.770000	0.152842
	1.775000	0.297546
	1.780000	0.277814
	1.785000	0.133110
	1.790000	0.162708
	1.795000	0.297546
	1.800000	0.284391
	1.805000	0.142976
	1.810000	0.162708
	1.815000	0.300835
	1.820000	0.281102
	1.825000	0.136399
	1.830000	0.159420
	1.835000	0.300835
	1.840000	0.277814
	1.845000	0.136399
	1.850000	0.156131
	1.855000	0.294257
	1.860000	0.274525
	1.865000	0.129821
	1.870000	0.149554
	1.875000	0.287680
	1.880000	0.264659
	1.885000	0.123244
	1.890000	0.146265
	1.895000	0.281102
	1.900000	0.261370
	1.905000	0.116666
	1.910000	0.142976
	1.915000	0.284391
	1.920000	0.264659
	1.925000	0.119955
	1.930000	0.152842
	1.935000	0.287680
	1.940000	0.271236
	1.945000	0.123244
	1.950000	0.149554
	1.955000	0.287680
	1.960000	0.261370
	1.965000	0.126533
	1.970000	0.142976
	1.975000	0.287680
	1.980000	0.261370
	1.985000	0.119955
	1.990000	0.142976
	1.995000	0.277814
	2.000000	0.254793
	2.005000	0.110089
	2.010000	0.133110
	2.015000	0.271236
	2.020000	0.244927
	2.025000	0.103511
	2.030000	0.129821
	2.035000	0.264659
	2.040000	0.241638
	2.045000	0.100223
	2.050000	0.126533
	2.055000	0.264659
	2.060000	0.238349
	2.065000	0.100223
	2.070000	0.129821
	2.075000	0.264659
	2.080000	0.238349
	2.085000	0.096934
	2.090000	0.129821
	2.095000	0.267948
	2.100000	0.241638
	2.105000	0.100223
	2.110000	0.129821
	2.115000	0.267948
	2.120000	0.241638
	2.125000	0.096934
	2.130000	0.129821
	2.135000	0.264659
	2.140000	0.238349
	2.145000	0.096934
	2.150000	0.126533
	2.155000	0.264659
	2.160000	0.235060
	2.165000	0.093645
	2.170000	0.123244
	2.175000	0.261370
	2.180000	0.231772
	2.185000	0.093645
	2.190000	0.123244
	2.195000	0.261370
	2.200000	0.225194
	2.205000	0.090357
	2.210000	0.119955
	2.215000	0.258081
	2.220000	0.225194
	2.225000	0.083779
	2.230000	0.116666
	2.235000	0.261370
	2.240000	0.225194
	2.245000	0.080490
	2.250000	0.116666
	2.255000	0.254793
	2.260000	0.218617
	2.265000	0.083779
	2.270000	0.113378
	2.275000	0.254793
	2.280000	0.215328
	2.285000	0.080490
	2.290000	0.113378
	2.295000	0.251504
	2.300000	0.212039
	2.305000	0.073913
	2.310000	0.106800
	2.315000	0.248215
	2.320000	0.215328
	2.325000	0.073913
	2.330000	0.106800
	2.335000	0.248215
	2.340000	0.208751
	2.345000	0.067335
	2.350000	0.103511
	2.355000	0.238349
	2.360000	0.208751
	2.365000	0.070624
	2.370000	0.106800
	2.375000	0.244927
	2.380000	0.205462
	2.385000	0.064047
	2.390000	0.106800
	2.395000	0.235060
	2.400000	0.202173
	2.405000	0.064047
	2.410000	0.103511
	2.415000	0.238349
	2.420000	0.198884
	2.425000	0.064047
	2.430000	0.096934
	2.435000	0.241638
	2.440000	0.198884
	2.445000	0.064047
	2.450000	0.100223
	2.455000	0.235060
	2.460000	0.195596
	2.465000	0.057469
	2.470000	0.093645
	2.475000	0.235060
	2.480000	0.195596
	2.485000	0.057469
	2.490000	0.093645
	2.495000	0.231772
	2.500000	0.192307
	2.505000	0.054181
	2.510000	0.096934
	2.515000	0.235060
	2.520000	0.192307
	2.525000	0.050892
	2.530000	0.096934
	2.535000	0.231772
	2.540000	0.185730
	2.545000	0.050892
	2.550000	0.093645
	2.555000	0.231772
	2.560000	0.192307
	2.565000	0.047603
	2.570000	0.090357
	2.575000	0.231772
	2.580000	0.189018
	2.585000	0.047603
	2.590000	0.096934
	2.595000	0.228483
	2.600000	0.185730
	2.605000	0.050892
	2.610000	0.093645
	2.615000	0.231772
	2.620000	0.185730
	2.625000	0.044314
	2.630000	0.093645
	2.635000	0.228483
	2.640000	0.182441
	2.645000	0.041026
	2.650000	0.087068
	2.655000	0.225194
	2.660000	0.175863
	2.665000	0.037737
	2.670000	0.083779
	2.675000	0.225194
	2.680000	0.175863
	2.685000	0.034448
	2.690000	0.083779
	2.695000	0.218617
	2.700000	0.169286
	2.705000	0.037737
	2.710000	0.080490
	2.715000	0.221905
	2.720000	0.172575
	2.725000	0.034448
	2.730000	0.090357
	2.735000	0.225194
	2.740000	0.175863
	2.745000	0.037737
	2.750000	0.090357
	2.755000	0.221905
	2.760000	0.175863
	2.765000	0.041026
	2.770000	0.090357
	2.775000	0.225194
	2.780000	0.175863
	2.785000	0.037737
	2.790000	0.087068
	2.795000	0.218617
	2.800000	0.165997
	2.805000	0.027871
	2.810000	0.077202
	2.815000	0.212039
	2.820000	0.156131
	2.825000	0.018005
	2.830000	0.067335
	2.835000	0.202173
	2.840000	0.146265
	2.845000	0.011427
	2.850000	0.064047
	2.855000	0.198884
	2.860000	0.146265
	2.865000	0.014716
	2.870000	0.064047
	2.875000	0.198884
	2.880000	0.146265
	2.885000	0.011427
	2.890000	0.070624
	2.895000	0.205462
	2.900000	0.156131
	2.905000	0.021293
	2.910000	0.083779
	2.915000	0.215328
	2.920000	0.162708
	2.925000	0.031160
	2.930000	0.090357
	2.935000	0.231772
	2.940000	0.172575
	2.945000	0.041026
	2.950000	0.103511
	2.955000	0.235060
	2.960000	0.175863
	2.965000	0.037737
	2.970000	0.096934
	2.975000	0.228483
	2.980000	0.169286
	2.985000	0.031160
	2.990000	0.087068
	2.995000	0.218617
	3.000000	0.152842
	3.005000	0.014716
	3.010000	0.073913
	3.015000	0.205462
	3.020000	0.142976
	3.025000	0.004850
	3.030000	0.070624
	3.035000	0.198884
	3.040000	0.139687
	3.045000	0.011427
	3.050000	0.070624
	3.055000	0.202173
	3.060000	0.142976
	3.065000	0.011427
	3.070000	0.077202
	3.075000	0.208751
	3.080000	0.146265
	3.085000	0.011427
	3.090000	0.073913
	3.095000	0.205462
	3.100000	0.146265
	3.105000	0.004850
	3.110000	0.070624
	3.115000	0.198884
	3.120000	0.136399
	3.125000	-0.001728
	3.130000	0.057469
	3.135000	0.195596
	3.140000	0.129821
	3.145000	-0.008305
	3.150000	0.054181
	3.155000	0.189018
	3.160000	0.129821
	3.165000	-0.008305
	3.170000	0.064047
	3.175000	0.202173
	3.180000	0.139687
	3.185000	0.011427
	3.190000	0.073913
	3.195000	0.205462
	3.200000	0.146265
	3.205000	0.021293
	3.210000	0.087068
	3.215000	0.225194
	3.220000	0.162708
	3.225000	0.041026
	3.230000	0.106800
	3.235000	0.235060
	3.240000	0.169286
	3.245000	0.044314
	3.250000	0.103511
	3.255000	0.228483
	3.260000	0.159420
	3.265000	0.027871
	3.270000	0.083779
	3.275000	0.205462
	3.280000	0.129821
	3.285000	0.001561
	3.290000	0.060758
	3.295000	0.179152
	3.300000	0.113378
	3.305000	-0.018171
	3.310000	0.044314
	3.315000	0.165997
	3.320000	0.100223
	3.325000	-0.031326
	3.330000	0.034448
	3.335000	0.159420
	3.340000	0.096934
	3.345000	-0.034615
	3.350000	0.031160
	3.355000	0.162708
	3.360000	0.090357
	3.365000	-0.031326
	3.370000	0.037737
	3.375000	0.162708
	3.380000	0.103511
	3.385000	-0.024749
	3.390000	0.044314
	3.395000	0.172575
	3.400000	0.103511
	3.405000	-0.021460
	3.410000	0.050892
	3.415000	0.175863
	3.420000	0.116666
	3.425000	-0.005016
	3.430000	0.060758
	3.435000	0.182441
	3.440000	0.123244
	3.445000	-0.008305
	3.450000	0.070624
	3.455000	0.189018
	3.460000	0.123244
	3.465000	0.001561
	3.470000	0.064047
	3.475000	0.192307
	3.480000	0.123244
	3.485000	-0.001728
	3.490000	0.064047
	3.495000	0.189018
	3.500000	0.119955
	3.505000	-0.005016
	3.510000	0.064047
	3.515000	0.185730
	3.520000	0.116666
	3.525000	-0.008305
	3.530000	0.064047
	3.535000	0.185730
	3.540000	0.110089
	3.545000	-0.014883
	3.550000	0.060758
	3.555000	0.182441
	3.560000	0.106800
	3.565000	-0.011594
	3.570000	0.047603
	3.575000	0.175863
	3.580000	0.100223
	3.585000	-0.021460
	3.590000	0.044314
	3.595000	0.169286
	3.600000	0.093645
	3.605000	-0.031326
	3.610000	0.041026
	3.615000	0.159420
	3.620000	0.090357
	3.625000	-0.041192
	3.630000	0.034448
	3.635000	0.156131
	3.640000	0.080490
	3.645000	-0.041192
	3.650000	0.031160
	3.655000	0.152842
	3.660000	0.077202
	3.665000	-0.037904
	3.670000	0.034448
	3.675000	0.152842
	3.680000	0.080490
	3.685000	-0.044481
	3.690000	0.031160
	3.695000	0.156131
	3.700000	0.083779
	3.705000	-0.041192
	3.710000	0.034448
	3.715000	0.159420
	3.720000	0.083779
	3.725000	-0.041192
	3.730000	0.034448
	3.735000	0.156131
	3.740000	0.080490
	3.745000	-0.041192
	3.750000	0.031160
	3.755000	0.156131
	3.760000	0.083779
	3.765000	-0.044481
	3.770000	0.037737
	3.775000	0.156131
	3.780000	0.080490
	3.785000	-0.041192
	3.790000	0.037737
	3.795000	0.156131
	3.800000	0.080490
	3.805000	-0.044481
	3.810000	0.034448
	3.815000	0.156131
	3.820000	0.073913
	3.825000	-0.041192
	3.830000	0.031160
	3.835000	0.152842
	3.840000	0.077202
	3.845000	-0.044481
	3.850000	0.034448
	3.855000	0.159420
	3.860000	0.077202
	3.865000	-0.041192
	3.870000	0.037737
	3.875000	0.156131
	3.880000	0.077202
	3.885000	-0.044481
	3.890000	0.037737
	3.895000	0.152842
	3.900000	0.073913
	3.905000	-0.044481
	3.910000	0.037737
	3.915000	0.152842
	3.920000	0.073913
	3.925000	-0.047770
	3.930000	0.037737
	3.935000	0.152842
	3.940000	0.067335
	3.945000	-0.051059
	3.950000	0.031160
	3.955000	0.146265
	3.960000	0.064047
	3.965000	-0.057636
	3.970000	0.027871
	3.975000	0.146265
	3.980000	0.064047
	3.985000	-0.054347
	3.990000	0.024582
	3.995000	0.139687
	4.000000	0.057469
	4.005000	-0.057636
	4.010000	0.027871
	4.015000	0.142976
	4.020000	0.057469
	4.025000	-0.057636
	4.030000	0.027871
	4.035000	0.142976
	4.040000	0.060758
	4.045000	-0.054347
	4.050000	0.027871
	4.055000	0.142976
	4.060000	0.057469
	4.065000	-0.057636
	4.070000	0.031160
	4.075000	0.142976
	4.080000	0.057469
	4.085000	-0.057636
	4.090000	0.031160
	4.095000	0.136399
	4.100000	0.054181
	4.105000	-0.060925
	4.110000	0.031160
	4.115000	0.139687
	4.120000	0.054181
	4.125000	-0.060925
	4.130000	0.027871
	4.135000	0.142976
	4.140000	0.050892
	4.145000	-0.057636
	4.150000	0.024582
	4.155000	0.139687
	4.160000	0.050892
	4.165000	-0.060925
	4.170000	0.027871
	4.175000	0.142976
	4.180000	0.057469
	4.185000	-0.060925
	4.190000	0.027871
	4.195000	0.142976
	4.200000	0.054181
	4.205000	-0.060925
	4.210000	0.031160
	4.215000	0.146265
	4.220000	0.050892
	4.225000	-0.060925
	4.230000	0.024582
	4.235000	0.136399
	4.240000	0.044314
	4.245000	-0.070791
	4.250000	0.024582
	4.255000	0.133110
	4.260000	0.037737
	4.265000	-0.070791
	4.270000	0.018005
	4.275000	0.126533
	4.280000	0.041026
	4.285000	-0.077368
	4.290000	0.018005
	4.295000	0.126533
	4.300000	0.037737
	4.305000	-0.077368
	4.310000	0.014716
	4.315000	0.129821
	4.320000	0.034448
	4.325000	-0.080657
	4.330000	0.014716
	4.335000	0.126533
	4.340000	0.037737
	4.345000	-0.074080
	4.350000	0.024582
	4.355000	0.136399
	4.360000	0.041026
	4.365000	-0.074080
	4.370000	0.024582
	4.375000	0.133110
	4.380000	0.041026
	4.385000	-0.070791
	4.390000	0.021293
	4.395000	0.133110
	4.400000	0.037737
	4.405000	-0.074080
	4.410000	0.018005
	4.415000	0.129821
	4.420000	0.034448
	4.425000	-0.074080
	4.430000	0.018005
	4.435000	0.126533
	4.440000	0.027871
	4.445000	-0.077368
	4.450000	0.021293
	4.455000	0.126533
	4.460000	0.027871
	4.465000	-0.080657
	4.470000	0.018005
	4.475000	0.123244
	4.480000	0.024582
	4.485000	-0.087234
	4.490000	0.018005
	4.495000	0.119955
	4.500000	0.021293
	4.505000	-0.083946
	4.510000	0.014716
	4.515000	0.113378
	4.520000	0.018005
	4.525000	-0.093812
	4.530000	0.004850
	4.535000	0.110089
	4.540000	0.004850
	4.545000	-0.100389
	4.550000	0.001561
	4.555000	0.110089
	4.560000	0.004850
	4.565000	-0.103678
	4.570000	0.008138
	4.575000	0.113378
	4.580000	0.011427
	4.585000	-0.093812
	4.590000	0.011427
	4.595000	0.119955
	4.600000	0.018005
	4.605000	-0.083946
	4.610000	0.021293
	4.615000	0.126533
	4.620000	0.027871
	4.625000	-0.077368
	4.630000	0.031160
	4.635000	0.136399
	4.640000	0.027871
	4.645000	-0.070791
	4.650000	0.037737
	4.655000	0.139687
	4.660000	0.031160
	4.665000	-0.074080
	4.670000	0.027871
	4.675000	0.129821
	4.680000	0.021293
	4.685000	-0.087234
	4.690000	0.021293
	4.695000	0.113378
	4.700000	0.004850
	4.705000	-0.100389
	4.710000	0.004850
	4.715000	0.103511
	4.720000	-0.001728
	4.725000	-0.106967
	4.730000	0.001561
	4.735000	0.106800
	4.740000	-0.005016
	4.745000	-0.100389
	4.750000	0.008138
	4.755000	0.116666
	4.760000	0.008138
	4.765000	-0.093812
	4.770000	0.018005
	4.775000	0.116666
	4.780000	0.008138
	4.785000	-0.090523
	4.790000	0.021293
	4.795000	0.116666
	4.800000	0.001561
	4.805000	-0.093812
	4.810000	0.014716
	4.815000	0.110089
	4.820000	-0.001728
	4.825000	-0.100389
	4.830000	0.011427
	4.835000	0.110089
	4.840000	-0.001728
	4.845000	-0.097101
	4.850000	0.018005
	4.855000	0.116666
	4.860000	0.008138
	4.865000	-0.080657
	4.870000	0.021293
	4.875000	0.129821
	4.880000	0.018005
	4.885000	-0.070791
	4.890000	0.044314
	4.895000	0.142976
	4.900000	0.037737
	4.905000	-0.054347
	4.910000	0.057469
	4.915000	0.149554
	4.920000	0.044314
	4.925000	-0.054347
	4.930000	0.050892
	4.935000	0.142976
	4.940000	0.031160
	4.945000	-0.067502
	4.950000	0.037737
	4.955000	0.119955
	4.960000	0.004850
	4.965000	-0.097101
	4.970000	0.004850
	4.975000	0.093645
	4.980000	-0.024749
	4.985000	-0.116833
	4.990000	-0.018171
	4.995000	0.077202
	5.000000	-0.037904
	5.005000	-0.133277
	5.010000	-0.028037
	5.015000	0.070624
	5.020000	-0.041192
	5.025000	-0.133277
	5.030000	-0.021460
	5.035000	0.067335
	5.040000	-0.034615
	5.045000	-0.129988
	5.050000	-0.014883
	5.055000	0.077202
	5.060000	-0.024749
	5.065000	-0.113544
	5.070000	-0.005016
	5.075000	0.090357
	5.080000	-0.014883
	5.085000	-0.106967
	5.090000	0.004850
	5.095000	0.100223
	5.100000	-0.008305
	5.105000	-0.103678
	5.110000	0.011427
	5.115000	0.103511
	5.120000	-0.005016
	5.125000	-0.093812
	5.130000	0.018005
	5.135000	0.103511
	5.140000	-0.005016
	5.145000	-0.100389
	5.150000	0.014716
	5.155000	0.106800
	5.160000	-0.011594
	5.165000	-0.100389
	5.170000	0.011427
	5.175000	0.096934
	5.180000	-0.011594
	5.185000	-0.103678
	5.190000	0.011427
	5.195000	0.100223
	5.200000	-0.011594
	5.205000	-0.103678
	5.210000	0.008138
	5.215000	0.100223
	5.220000	-0.014883
	5.225000	-0.097101
	5.230000	0.008138
	5.235000	0.093645
	5.240000	-0.018171
	5.245000	-0.106967
	5.250000	0.011427
	5.255000	0.093645
	5.260000	-0.018171
	5.265000	-0.103678
	5.270000	0.001561
	5.275000	0.083779
	5.280000	-0.028037
	5.285000	-0.116833
	5.290000	-0.005016
	5.295000	0.073913
	5.300000	-0.034615
	5.305000	-0.129988
	5.310000	-0.014883
	5.315000	0.067335
	5.320000	-0.044481
	5.325000	-0.129988
	5.330000	-0.014883
	5.335000	0.064047
	5.340000	-0.047770
	5.345000	-0.129988
	5.350000	-0.018171
	5.355000	0.070624
	5.360000	-0.047770
	5.365000	-0.129988
	5.370000	-0.011594
	5.375000	0.073913
	5.380000	-0.041192
	5.385000	-0.129988
	5.390000	-0.011594
	5.395000	0.077202
	5.400000	-0.041192
	5.405000	-0.129988
	5.410000	-0.011594
	5.415000	0.077202
	5.420000	-0.041192
	5.425000	-0.129988
	5.430000	-0.008305
	5.435000	0.077202
	5.440000	-0.041192
	5.445000	-0.123410
	5.450000	-0.008305
	5.455000	0.073913
	5.460000	-0.041192
	5.465000	-0.126699
	5.470000	-0.011594
	5.475000	0.067335
	5.480000	-0.041192
	5.485000	-0.129988
	5.490000	-0.008305
	5.495000	0.073913
	5.500000	-0.047770
	5.505000	-0.126699
	5.510000	-0.011594
	5.515000	0.070624
	5.520000	-0.041192
	5.525000	-0.126699
	5.530000	-0.008305
	5.535000	0.070624
	5.540000	-0.047770
	5.545000	-0.126699
	5.550000	-0.005016
	5.555000	0.067335
	5.560000	-0.047770
	5.565000	-0.133277
	5.570000	-0.008305
	5.575000	0.070624
	5.580000	-0.047770
	5.585000	-0.133277
	5.590000	-0.018171
	5.595000	0.060758
	5.600000	-0.057636
	5.605000	-0.133277
	5.610000	-0.014883
	5.615000	0.060758
	5.620000	-0.057636
	5.625000	-0.133277
	5.630000	-0.014883
	5.635000	0.057469
	5.640000	-0.060925
	5.645000	-0.136565
	5.650000	-0.014883
	5.655000	0.060758
	5.660000	-0.057636
	5.665000	-0.139854
	5.670000	-0.014883
	5.675000	0.060758
	5.680000	-0.060925
	5.685000	-0.136565
	5.690000	-0.018171
	5.695000	0.057469
	5.700000	-0.060925
	5.705000	-0.139854
	5.710000	-0.018171
	5.715000	0.057469
	5.720000	-0.067502
	5.725000	-0.143143
	5.730000	-0.021460
	5.735000	0.054181
	5.740000	-0.064213
	5.745000	-0.143143
	5.750000	-0.021460
	5.755000	0.050892
	5.760000	-0.067502
	5.765000	-0.143143
	5.770000	-0.021460
	5.775000	0.050892
	5.780000	-0.067502
	5.785000	-0.143143
	5.790000	-0.018171
	5.795000	0.054181
	5.800000	-0.067502
	5.805000	-0.139854
	5.810000	-0.018171
	5.815000	0.050892
	5.820000	-0.067502
	5.825000	-0.143143
	5.830000	-0.018171
	5.835000	0.054181
	5.840000	-0.070791
	5.845000	-0.143143
	5.850000	-0.018171
	5.855000	0.050892
	5.860000	-0.074080
	5.865000	-0.143143
	5.870000	-0.018171
	5.875000	0.050892
	5.880000	-0.074080
	5.885000	-0.146431
	5.890000	-0.018171
	5.895000	0.047603
	5.900000	-0.077368
	5.905000	-0.146431
	5.910000	-0.024749
	5.915000	0.047603
	5.920000	-0.077368
	5.925000	-0.146431
	5.930000	-0.021460
	5.935000	0.050892
	5.940000	-0.077368
	5.945000	-0.146431
	5.950000	-0.024749
	5.955000	0.044314
	5.960000	-0.083946
	5.965000	-0.149720
	5.970000	-0.024749
	5.975000	0.044314
	5.980000	-0.087234
	5.985000	-0.156298
	5.990000	-0.028037
	5.995000	0.041026
	6.000000	-0.087234
	6.005000	-0.153009
	6.010000	-0.024749
	6.015000	0.041026
	6.020000	-0.087234
	6.025000	-0.153009
	6.030000	-0.018171
	6.035000	0.037737
	6.040000	-0.083946
	6.045000	-0.146431
	6.050000	-0.021460
	6.055000	0.041026
	6.060000	-0.080657
	6.065000	-0.146431
	6.070000	-0.018171
	6.075000	0.047603
	6.080000	-0.083946
	6.085000	-0.146431
	6.090000	-0.018171
	6.095000	0.044314
	6.100000	-0.087234
	6.105000	-0.149720
	6.110000	-0.021460
	6.115000	0.037737
	6.120000	-0.090523
	6.125000	-0.153009
	6.130000	-0.024749
	6.135000	0.041026
	6.140000	-0.093812
	6.145000	-0.156298
	6.150000	-0.024749
	6.155000	0.034448
	6.160000	-0.097101
	6.165000	-0.159586
	6.170000	-0.031326
	6.175000	0.031160
	6.180000	-0.100389
	6.185000	-0.162875
	6.190000	-0.031326
	6.195000	0.027871
	6.200000	-0.103678
	6.205000	-0.169453
	6.210000	-0.031326
	6.215000	0.034448
	6.220000	-0.100389
	6.225000	-0.159586
	6.230000	-0.028037
	6.235000	0.034448
	6.240000	-0.097101
	6.245000	-0.153009
	6.250000	-0.011594
	6.255000	0.047603
	6.260000	-0.083946
	6.265000	-0.136565
	6.270000	0.001561
	6.275000	0.064047
	6.280000	-0.067502
	6.285000	-0.120122
	6.290000	0.014716
	6.295000	0.080490
	6.300000	-0.051059
	6.305000	-0.110256
	6.310000	0.024582
	6.315000	0.083779
	6.320000	-0.057636
	6.325000	-0.116833
	6.330000	0.014716
	6.335000	0.070624
	6.340000	-0.074080
	6.345000	-0.136565
	6.350000	-0.008305
	6.355000	0.041026
	6.360000	-0.103678
	6.365000	-0.162875
	6.370000	-0.024749
	6.375000	0.031160
	6.380000	-0.116833
	6.385000	-0.166164
	6.390000	-0.028037
	6.395000	0.021293
	6.400000	-0.116833
	6.405000	-0.166164
	6.410000	-0.028037
	6.415000	0.018005
	6.420000	-0.113544
	6.425000	-0.162875
	6.430000	-0.028037
	6.435000	0.024582
	6.440000	-0.110256
	6.445000	-0.159586
	6.450000	-0.021460
	6.455000	0.037737
	6.460000	-0.097101
	6.465000	-0.146431
	6.470000	-0.011594
	6.475000	0.047603
	6.480000	-0.083946
	6.485000	-0.129988
	6.490000	0.004850
	6.495000	0.057469
	6.500000	-0.074080
	6.505000	-0.123410
	6.510000	0.011427
	6.515000	0.064047
	6.520000	-0.070791
	6.525000	-0.123410
	6.530000	0.008138
	6.535000	0.054181
	6.540000	-0.083946
	6.545000	-0.143143
	6.550000	-0.014883
	6.555000	0.031160
	6.560000	-0.106967
	6.565000	-0.159586
	6.570000	-0.031326
	6.575000	0.014716
	6.580000	-0.129988
	6.585000	-0.179319
	6.590000	-0.041192
	6.595000	-0.001728
	6.600000	-0.136565
	6.605000	-0.179319
	6.610000	-0.041192
	6.615000	0.001561
	6.620000	-0.133277
	6.625000	-0.179319
	6.630000	-0.041192
	6.635000	0.004850
	6.640000	-0.129988
	6.645000	-0.172741
	6.650000	-0.031326
	6.655000	0.014716
	6.660000	-0.116833
	6.665000	-0.166164
	6.670000	-0.024749
	6.675000	0.024582
	6.680000	-0.113544
	6.685000	-0.156298
	6.690000	-0.018171
	6.695000	0.021293
	6.700000	-0.106967
	6.705000	-0.153009
	6.710000	-0.014883
	6.715000	0.031160
	6.720000	-0.106967
	6.725000	-0.146431
	6.730000	-0.018171
	6.735000	0.027871
	6.740000	-0.110256
	6.745000	-0.153009
	6.750000	-0.014883
	6.755000	0.027871
	6.760000	-0.110256
	6.765000	-0.149720
	6.770000	-0.011594
	6.775000	0.027871
	6.780000	-0.110256
	6.785000	-0.146431
	6.790000	-0.014883
	6.795000	0.031160
	6.800000	-0.113544
	6.805000	-0.149720
	6.810000	-0.011594
	6.815000	0.024582
	6.820000	-0.113544
	6.825000	-0.156298
	6.830000	-0.024749
	6.835000	0.014716
	6.840000	-0.120122
	6.845000	-0.166164
	6.850000	-0.028037
	6.855000	0.011427
	6.860000	-0.133277
	6.865000	-0.169453
	6.870000	-0.034615
	6.875000	0.004850
	6.880000	-0.129988
	6.885000	-0.172741
	6.890000	-0.034615
	6.895000	0.008138
	6.900000	-0.129988
	6.905000	-0.172741
	6.910000	-0.034615
	6.915000	0.008138
	6.920000	-0.133277
	6.925000	-0.169453
	6.930000	-0.037904
	6.935000	0.004850
	6.940000	-0.133277
	6.945000	-0.166164
	6.950000	-0.034615
	6.955000	0.001561
	6.960000	-0.136565
	6.965000	-0.176030
	6.970000	-0.037904
	6.975000	-0.001728
	6.980000	-0.139854
	6.985000	-0.176030
	6.990000	-0.037904
	6.995000	-0.001728
	7.000000	-0.146431
	7.005000	-0.172741
	7.010000	-0.034615
	7.015000	-0.005016
	7.020000	-0.143143
	7.025000	-0.179319
	7.030000	-0.037904
	7.035000	-0.001728
	7.040000	-0.139854
	7.045000	-0.172741
	7.050000	-0.037904
	7.055000	0.001561
	7.060000	-0.146431
	7.065000	-0.172741
	7.070000	-0.037904
	7.075000	-0.005016
	7.080000	-0.139854
	7.085000	-0.172741
	7.090000	-0.037904
	7.095000	-0.001728
	7.100000	-0.143143
	7.105000	-0.172741
	7.110000	-0.031326
	7.115000	0.001561
	7.120000	-0.139854
	7.125000	-0.172741
	7.130000	-0.034615
	7.135000	-0.001728
	7.140000	-0.139854
	7.145000	-0.172741
	7.150000	-0.034615
	7.155000	-0.005016
	7.160000	-0.143143
	7.165000	-0.176030
	7.170000	-0.034615
	7.175000	-0.005016
	7.180000	-0.146431
	7.185000	-0.172741
	7.190000	-0.034615
	7.195000	-0.008305
	7.200000	-0.143143
	7.205000	-0.172741
	7.210000	-0.034615
	7.215000	-0.001728
	7.220000	-0.146431
	7.225000	-0.176030
	7.230000	-0.031326
	7.235000	-0.008305
	7.240000	-0.146431
	7.245000	-0.172741
	7.250000	-0.034615
	7.255000	-0.008305
	7.260000	-0.149720
	7.265000	-0.172741
	7.270000	-0.037904
	7.275000	-0.008305
	7.280000	-0.146431
	7.285000	-0.176030
	7.290000	-0.041192
	7.295000	-0.011594
	7.300000	-0.149720
	7.305000	-0.176030
	7.310000	-0.037904
	7.315000	-0.011594
	7.320000	-0.153009
	7.325000	-0.179319
	7.330000	-0.034615
	7.335000	-0.008305
	7.340000	-0.156298
	7.345000	-0.182607
	7.350000	-0.041192
	7.355000	-0.014883
	7.360000	-0.159586
	7.365000	-0.185896
	7.370000	-0.044481
	7.375000	-0.018171
	7.380000	-0.159586
	7.385000	-0.185896
	7.390000	-0.041192
	7.395000	-0.021460
	7.400000	-0.162875
	7.405000	-0.185896
	7.410000	-0.041192
	7.415000	-0.021460
	7.420000	-0.162875
	7.425000	-0.185896
	7.430000	-0.041192
	7.435000	-0.024749
	7.440000	-0.162875
	7.445000	-0.182607
	7.450000	-0.041192
	7.455000	-0.018171
	7.460000	-0.159586
	7.465000	-0.179319
	7.470000	-0.041192
	7.475000	-0.021460
	7.480000	-0.162875
	7.485000	-0.185896
	7.490000	-0.041192
	7.495000	-0.018171
	7.500000	-0.159586
	7.505000	-0.182607
	7.510000	-0.041192
	7.515000	-0.028037
	7.520000	-0.166164
	7.525000	-0.182607
	7.530000	-0.041192
	7.535000	-0.024749
	7.540000	-0.162875
	7.545000	-0.189185
	7.550000	-0.041192
	7.555000	-0.024749
	7.560000	-0.166164
	7.565000	-0.185896
	7.570000	-0.044481
	7.575000	-0.024749
	7.580000	-0.169453
	7.585000	-0.182607
	7.590000	-0.044481
	7.595000	-0.024749
	7.600000	-0.166164
	7.605000	-0.185896
	7.610000	-0.041192
	7.615000	-0.028037
	7.620000	-0.166164
	7.625000	-0.185896
	7.630000	-0.041192
	7.635000	-0.031326
	7.640000	-0.169453
	7.645000	-0.185896
	7.650000	-0.044481
	7.655000	-0.031326
	7.660000	-0.172741
	7.665000	-0.189185
	7.670000	-0.044481
	7.675000	-0.031326
	7.680000	-0.172741
	7.685000	-0.192474
	7.690000	-0.044481
	7.695000	-0.034615
	7.700000	-0.172741
	7.705000	-0.189185
	7.710000	-0.041192
	7.715000	-0.028037
	7.720000	-0.169453
	7.725000	-0.179319
	7.730000	-0.037904
	7.735000	-0.024749
	7.740000	-0.166164
	7.745000	-0.179319
	7.750000	-0.041192
	7.755000	-0.021460
	7.760000	-0.172741
	7.765000	-0.176030
	7.770000	-0.041192
	7.775000	-0.028037
	7.780000	-0.176030
	7.785000	-0.185896
	7.790000	-0.044481
	7.795000	-0.037904
	7.800000	-0.176030
	7.805000	-0.189185
	7.810000	-0.047770
	7.815000	-0.041192
	7.820000	-0.179319
	7.825000	-0.192474
	7.830000	-0.047770
	7.835000	-0.041192
	7.840000	-0.179319
	7.845000	-0.192474
	7.850000	-0.044481
	7.855000	-0.041192
	7.860000	-0.176030
	7.865000	-0.185896
	7.870000	-0.041192
	7.875000	-0.034615
	7.880000	-0.179319
	7.885000	-0.189185
	7.890000	-0.041192
	7.895000	-0.031326
	7.900000	-0.176030
	7.905000	-0.185896
	7.910000	-0.041192
	7.915000	-0.041192
	7.920000	-0.179319
	7.925000	-0.185896
	7.930000	-0.041192
	7.935000	-0.041192
	7.940000	-0.182607
	7.945000	-0.192474
	7.950000	-0.047770
	7.955000	-0.041192
	7.960000	-0.189185
	7.965000	-0.192474
	7.970000	-0.047770
	7.975000	-0.041192
	7.980000	-0.189185
	7.985000	-0.189185
	7.990000	-0.044481
	7.995000	-0.041192
	8.000000	-0.189185
	8.005000	-0.192474
	8.010000	-0.044481
	8.015000	-0.041192
	8.020000	-0.185896
	8.025000	-0.185896
	8.030000	-0.041192
	8.035000	-0.041192
	8.040000	-0.185896
	8.045000	-0.189185
	8.050000	-0.041192
	8.055000	-0.041192
	8.060000	-0.185896
	8.065000	-0.185896
	8.070000	-0.044481
	8.075000	-0.041192
	8.080000	-0.189185
	8.085000	-0.185896
	8.090000	-0.041192
	8.095000	-0.044481
	8.100000	-0.192474
	8.105000	-0.189185
	8.110000	-0.041192
	8.115000	-0.047770
	8.120000	-0.195762
	8.125000	-0.195762
	8.130000	-0.051059
	8.135000	-0.054347
	8.140000	-0.199051
	8.145000	-0.199051
	8.150000	-0.054347
	8.155000	-0.060925
	8.160000	-0.205628
	8.165000	-0.199051
	8.170000	-0.057636
	8.175000	-0.064213
	8.180000	-0.205628
	8.185000	-0.202340
	8.190000	-0.054347
	8.195000	-0.064213
	8.200000	-0.212206
	8.205000	-0.199051
	8.210000	-0.051059
	8.215000	-0.054347
	8.220000	-0.202340
	8.225000	-0.192474
	8.230000	-0.041192
	8.235000	-0.047770
	8.240000	-0.195762
	8.245000	-0.185896
	8.250000	-0.028037
	8.255000	-0.031326
	8.260000	-0.179319
	8.265000	-0.162875
	8.270000	-0.014883
	8.275000	-0.024749
	8.280000	-0.172741
	8.285000	-0.166164
	8.290000	-0.014883
	8.295000	-0.024749
	8.300000	-0.172741
	8.305000	-0.162875
	8.310000	-0.018171
	8.315000	-0.028037
	8.320000	-0.182607
	8.325000	-0.169453
	8.330000	-0.028037
	8.335000	-0.041192
	8.340000	-0.189185
	8.345000	-0.185896
	8.350000	-0.034615
	8.355000	-0.047770
	8.360000	-0.199051
	8.365000	-0.189185
	8.370000	-0.041192
	8.375000	-0.054347
	8.380000	-0.205628
	8.385000	-0.192474
	8.390000	-0.041192
	8.395000	-0.051059
	8.400000	-0.202340
	8.405000	-0.189185
	8.410000	-0.041192
	8.415000	-0.054347
	8.420000	-0.202340
	8.425000	-0.182607
	8.430000	-0.037904
	8.435000	-0.051059
	8.440000	-0.195762
	8.445000	-0.179319
	8.450000	-0.034615
	8.455000	-0.044481
	8.460000	-0.185896
	8.465000	-0.169453
	8.470000	-0.021460
	8.475000	-0.034615
	8.480000	-0.176030
	8.485000	-0.159586
	8.490000	-0.014883
	8.495000	-0.031326
	8.500000	-0.172741
	8.505000	-0.159586
	8.510000	-0.018171
	8.515000	-0.034615
	8.520000	-0.185896
	8.525000	-0.179319
	8.530000	-0.037904
	8.535000	-0.057636
	8.540000	-0.205628
	8.545000	-0.199051
	8.550000	-0.060925
	8.555000	-0.083946
	8.560000	-0.238516
	8.565000	-0.231938
	8.570000	-0.097101
	8.575000	-0.120122
	8.580000	-0.271403
	8.585000	-0.258248
	8.590000	-0.113544
	8.595000	-0.133277
	8.600000	-0.277980
	8.605000	-0.251671
	8.610000	-0.113544
	8.615000	-0.123410
	8.620000	-0.261537
	8.625000	-0.231938
	8.630000	-0.083946
	8.635000	-0.100389
	8.640000	-0.235227
	8.645000	-0.212206
	8.650000	-0.060925
	8.655000	-0.074080
	8.660000	-0.205628
	8.665000	-0.182607
	8.670000	-0.034615
	8.675000	-0.047770
	8.680000	-0.185896
	8.685000	-0.166164
	8.690000	-0.028037
	8.695000	-0.044481
	8.700000	-0.192474
	8.705000	-0.176030
	8.710000	-0.034615
	8.715000	-0.054347
	8.720000	-0.199051
	8.725000	-0.182607
	8.730000	-0.047770
	8.735000	-0.064213
	8.740000	-0.208917
	8.745000	-0.189185
	8.750000	-0.051059
	8.755000	-0.070791
	8.760000	-0.215495
	8.765000	-0.192474
	8.770000	-0.060925
	8.775000	-0.074080
	8.780000	-0.215495
	8.785000	-0.195762
	8.790000	-0.051059
	8.795000	-0.074080
	8.800000	-0.215495
	8.805000	-0.195762
	8.810000	-0.054347
	8.815000	-0.074080
	8.820000	-0.218783
	8.825000	-0.192474
	8.830000	-0.051059
	8.835000	-0.080657
	8.840000	-0.222072
	8.845000	-0.195762
	8.850000	-0.054347
	8.855000	-0.080657
	8.860000	-0.228650
	8.865000	-0.202340
	8.870000	-0.064213
	8.875000	-0.090523
	8.880000	-0.228650
	8.885000	-0.208917
	8.890000	-0.067502
	8.895000	-0.097101
	8.900000	-0.241804
	8.905000	-0.218783
	8.910000	-0.080657
	8.915000	-0.103678
	8.920000	-0.241804
	8.925000	-0.218783
	8.930000	-0.077368
	8.935000	-0.103678
	8.940000	-0.248382
	8.945000	-0.218783
	8.950000	-0.077368
	8.955000	-0.097101
	8.960000	-0.241804
	8.965000	-0.215495
	8.970000	-0.067502
	8.975000	-0.100389
	8.980000	-0.235227
	8.985000	-0.208917
	8.990000	-0.067502
	8.995000	-0.093812
	9.000000	-0.235227
	9.005000	-0.205628
	9.010000	-0.067502
	9.015000	-0.090523
	9.020000	-0.238516
	9.025000	-0.208917
	9.030000	-0.070791
	9.035000	-0.097101
	9.040000	-0.238516
	9.045000	-0.208917
	9.050000	-0.070791
	9.055000	-0.097101
	9.060000	-0.235227
	9.065000	-0.202340
	9.070000	-0.067502
	9.075000	-0.097101
	9.080000	-0.235227
	9.085000	-0.205628
	9.090000	-0.060925
	9.095000	-0.093812
	9.100000	-0.235227
	9.105000	-0.199051
	9.110000	-0.057636
	9.115000	-0.097101
	9.120000	-0.225361
	9.125000	-0.199051
	9.130000	-0.054347
	9.135000	-0.090523
	9.140000	-0.231938
	9.145000	-0.199051
	9.150000	-0.054347
	9.155000	-0.093812
	9.160000	-0.231938
	9.165000	-0.199051
	9.170000	-0.060925
	9.175000	-0.097101
	9.180000	-0.238516
	9.185000	-0.199051
	9.190000	-0.064213
	9.195000	-0.100389
	9.200000	-0.238516
	9.205000	-0.205628
	9.210000	-0.067502
	9.215000	-0.100389
	9.220000	-0.235227
	9.225000	-0.202340
	9.230000	-0.064213
	9.235000	-0.103678
	9.240000	-0.235227
	9.245000	-0.208917
	9.250000	-0.067502
	9.255000	-0.100389
	9.260000	-0.241804
	9.265000	-0.202340
	9.270000	-0.067502
	9.275000	-0.103678
	9.280000	-0.245093
	9.285000	-0.212206
	9.290000	-0.074080
	9.295000	-0.113544
	9.300000	-0.245093
	9.305000	-0.212206
	9.310000	-0.070791
	9.315000	-0.110256
	9.320000	-0.248382
	9.325000	-0.208917
	9.330000	-0.074080
	9.335000	-0.110256
	9.340000	-0.251671
	9.345000	-0.212206
	9.350000	-0.077368
	9.355000	-0.113544
	9.360000	-0.248382
	9.365000	-0.212206
	9.370000	-0.074080
	9.375000	-0.116833
	9.380000	-0.248382
	9.385000	-0.208917
	9.390000	-0.077368
	9.395000	-0.113544
	9.400000	-0.251671
	9.405000	-0.212206
	9.410000	-0.077368
	9.415000	-0.120122
	9.420000	-0.251671
	9.425000	-0.208917
	9.430000	-0.074080
	9.435000	-0.113544
	9.440000	-0.251671
	9.445000	-0.208917
	9.450000	-0.070791
	9.455000	-0.116833
	9.460000	-0.251671
	9.465000	-0.208917
	9.470000	-0.074080
	9.475000	-0.120122
	9.480000	-0.254959
	9.485000	-0.208917
	9.490000	-0.074080
	9.495000	-0.120122
	9.500000	-0.254959
	9.505000	-0.208917
	9.510000	-0.070791
	9.515000	-0.116833
	9.520000	-0.251671
	9.525000	-0.208917
	9.530000	-0.077368
	9.535000	-0.116833
	9.540000	-0.258248
	9.545000	-0.208917
	9.550000	-0.074080
	9.555000	-0.123410
	9.560000	-0.254959
	9.565000	-0.212206
	9.570000	-0.077368
	9.575000	-0.120122
	9.580000	-0.261537
	9.585000	-0.212206
	9.590000	-0.074080
	9.595000	-0.126699
	9.600000	-0.258248
	9.605000	-0.212206
	9.610000	-0.077368
	9.615000	-0.126699
	9.620000	-0.261537
	9.625000	-0.212206
	9.630000	-0.080657
	9.635000	-0.126699
	9.640000	-0.264826
	9.645000	-0.215495
	9.650000	-0.083946
	9.655000	-0.129988
	9.660000	-0.261537
	9.665000	-0.215495
	9.670000	-0.080657
	9.675000	-0.129988
	9.680000	-0.264826
	9.685000	-0.215495
	9.690000	-0.080657
	9.695000	-0.129988
	9.700000	-0.264826
	9.705000	-0.215495
	9.710000	-0.083946
	9.715000	-0.136565
	9.720000	-0.268114
	9.725000	-0.212206
	9.730000	-0.083946
	9.735000	-0.136565
	9.740000	-0.271403
	9.745000	-0.212206
	9.750000	-0.083946
	9.755000	-0.133277
	9.760000	-0.264826
	9.765000	-0.212206
	9.770000	-0.080657
	9.775000	-0.133277
	9.780000	-0.268114
	9.785000	-0.215495
	9.790000	-0.077368
	9.795000	-0.136565
	9.800000	-0.264826
	9.805000	-0.208917
	9.810000	-0.077368
	9.815000	-0.129988
	9.820000	-0.264826
	9.825000	-0.208917
	9.830000	-0.077368
	9.835000	-0.133277
	9.840000	-0.264826
	9.845000	-0.205628
	9.850000	-0.077368
	9.855000	-0.136565
	9.860000	-0.264826
	9.865000	-0.205628
	9.870000	-0.080657
	9.875000	-0.136565
	9.880000	-0.268114
	9.885000	-0.208917
	9.890000	-0.080657
	9.895000	-0.133277
	9.900000	-0.268114
	9.905000	-0.212206
	9.910000	-0.070791
	9.915000	-0.143143
	9.920000	-0.271403
	9.925000	-0.212206
	9.930000	-0.080657
	9.935000	-0.143143
	9.940000	-0.274692
	9.945000	-0.212206
	9.950000	-0.087234
	9.955000	-0.139854
	9.960000	-0.277980
	9.965000	-0.212206
	9.970000	-0.087234
	9.975000	-0.146431
	9.980000	-0.281269
	9.985000	-0.215495
	9.990000	-0.083946
	9.995000	-0.146431
	10.000000	-0.274692
	10.005000	-0.212206
	10.010000	-0.087234
	10.015000	-0.146431
	10.020000	-0.277980
	10.025000	-0.215495
	10.030000	-0.083946
	10.035000	-0.149720
	10.040000	-0.277980
	10.045000	-0.222072
	10.050000	-0.090523
	10.055000	-0.153009
	10.060000	-0.284558
	10.065000	-0.225361
	10.070000	-0.093812
	10.075000	-0.162875
	10.080000	-0.294424
	10.085000	-0.225361
	10.090000	-0.100389
	10.095000	-0.159586
	10.100000	-0.287847
	10.105000	-0.218783
	10.110000	-0.087234
	10.115000	-0.153009
	10.120000	-0.277980
	10.125000	-0.202340
	10.130000	-0.074080
	10.135000	-0.136565
	10.140000	-0.258248
	10.145000	-0.189185
	10.150000	-0.060925
	10.155000	-0.123410
	10.160000	-0.258248
	10.165000	-0.185896
	10.170000	-0.057636
	10.175000	-0.129988
	10.180000	-0.258248
	10.185000	-0.192474
	10.190000	-0.064213
	10.195000	-0.133277
	10.200000	-0.268114
	10.205000	-0.202340
	10.210000	-0.077368
	10.215000	-0.146431
	10.220000	-0.277980
	10.225000	-0.212206
	10.230000	-0.083946
	10.235000	-0.156298
	10.240000	-0.287847
	10.245000	-0.215495
	10.250000	-0.087234
	10.255000	-0.159586
	10.260000	-0.284558
	10.265000	-0.215495
	10.270000	-0.087234
	10.275000	-0.156298
	10.280000	-0.281269
	10.285000	-0.212206
	10.290000	-0.080657
	10.295000	-0.153009
	10.300000	-0.281269
	10.305000	-0.205628
	10.310000	-0.077368
	10.315000	-0.146431
	10.320000	-0.281269
	10.325000	-0.202340
	10.330000	-0.070791
	10.335000	-0.149720
	10.340000	-0.274692
	10.345000	-0.202340
	10.350000	-0.074080
	10.355000	-0.153009
	10.360000	-0.274692
	10.365000	-0.205628
	10.370000	-0.083946
	10.375000	-0.156298
	10.380000	-0.284558
	10.385000	-0.205628
	10.390000	-0.080657
	10.395000	-0.159586
	10.400000	-0.281269
	10.405000	-0.205628
	10.410000	-0.077368
	10.415000	-0.153009
	10.420000	-0.281269
	10.425000	-0.199051
	10.430000	-0.074080
	10.435000	-0.146431
	10.440000	-0.274692
	10.445000	-0.195762
	10.450000	-0.074080
	10.455000	-0.149720
	10.460000	-0.277980
	10.465000	-0.199051
	10.470000	-0.074080
	10.475000	-0.156298
	10.480000	-0.284558
	10.485000	-0.202340
	10.490000	-0.083946
	10.495000	-0.159586
	10.500000	-0.281269
	10.505000	-0.205628
	10.510000	-0.080657
	10.515000	-0.162875
	10.520000	-0.287847
	10.525000	-0.208917
	10.530000	-0.087234
	10.535000	-0.162875
	10.540000	-0.284558
	10.545000	-0.205628
	10.550000	-0.087234
	10.555000	-0.169453
	10.560000	-0.301001
	10.565000	-0.222072
	10.570000	-0.106967
	10.575000	-0.182607
	10.580000	-0.304290
	10.585000	-0.225361
	10.590000	-0.106967
	10.595000	-0.189185
	10.600000	-0.310868
	10.605000	-0.231938
	10.610000	-0.113544
	10.615000	-0.195762
	10.620000	-0.317445
	10.625000	-0.231938
	10.630000	-0.113544
	10.635000	-0.192474
	10.640000	-0.304290
	10.645000	-0.222072
	10.650000	-0.100389
	10.655000	-0.176030
	10.660000	-0.291135
	10.665000	-0.208917
	10.670000	-0.087234
	10.675000	-0.162875
	10.680000	-0.277980
	10.685000	-0.195762
	10.690000	-0.083946
	10.695000	-0.159586
	10.700000	-0.277980
	10.705000	-0.195762
	10.710000	-0.083946
	10.715000	-0.166164
	10.720000	-0.287847
	10.725000	-0.199051
	10.730000	-0.083946
	10.735000	-0.169453
	10.740000	-0.291135
	10.745000	-0.208917
	10.750000	-0.090523
	10.755000	-0.179319
	10.760000	-0.294424
	10.765000	-0.208917
	10.770000	-0.100389
	10.775000	-0.179319
	10.780000	-0.291135
	10.785000	-0.208917
	10.790000	-0.100389
	10.795000	-0.176030
	10.800000	-0.291135
	10.805000	-0.205628
	10.810000	-0.090523
	10.815000	-0.176030
	10.820000	-0.287847
	10.825000	-0.205628
	10.830000	-0.093812
	10.835000	-0.172741
	10.840000	-0.291135
	10.845000	-0.205628
	10.850000	-0.093812
	10.855000	-0.176030
	10.860000	-0.294424
	10.865000	-0.205628
	10.870000	-0.097101
	10.875000	-0.182607
	10.880000	-0.297713
	10.885000	-0.215495
	10.890000	-0.103678
	10.895000	-0.192474
	10.900000	-0.307579
	10.905000	-0.218783
	10.910000	-0.106967
	10.915000	-0.195762
	10.920000	-0.310868
	10.925000	-0.222072
	10.930000	-0.110256
	10.935000	-0.195762
	10.940000	-0.310868
	10.945000	-0.222072
	10.950000	-0.110256
	10.955000	-0.195762
	10.960000	-0.307579
	10.965000	-0.218783
	10.970000	-0.110256
	10.975000	-0.192474
	10.980000	-0.307579
	10.985000	-0.222072
	10.990000	-0.100389
	10.995000	-0.195762
	11.000000	-0.307579
	11.005000	-0.218783
	11.010000	-0.106967
	11.015000	-0.192474
	11.020000	-0.307579
	11.025000	-0.215495
	11.030000	-0.100389
	11.035000	-0.189185
	11.040000	-0.304290
	11.045000	-0.215495
	11.050000	-0.103678
	11.055000	-0.192474
	11.060000	-0.304290
	11.065000	-0.218783
	11.070000	-0.103678
	11.075000	-0.195762
	11.080000	-0.304290
	11.085000	-0.212206
	11.090000	-0.106967
	11.095000	-0.195762
	11.100000	-0.301001
	11.105000	-0.212206
	11.110000	-0.106967
	11.115000	-0.202340
	11.120000	-0.301001
	11.125000	-0.212206
	11.130000	-0.106967
	11.135000	-0.199051
	11.140000	-0.304290
	11.145000	-0.215495
	11.150000	-0.110256
	11.155000	-0.199051
	11.160000	-0.310868
	11.165000	-0.215495
	11.170000	-0.103678
	11.175000	-0.199051
	11.180000	-0.304290
	11.185000	-0.215495
	11.190000	-0.106967
	11.195000	-0.199051
	11.200000	-0.307579
	11.205000	-0.212206
	11.210000	-0.106967
	11.215000	-0.199051
	11.220000	-0.307579
	11.225000	-0.218783
	11.230000	-0.110256
	11.235000	-0.202340
	11.240000	-0.304290
	11.245000	-0.212206
	11.250000	-0.106967
	11.255000	-0.205628
	11.260000	-0.310868
	11.265000	-0.218783
	11.270000	-0.110256
	11.275000	-0.202340
	11.280000	-0.304290
	11.285000	-0.215495
	11.290000	-0.110256
	11.295000	-0.205628
	11.300000	-0.304290
	11.305000	-0.212206
	11.310000	-0.110256
	11.315000	-0.202340
	11.320000	-0.310868
	11.325000	-0.212206
	11.330000	-0.110256
	11.335000	-0.202340
	11.340000	-0.314156
	11.345000	-0.212206
	11.350000	-0.110256
	11.355000	-0.208917
	11.360000	-0.314156
	11.365000	-0.212206
	11.370000	-0.106967
	11.375000	-0.208917
	11.380000	-0.317445
	11.385000	-0.222072
	11.390000	-0.113544
	11.395000	-0.208917
	11.400000	-0.320734
	11.405000	-0.222072
	11.410000	-0.113544
	11.415000	-0.212206
	11.420000	-0.324023
	11.425000	-0.231938
	11.430000	-0.120122
	11.435000	-0.218783
	11.440000	-0.330600
	11.445000	-0.231938
	11.450000	-0.126699
	11.455000	-0.222072
	11.460000	-0.327311
	11.465000	-0.231938
	11.470000	-0.129988
	11.475000	-0.225361
	11.480000	-0.333889
	11.485000	-0.235227
	11.490000	-0.126699
	11.495000	-0.225361
	11.500000	-0.330600
	11.505000	-0.235227
	11.510000	-0.126699
	11.515000	-0.225361
	11.520000	-0.330600
	11.525000	-0.231938
	11.530000	-0.126699
	11.535000	-0.225361
	11.540000	-0.333889
	11.545000	-0.241804
	11.550000	-0.133277
	11.555000	-0.231938
	11.560000	-0.340466
	11.565000	-0.238516
	11.570000	-0.136565
	11.575000	-0.231938
	11.580000	-0.330600
	11.585000	-0.231938
	11.590000	-0.133277
	11.595000	-0.235227
	11.600000	-0.333889
	11.605000	-0.231938
	11.610000	-0.133277
	11.615000	-0.231938
	11.620000	-0.337177
	11.625000	-0.231938
	11.630000	-0.129988
	11.635000	-0.231938
	11.640000	-0.327311
	11.645000	-0.225361
	11.650000	-0.129988
	11.655000	-0.228650
	11.660000	-0.327311
	11.665000	-0.225361
	11.670000	-0.129988
	11.675000	-0.235227
	11.680000	-0.327311
	11.685000	-0.222072
	11.690000	-0.123410
	11.695000	-0.231938
	11.700000	-0.324023
	11.705000	-0.222072
	11.710000	-0.120122
	11.715000	-0.228650
	11.720000	-0.324023
	11.725000	-0.222072
	11.730000	-0.123410
	11.735000	-0.228650
	11.740000	-0.324023
	11.745000	-0.218783
	11.750000	-0.126699
	11.755000	-0.231938
	11.760000	-0.327311
	11.765000	-0.222072
	11.770000	-0.123410
	11.775000	-0.231938
	11.780000	-0.327311
	11.785000	-0.222072
	11.790000	-0.129988
	11.795000	-0.235227
	11.800000	-0.330600
	11.805000	-0.222072
	11.810000	-0.126699
	11.815000	-0.235227
	11.820000	-0.330600
	11.825000	-0.222072
	11.830000	-0.129988
	11.835000	-0.235227
	11.840000	-0.327311
	11.845000	-0.218783
	11.850000	-0.129988
	11.855000	-0.238516
	11.860000	-0.330600
	11.865000	-0.222072
	11.870000	-0.129988
	11.875000	-0.238516
	11.880000	-0.333889
	11.885000	-0.225361
	11.890000	-0.129988
	11.895000	-0.241804
	11.900000	-0.337177
	11.905000	-0.225361
	11.910000	-0.133277
	11.915000	-0.241804
	11.920000	-0.337177
	11.925000	-0.228650
	11.930000	-0.133277
	11.935000	-0.241804
	11.940000	-0.333889
	11.945000	-0.225361
	11.950000	-0.133277
	11.955000	-0.248382
	11.960000	-0.340466
	11.965000	-0.228650
	11.970000	-0.133277
	11.975000	-0.248382
	11.980000	-0.337177
	11.985000	-0.225361
	11.990000	-0.133277
	11.995000	-0.248382
	12.000000	-0.343755
	12.005000	-0.228650
	12.010000	-0.139854
	12.015000	-0.248382
	12.020000	-0.337177
	12.025000	-0.228650
	12.030000	-0.136565
	12.035000	-0.248382
	12.040000	-0.340466
	12.045000	-0.225361
	12.050000	-0.133277
	12.055000	-0.248382
	12.060000	-0.343755
	12.065000	-0.235227
	12.070000	-0.133277
	12.075000	-0.251671
	12.080000	-0.340466
	12.085000	-0.222072
	12.090000	-0.133277
	12.095000	-0.248382
	12.100000	-0.337177
	12.105000	-0.225361
	12.110000	-0.139854
	12.115000	-0.251671
	12.120000	-0.337177
	12.125000	-0.222072
	12.130000	-0.129988
	12.135000	-0.248382
	12.140000	-0.333889
	12.145000	-0.222072
	12.150000	-0.136565
	12.155000	-0.251671
	12.160000	-0.337177
	12.165000	-0.228650
	12.170000	-0.146431
	12.175000	-0.264826
	12.180000	-0.353621
	12.185000	-0.238516
	12.190000	-0.159586
	12.195000	-0.274692
	12.200000	-0.366776
	12.205000	-0.248382
	12.210000	-0.159586
	12.215000	-0.281269
	12.220000	-0.370065
	12.225000	-0.245093
	12.230000	-0.159586
	12.235000	-0.274692
	12.240000	-0.360198
	12.245000	-0.238516
	12.250000	-0.149720
	12.255000	-0.268114
	12.260000	-0.353621
	12.265000	-0.228650
	12.270000	-0.136565
	12.275000	-0.261537
	12.280000	-0.340466
	12.285000	-0.225361
	12.290000	-0.139854
	12.295000	-0.258248
	12.300000	-0.343755
	12.305000	-0.222072
	12.310000	-0.146431
	12.315000	-0.264826
	12.320000	-0.350332
	12.325000	-0.235227
	12.330000	-0.149720
	12.335000	-0.274692
	12.340000	-0.356910
	12.345000	-0.241804
	12.350000	-0.159586
	12.355000	-0.281269
	12.360000	-0.366776
	12.365000	-0.245093
	12.370000	-0.156298
	12.375000	-0.284558
	12.380000	-0.363487
	12.385000	-0.231938
	12.390000	-0.153009
	12.395000	-0.268114
	12.400000	-0.343755
	12.405000	-0.218783
	12.410000	-0.133277
	12.415000	-0.258248
	12.420000	-0.330600
	12.425000	-0.212206
	12.430000	-0.123410
	12.435000	-0.245093
	12.440000	-0.327311
	12.445000	-0.199051
	12.450000	-0.123410
	12.455000	-0.245093
	12.460000	-0.327311
	12.465000	-0.202340
	12.470000	-0.126699
	12.475000	-0.258248
	12.480000	-0.340466
	12.485000	-0.215495
	12.490000	-0.143143
	12.495000	-0.274692
	12.500000	-0.353621
	12.505000	-0.231938
	12.510000	-0.156298
	12.515000	-0.284558
	12.520000	-0.366776
	12.525000	-0.245093
	12.530000	-0.169453
	12.535000	-0.294424
	12.540000	-0.370065
	12.545000	-0.241804
	12.550000	-0.159586
	12.555000	-0.281269
	12.560000	-0.356910
	12.565000	-0.225361
	12.570000	-0.149720
	12.575000	-0.271403
	12.580000	-0.340466
	12.585000	-0.212206
	12.590000	-0.136565
	12.595000	-0.264826
	12.600000	-0.330600
	12.605000	-0.205628
	12.610000	-0.133277
	12.615000	-0.261537
	12.620000	-0.333889
	12.625000	-0.202340
	12.630000	-0.129988
	12.635000	-0.261537
	12.640000	-0.330600
	12.645000	-0.202340
	12.650000	-0.129988
	12.655000	-0.264826
	12.660000	-0.337177
	12.665000	-0.208917
	12.670000	-0.129988
	12.675000	-0.268114
	12.680000	-0.333889
	12.685000	-0.208917
	12.690000	-0.136565
	12.695000	-0.271403
	12.700000	-0.333889
	12.705000	-0.202340
	12.710000	-0.133277
	12.715000	-0.271403
	12.720000	-0.337177
	12.725000	-0.205628
	12.730000	-0.136565
	12.735000	-0.268114
	12.740000	-0.330600
	12.745000	-0.199051
	12.750000	-0.133277
	12.755000	-0.261537
	12.760000	-0.327311
	12.765000	-0.199051
	12.770000	-0.133277
	12.775000	-0.258248
	12.780000	-0.330600
	12.785000	-0.199051
	12.790000	-0.136565
	12.795000	-0.268114
	12.800000	-0.343755
	12.805000	-0.208917
	12.810000	-0.143143
	12.815000	-0.281269
	12.820000	-0.353621
	12.825000	-0.228650
	12.830000	-0.162875
	12.835000	-0.294424
	12.840000	-0.363487
	12.845000	-0.238516
	12.850000	-0.176030
	12.855000	-0.301001
	12.860000	-0.370065
	12.865000	-0.245093
	12.870000	-0.182607
	12.875000	-0.314156
	12.880000	-0.379931
	12.885000	-0.248382
	12.890000	-0.185896
	12.895000	-0.314156
	12.900000	-0.373353
	12.905000	-0.235227
	12.910000	-0.172741
	12.915000	-0.301001
	12.920000	-0.360198
	12.925000	-0.225361
	12.930000	-0.166164
	12.935000	-0.287847
	12.940000	-0.350332
	12.945000	-0.222072
	12.950000	-0.159586
	12.955000	-0.291135
	12.960000	-0.350332
	12.965000	-0.218783
	12.970000	-0.159586
	12.975000	-0.291135
	12.980000	-0.343755
	12.985000	-0.215495
	12.990000	-0.153009
	12.995000	-0.281269
	13.000000	-0.337177
	13.005000	-0.208917
	13.010000	-0.146431
	13.015000	-0.274692
	13.020000	-0.333889
	13.025000	-0.205628
	13.030000	-0.146431
	13.035000	-0.271403
	13.040000	-0.327311
	13.045000	-0.199051
	13.050000	-0.143143
	13.055000	-0.277980
	13.060000	-0.330600
	13.065000	-0.199051
	13.070000	-0.143143
	13.075000	-0.277980
	13.080000	-0.337177
	13.085000	-0.208917
	13.090000	-0.149720
	13.095000	-0.287847
	13.100000	-0.340466
	13.105000	-0.212206
	13.110000	-0.156298
	13.115000	-0.291135
	13.120000	-0.343755
	13.125000	-0.218783
	13.130000	-0.159586
	13.135000	-0.294424
	13.140000	-0.350332
	13.145000	-0.215495
	13.150000	-0.162875
	13.155000	-0.294424
	13.160000	-0.350332
	13.165000	-0.222072
	13.170000	-0.162875
	13.175000	-0.294424
	13.180000	-0.350332
	13.185000	-0.215495
	13.190000	-0.159586
	13.195000	-0.297713
	13.200000	-0.347044
	13.205000	-0.215495
	13.210000	-0.162875
	13.215000	-0.297713
	13.220000	-0.350332
	13.225000	-0.218783
	13.230000	-0.166164
	13.235000	-0.297713
	13.240000	-0.350332
	13.245000	-0.215495
	13.250000	-0.169453
	13.255000	-0.301001
	13.260000	-0.350332
	13.265000	-0.218783
	13.270000	-0.169453
	13.275000	-0.301001
	13.280000	-0.353621
	13.285000	-0.212206
	13.290000	-0.169453
	13.295000	-0.297713
	13.300000	-0.350332
	13.305000	-0.215495
	13.310000	-0.169453
	13.315000	-0.301001
	13.320000	-0.350332
	13.325000	-0.218783
	13.330000	-0.166164
	13.335000	-0.304290
	13.340000	-0.350332
	13.345000	-0.218783
	13.350000	-0.166164
	13.355000	-0.301001
	13.360000	-0.347044
	13.365000	-0.215495
	13.370000	-0.169453
	13.375000	-0.304290
	13.380000	-0.353621
	13.385000	-0.218783
	13.390000	-0.169453
	13.395000	-0.304290
	13.400000	-0.356910
	13.405000	-0.215495
	13.410000	-0.172741
	13.415000	-0.304290
	13.420000	-0.353621
	13.425000	-0.215495
	13.430000	-0.169453
	13.435000	-0.304290
	13.440000	-0.353621
	13.445000	-0.218783
	13.450000	-0.172741
	13.455000	-0.310868
	13.460000	-0.353621
	13.465000	-0.218783
	13.470000	-0.172741
	13.475000	-0.310868
	13.480000	-0.353621
	13.485000	-0.215495
	13.490000	-0.176030
	13.495000	-0.310868
	13.500000	-0.356910
	13.505000	-0.218783
	13.510000	-0.176030
	13.515000	-0.310868
	13.520000	-0.356910
	13.525000	-0.218783
	13.530000	-0.176030
	13.535000	-0.307579
	13.540000	-0.353621
	13.545000	-0.218783
	13.550000	-0.172741
	13.555000	-0.310868
	13.560000	-0.356910
	13.565000	-0.215495
	13.570000	-0.176030
	13.575000	-0.310868
	13.580000	-0.353621
	13.585000	-0.218783
	13.590000	-0.176030
	13.595000	-0.310868
	13.600000	-0.356910
	13.605000	-0.218783
	13.610000	-0.172741
	13.615000	-0.314156
	13.620000	-0.353621
	13.625000	-0.218783
	13.630000	-0.172741
	13.635000	-0.310868
	13.640000	-0.353621
	13.645000	-0.215495
	13.650000	-0.176030
	13.655000	-0.314156
	13.660000	-0.356910
	13.665000	-0.218783
	13.670000	-0.176030
	13.675000	-0.314156
	13.680000	-0.356910
	13.685000	-0.218783
	13.690000	-0.176030
	13.695000	-0.317445
	13.700000	-0.360198
	13.705000	-0.215495
	13.710000	-0.179319
	13.715000	-0.317445
	13.720000	-0.353621
	13.725000	-0.215495
	13.730000	-0.176030
	13.735000	-0.320734
	13.740000	-0.353621
	13.745000	-0.215495
	13.750000	-0.179319
	13.755000	-0.317445
	13.760000	-0.353621
	13.765000	-0.215495
	13.770000	-0.176030
	13.775000	-0.317445
	13.780000	-0.353621
	13.785000	-0.215495
	13.790000	-0.179319
	13.795000	-0.320734
	13.800000	-0.353621
	13.805000	-0.212206
	13.810000	-0.179319
	13.815000	-0.324023
	13.820000	-0.356910
	13.825000	-0.212206
	13.830000	-0.185896
	13.835000	-0.320734
	13.840000	-0.356910
	13.845000	-0.218783
	13.850000	-0.182607
	13.855000	-0.324023
	13.860000	-0.356910
	13.865000	-0.218783
	13.870000	-0.189185
	13.875000	-0.327311
	13.880000	-0.356910
	13.885000	-0.218783
	13.890000	-0.189185
	13.895000	-0.327311
	13.900000	-0.356910
	13.905000	-0.218783
	13.910000	-0.182607
	13.915000	-0.324023
	13.920000	-0.360198
	13.925000	-0.212206
	13.930000	-0.185896
	13.935000	-0.324023
	13.940000	-0.356910
	13.945000	-0.215495
	13.950000	-0.185896
	13.955000	-0.327311
	13.960000	-0.360198
	13.965000	-0.218783
	13.970000	-0.192474
	13.975000	-0.333889
	13.980000	-0.366776
	13.985000	-0.228650
	13.990000	-0.202340
	13.995000	-0.340466
	14.000000	-0.363487
	14.005000	-0.222072
	14.010000	-0.192474
	14.015000	-0.337177
	14.020000	-0.366776
	14.025000	-0.218783
	14.030000	-0.192474
	14.035000	-0.337177
	14.040000	-0.356910
	14.045000	-0.222072
	14.050000	-0.185896
	14.055000	-0.333889
	14.060000	-0.353621
	14.065000	-0.215495
	14.070000	-0.185896
	14.075000	-0.330600
	14.080000	-0.356910
	14.085000	-0.215495
	14.090000	-0.182607
	14.095000	-0.330600
	14.100000	-0.353621
	14.105000	-0.208917
	14.110000	-0.185896
	14.115000	-0.330600
	14.120000	-0.360198
	14.125000	-0.222072
	14.130000	-0.189185
	14.135000	-0.340466
	14.140000	-0.363487
	14.145000	-0.225361
	14.150000	-0.195762
	14.155000	-0.340466
	14.160000	-0.366776
	14.165000	-0.218783
	14.170000	-0.199051
	14.175000	-0.370065
	14.180000	-0.435839
	14.185000	-0.271403
	14.190000	-0.231938
	14.195000	-0.370065
	14.200000	-0.386508
	14.205000	-0.241804
	14.210000	-0.215495
	14.215000	-0.356910
	14.220000	-0.383220
	14.225000	-0.235227
	14.230000	-0.212206
	14.235000	-0.356910
	14.240000	-0.379931
	14.245000	-0.231938
	14.250000	-0.212206
	14.255000	-0.356910
	14.260000	-0.376642
	14.265000	-0.235227
	14.270000	-0.208917
	14.275000	-0.350332
	14.280000	-0.373353
	14.285000	-0.225361
	14.290000	-0.202340
	14.295000	-0.353621
	14.300000	-0.366776
	14.305000	-0.225361
	14.310000	-0.205628
	14.315000	-0.350332
	14.320000	-0.366776
	14.325000	-0.225361
	14.330000	-0.202340
	14.335000	-0.350332
	14.340000	-0.366776
	14.345000	-0.225361
	14.350000	-0.205628
	14.355000	-0.353621
	14.360000	-0.373353
	14.365000	-0.231938
	14.370000	-0.215495
	14.375000	-0.366776
	14.380000	-0.383220
	14.385000	-0.241804
	14.390000	-0.222072
	14.395000	-0.373353
	14.400000	-0.389797
	14.405000	-0.241804
	14.410000	-0.222072
	14.415000	-0.366776
	14.420000	-0.379931
	14.425000	-0.235227
	14.430000	-0.212206
	14.435000	-0.353621
	14.440000	-0.366776
	14.445000	-0.215495
	14.450000	-0.189185
	14.455000	-0.337177
	14.460000	-0.347044
	14.465000	-0.199051
	14.470000	-0.179319
	14.475000	-0.330600
	14.480000	-0.347044
	14.485000	-0.192474
	14.490000	-0.176030
	14.495000	-0.324023
	14.500000	-0.337177
	14.505000	-0.192474
	14.510000	-0.176030
	14.515000	-0.330600
	14.520000	-0.343755
	14.525000	-0.199051
	14.530000	-0.185896
	14.535000	-0.347044
	14.540000	-0.363487
	14.545000	-0.218783
	14.550000	-0.212206
	14.555000	-0.363487
	14.560000	-0.373353
	14.565000	-0.228650
	14.570000	-0.215495
	14.575000	-0.366776
	14.580000	-0.379931
	14.585000	-0.228650
	14.590000	-0.218783
	14.595000	-0.366776
	14.600000	-0.366776
	14.605000	-0.218783
	14.610000	-0.212206
	14.615000	-0.356910
	14.620000	-0.363487
	14.625000	-0.215495
	14.630000	-0.202340
	14.635000	-0.356910
	14.640000	-0.360198
	14.645000	-0.208917
	14.650000	-0.202340
	14.655000	-0.350332
	14.660000	-0.350332
	14.665000	-0.199051
	14.670000	-0.199051
	14.675000	-0.343755
	14.680000	-0.347044
	14.685000	-0.202340
	14.690000	-0.199051
	14.695000	-0.343755
	14.700000	-0.343755
	14.705000	-0.202340
	14.710000	-0.199051
	14.715000	-0.343755
	14.720000	-0.343755
	14.725000	-0.199051
	14.730000	-0.195762
	14.735000	-0.337177
	14.740000	-0.343755
	14.745000	-0.199051
	14.750000	-0.199051
	14.755000	-0.347044
	14.760000	-0.343755
	14.765000	-0.202340
	14.770000	-0.202340
	14.775000	-0.347044
	14.780000	-0.353621
	14.785000	-0.205628
	14.790000	-0.205628
	14.795000	-0.353621
	14.800000	-0.356910
	14.805000	-0.212206
	14.810000	-0.215495
	14.815000	-0.363487
	14.820000	-0.360198
	14.825000	-0.222072
	14.830000	-0.212206
	14.835000	-0.366776
	14.840000	-0.363487
	14.845000	-0.218783
	14.850000	-0.218783
	14.855000	-0.366776
	14.860000	-0.360198
	14.865000	-0.215495
	14.870000	-0.215495
	14.875000	-0.360198
	14.880000	-0.356910
	14.885000	-0.215495
	14.890000	-0.208917
	14.895000	-0.356910
	14.900000	-0.353621
	14.905000	-0.205628
	14.910000	-0.208917
	14.915000	-0.356910
	14.920000	-0.353621
	14.925000	-0.212206
	14.930000	-0.222072
	14.935000	-0.373353
	14.940000	-0.370065
	14.945000	-0.192474
	14.950000	-0.176030
	14.955000	-0.373353
	14.960000	-0.425973
	14.965000	-0.301001
	14.970000	-0.307579
	14.975000	-0.458860
	14.980000	-0.458860
	14.985000	-0.310868
	14.990000	-0.307579
	14.995000	-0.452283
	15.000000	-0.445705
	15.005000	-0.291135
	15.010000	-0.284558
	15.015000	-0.429262
	15.020000	-0.416107
	15.025000	-0.264826
	15.030000	-0.254959
	15.035000	-0.393086
	15.040000	-0.383220
	15.045000	-0.231938
	15.050000	-0.225361
	15.055000	-0.373353
	15.060000	-0.366776
	15.065000	-0.212206
	15.070000	-0.218783
	15.075000	-0.363487
	15.080000	-0.360198
	15.085000	-0.218783
	15.090000	-0.222072
	15.095000	-0.370065
	15.100000	-0.370065
	15.105000	-0.218783
	15.110000	-0.228650
	15.115000	-0.379931
	15.120000	-0.376642
	15.125000	-0.231938
	15.130000	-0.235227
	15.135000	-0.386508
	15.140000	-0.379931
	15.145000	-0.238516
	15.150000	-0.245093
	15.155000	-0.389797
	15.160000	-0.383220
	15.165000	-0.235227
	15.170000	-0.245093
	15.175000	-0.386508
	15.180000	-0.373353
	15.185000	-0.231938
	15.190000	-0.235227
	15.195000	-0.379931
	15.200000	-0.370065
	15.205000	-0.228650
	15.210000	-0.238516
	15.215000	-0.383220
	15.220000	-0.370065
	15.225000	-0.228650
	15.230000	-0.245093
	15.235000	-0.386508
	15.240000	-0.370065
	15.245000	-0.231938
	15.250000	-0.238516
	15.255000	-0.386508
	15.260000	-0.370065
	15.265000	-0.228650
	15.270000	-0.241804
	15.275000	-0.386508
	15.280000	-0.370065
	15.285000	-0.222072
	15.290000	-0.238516
	15.295000	-0.386508
	15.300000	-0.366776
	15.305000	-0.225361
	15.310000	-0.238516
	15.315000	-0.379931
	15.320000	-0.363487
	15.325000	-0.222072
	15.330000	-0.241804
	15.335000	-0.379931
	15.340000	-0.363487
	15.345000	-0.222072
	15.350000	-0.238516
	15.355000	-0.383220
	15.360000	-0.370065
	15.365000	-0.225361
	15.370000	-0.241804
	15.375000	-0.383220
	15.380000	-0.366776
	15.385000	-0.228650
	15.390000	-0.245093
	15.395000	-0.386508
	15.400000	-0.370065
	15.405000	-0.225361
	15.410000	-0.248382
	15.415000	-0.393086
	15.420000	-0.370065
	15.425000	-0.228650
	15.430000	-0.251671
	15.435000	-0.389797
	15.440000	-0.370065
	15.445000	-0.231938
	15.450000	-0.251671
	15.455000	-0.389797
	15.460000	-0.373353
	15.465000	-0.225361
	15.470000	-0.251671
	15.475000	-0.393086
	15.480000	-0.373353
	15.485000	-0.225361
	15.490000	-0.251671
	15.495000	-0.396374
	15.500000	-0.363487
	15.505000	-0.225361
	15.510000	-0.248382
	15.515000	-0.389797
	15.520000	-0.366776
	15.525000	-0.225361
	15.530000	-0.248382
	15.535000	-0.393086
	15.540000	-0.370065
	15.545000	-0.225361
	15.550000	-0.251671
	15.555000	-0.393086
	15.560000	-0.370065
	15.565000	-0.225361
	15.570000	-0.251671
	15.575000	-0.393086
	15.580000	-0.370065
	15.585000	-0.222072
	15.590000	-0.251671
	15.595000	-0.393086
	15.600000	-0.366776
	15.605000	-0.228650
	15.610000	-0.251671
	15.615000	-0.393086
	15.620000	-0.370065
	15.625000	-0.228650
	15.630000	-0.251671
	15.635000	-0.393086
	15.640000	-0.366776
	15.645000	-0.228650
	15.650000	-0.251671
	15.655000	-0.399663
	15.660000	-0.370065
	15.665000	-0.225361
	15.670000	-0.251671
	15.675000	-0.396374
	15.680000	-0.370065
	15.685000	-0.222072
	15.690000	-0.251671
	15.695000	-0.393086
	15.700000	-0.363487
	15.705000	-0.225361
	15.710000	-0.248382
	15.715000	-0.396374
	15.720000	-0.360198
	15.725000	-0.222072
	15.730000	-0.248382
	15.735000	-0.396374
	15.740000	-0.356910
	15.745000	-0.222072
	15.750000	-0.251671
	15.755000	-0.386508
	15.760000	-0.356910
	15.765000	-0.218783
	15.770000	-0.251671
	15.775000	-0.396374
	15.780000	-0.363487
	15.785000	-0.222072
	15.790000	-0.254959
	15.795000	-0.396374
	15.800000	-0.363487
	15.805000	-0.222072
	15.810000	-0.251671
	15.815000	-0.396374
	15.820000	-0.360198
	15.825000	-0.225361
	15.830000	-0.258248
	15.835000	-0.396374
	15.840000	-0.360198
	15.845000	-0.222072
	15.850000	-0.251671
	15.855000	-0.396374
	15.860000	-0.363487
	15.865000	-0.222072
	15.870000	-0.254959
	15.875000	-0.396374
	15.880000	-0.360198
	15.885000	-0.222072
	15.890000	-0.254959
	15.895000	-0.396374
	15.900000	-0.360198
	15.905000	-0.218783
	15.910000	-0.254959
	15.915000	-0.396374
	15.920000	-0.356910
	15.925000	-0.222072
	15.930000	-0.258248
	15.935000	-0.399663
	15.940000	-0.363487
	15.945000	-0.222072
	15.950000	-0.258248
	15.955000	-0.396374
	15.960000	-0.356910
	15.965000	-0.218783
	15.970000	-0.261537
	15.975000	-0.393086
	15.980000	-0.363487
	15.985000	-0.218783
	15.990000	-0.261537
	15.995000	-0.402952
	16.000000	-0.360198
	16.005000	-0.222072
	16.010000	-0.261537
	16.015000	-0.399663
	16.020000	-0.360198
	16.025000	-0.225361
	16.030000	-0.261537
	16.035000	-0.396374
	16.040000	-0.363487
	16.045000	-0.225361
	16.050000	-0.261537
	16.055000	-0.399663
	16.060000	-0.356910
	16.065000	-0.225361
	16.070000	-0.261537
	16.075000	-0.402952
	16.080000	-0.356910
	16.085000	-0.225361
	16.090000	-0.264826
	16.095000	-0.402952
	16.100000	-0.356910
	16.105000	-0.218783
	16.110000	-0.264826
	16.115000	-0.406241
	16.120000	-0.363487
	16.125000	-0.222072
	16.130000	-0.271403
	16.135000	-0.402952
	16.140000	-0.363487
	16.145000	-0.222072
	16.150000	-0.268114
	16.155000	-0.406241
	16.160000	-0.360198
	16.165000	-0.222072
	16.170000	-0.264826
	16.175000	-0.402952
	16.180000	-0.356910
	16.185000	-0.225361
	16.190000	-0.268114
	16.195000	-0.409529
	16.200000	-0.363487
	16.205000	-0.231938
	16.210000	-0.274692
	16.215000	-0.409529
	16.220000	-0.363487
	16.225000	-0.231938
	16.230000	-0.277980
	16.235000	-0.412818
	16.240000	-0.363487
	16.245000	-0.231938
	16.250000	-0.277980
	16.255000	-0.409529
	16.260000	-0.363487
	16.265000	-0.225361
	16.270000	-0.274692
	16.275000	-0.409529
	16.280000	-0.360198
	16.285000	-0.225361
	16.290000	-0.271403
	16.295000	-0.406241
	16.300000	-0.360198
	16.305000	-0.225361
	16.310000	-0.271403
	16.315000	-0.412818
	16.320000	-0.353621
	16.325000	-0.222072
	16.330000	-0.271403
	16.335000	-0.406241
	16.340000	-0.353621
	16.345000	-0.222072
	16.350000	-0.274692
	16.355000	-0.409529
	16.360000	-0.356910
	16.365000	-0.225361
	16.370000	-0.284558
	16.375000	-0.416107
	16.380000	-0.363487
	16.385000	-0.225361
	16.390000	-0.284558
	16.395000	-0.419395
	16.400000	-0.366776
	16.405000	-0.238516
	16.410000	-0.287847
	16.415000	-0.425973
	16.420000	-0.370065
	16.425000	-0.235227
	16.430000	-0.287847
	16.435000	-0.422684
	16.440000	-0.370065
	16.445000	-0.231938
	16.450000	-0.287847
	16.455000	-0.422684
	16.460000	-0.370065
	16.465000	-0.235227
	16.470000	-0.287847
	16.475000	-0.432550
	16.480000	-0.376642
	16.485000	-0.241804
	16.490000	-0.297713
	16.495000	-0.432550
	16.500000	-0.379931
	16.505000	-0.245093
	16.510000	-0.301001
	16.515000	-0.442417
	16.520000	-0.383220
	16.525000	-0.251671
	16.530000	-0.304290
	16.535000	-0.435839
	16.540000	-0.376642
	16.545000	-0.245093
	16.550000	-0.297713
	16.555000	-0.425973
	16.560000	-0.366776
	16.565000	-0.225361
	16.570000	-0.287847
	16.575000	-0.406241
	16.580000	-0.350332
	16.585000	-0.215495
	16.590000	-0.271403
	16.595000	-0.406241
	16.600000	-0.337177
	16.605000	-0.212206
	16.610000	-0.274692
	16.615000	-0.402952
	16.620000	-0.347044
	16.625000	-0.215495
	16.630000	-0.274692
	16.635000	-0.409529
	16.640000	-0.350332
	16.645000	-0.218783
	16.650000	-0.281269
	16.655000	-0.419395
	16.660000	-0.350332
	16.665000	-0.225361
	16.670000	-0.287847
	16.675000	-0.425973
	16.680000	-0.360198
	16.685000	-0.228650
	16.690000	-0.294424
	16.695000	-0.425973
	16.700000	-0.366776
	16.705000	-0.231938
	16.710000	-0.294424
	16.715000	-0.425973
	16.720000	-0.356910
	16.725000	-0.225361
	16.730000	-0.287847
	16.735000	-0.416107
	16.740000	-0.353621
	16.745000	-0.218783
	16.750000	-0.281269
	16.755000	-0.419395
	16.760000	-0.353621
	16.765000	-0.222072
	16.770000	-0.291135
	16.775000	-0.425973
	16.780000	-0.360198
	16.785000	-0.225361
	16.790000	-0.301001
	16.795000	-0.432550
	16.800000	-0.370065
	16.805000	-0.231938
	16.810000	-0.297713
	16.815000	-0.429262
	16.820000	-0.360198
	16.825000	-0.225361
	16.830000	-0.291135
	16.835000	-0.416107
	16.840000	-0.347044
	16.845000	-0.212206
	16.850000	-0.274692
	16.855000	-0.402952
	16.860000	-0.330600
	16.865000	-0.199051
	16.870000	-0.264826
	16.875000	-0.399663
	16.880000	-0.327311
	16.885000	-0.199051
	16.890000	-0.268114
	16.895000	-0.399663
	16.900000	-0.330600
	16.905000	-0.202340
	16.910000	-0.274692
	16.915000	-0.402952
	16.920000	-0.340466
	16.925000	-0.218783
	16.930000	-0.287847
	16.935000	-0.422684
	16.940000	-0.360198
	16.945000	-0.235227
	16.950000	-0.310868
	16.955000	-0.445705
	16.960000	-0.379931
	16.965000	-0.264826
	16.970000	-0.337177
	16.975000	-0.468726
	16.980000	-0.402952
	16.985000	-0.277980
	16.990000	-0.353621
	16.995000	-0.485170
	17.000000	-0.416107
	17.005000	-0.258248
	17.010000	-0.320734
	17.015000	-0.511480
	17.020000	-0.475304
	17.025000	-0.340466
	17.030000	-0.393086
	17.035000	-0.511480
	17.040000	-0.429262
	17.045000	-0.297713
	17.050000	-0.356910
	17.055000	-0.475304
	17.060000	-0.402952
	17.065000	-0.264826
	17.070000	-0.327311
	17.075000	-0.448994
	17.080000	-0.379931
	17.085000	-0.248382
	17.090000	-0.314156
	17.095000	-0.442417
	17.100000	-0.370065
	17.105000	-0.245093
	17.110000	-0.320734
	17.115000	-0.472015
	17.120000	-0.402952
	17.125000	-0.231938
	17.130000	-0.287847
	17.135000	-0.429262
	17.140000	-0.366776
	17.145000	-0.245093
	17.150000	-0.317445
	17.155000	-0.442417
	17.160000	-0.370065
	17.165000	-0.241804
	17.170000	-0.317445
	17.175000	-0.442417
	17.180000	-0.360198
	17.185000	-0.235227
	17.190000	-0.304290
	17.195000	-0.435839
	17.200000	-0.360198
	17.205000	-0.235227
	17.210000	-0.310868
	17.215000	-0.435839
	17.220000	-0.363487
	17.225000	-0.241804
	17.230000	-0.317445
	17.235000	-0.439128
	17.240000	-0.356910
	17.245000	-0.241804
	17.250000	-0.317445
	17.255000	-0.442417
	17.260000	-0.366776
	17.265000	-0.245093
	17.270000	-0.327311
	17.275000	-0.445705
	17.280000	-0.363487
	17.285000	-0.245093
	17.290000	-0.324023
	17.295000	-0.448994
	17.300000	-0.366776
	17.305000	-0.248382
	17.310000	-0.324023
	17.315000	-0.448994
	17.320000	-0.373353
	17.325000	-0.251671
	17.330000	-0.330600
	17.335000	-0.455571
	17.340000	-0.376642
	17.345000	-0.258248
	17.350000	-0.330600
	17.355000	-0.458860
	17.360000	-0.373353
	17.365000	-0.248382
	17.370000	-0.330600
	17.375000	-0.448994
	17.380000	-0.373353
	17.385000	-0.251671
	17.390000	-0.330600
	17.395000	-0.448994
	17.400000	-0.373353
	17.405000	-0.245093
	17.410000	-0.330600
	17.415000	-0.448994
	17.420000	-0.366776
	17.425000	-0.251671
	17.430000	-0.330600
	17.435000	-0.445705
	17.440000	-0.363487
	17.445000	-0.245093
	17.450000	-0.327311
	17.455000	-0.448994
	17.460000	-0.363487
	17.465000	-0.248382
	17.470000	-0.324023
	17.475000	-0.445705
	17.480000	-0.360198
	17.485000	-0.238516
	17.490000	-0.324023
	17.495000	-0.439128
	17.500000	-0.356910
	17.505000	-0.238516
	17.510000	-0.320734
	17.515000	-0.435839
	17.520000	-0.356910
	17.525000	-0.238516
	17.530000	-0.317445
	17.535000	-0.435839
	17.540000	-0.350332
	17.545000	-0.235227
	17.550000	-0.320734
	17.555000	-0.432550
	17.560000	-0.353621
	17.565000	-0.235227
	17.570000	-0.320734
	17.575000	-0.439128
	17.580000	-0.350332
	17.585000	-0.238516
	17.590000	-0.324023
	17.595000	-0.442417
	17.600000	-0.356910
	17.605000	-0.241804
	17.610000	-0.330600
	17.615000	-0.442417
	17.620000	-0.356910
	17.625000	-0.245093
	17.630000	-0.327311
	17.635000	-0.445705
	17.640000	-0.356910
	17.645000	-0.241804
	17.650000	-0.327311
	17.655000	-0.442417
	17.660000	-0.353621
	17.665000	-0.241804
	17.670000	-0.324023
	17.675000	-0.439128
	17.680000	-0.353621
	17.685000	-0.241804
	17.690000	-0.330600
	17.695000	-0.445705
	17.700000	-0.356910
	17.705000	-0.241804
	17.710000	-0.330600
	17.715000	-0.445705
	17.720000	-0.360198
	17.725000	-0.241804
	17.730000	-0.327311
	17.735000	-0.439128
	17.740000	-0.350332
	17.745000	-0.241804
	17.750000	-0.327311
	17.755000	-0.439128
	17.760000	-0.350332
	17.765000	-0.241804
	17.770000	-0.327311
	17.775000	-0.442417
	17.780000	-0.350332
	17.785000	-0.238516
	17.790000	-0.327311
	17.795000	-0.439128
	17.800000	-0.350332
	17.805000	-0.238516
	17.810000	-0.330600
	17.815000	-0.442417
	17.820000	-0.350332
	17.825000	-0.241804
	17.830000	-0.337177
	17.835000	-0.445705
	17.840000	-0.353621
	17.845000	-0.241804
	17.850000	-0.333889
	17.855000	-0.439128
	17.860000	-0.353621
	17.865000	-0.238516
	17.870000	-0.333889
	17.875000	-0.445705
	17.880000	-0.353621
	17.885000	-0.241804
	17.890000	-0.337177
	17.895000	-0.442417
	17.900000	-0.356910
	17.905000	-0.245093
	17.910000	-0.343755
	17.915000	-0.452283
	17.920000	-0.353621
	17.925000	-0.245093
	17.930000	-0.337177
	17.935000	-0.448994
	17.940000	-0.356910
	17.945000	-0.248382
	17.950000	-0.337177
	17.955000	-0.448994
	17.960000	-0.356910
	17.965000	-0.245093
	17.970000	-0.337177
	17.975000	-0.445705
	17.980000	-0.356910
	17.985000	-0.245093
	17.990000	-0.340466
	17.995000	-0.448994
	18.000000	-0.350332
	18.005000	-0.241804
	18.010000	-0.337177
	18.015000	-0.445705
	18.020000	-0.347044
	18.025000	-0.238516
	18.030000	-0.337177
	18.035000	-0.439128
	18.040000	-0.343755
	18.045000	-0.235227
	18.050000	-0.330600
	18.055000	-0.439128
	18.060000	-0.343755
	18.065000	-0.235227
	18.070000	-0.337177
	18.075000	-0.435839
	18.080000	-0.340466
	18.085000	-0.238516
	18.090000	-0.333889
	18.095000	-0.439128
	18.100000	-0.343755
	18.105000	-0.238516
	18.110000	-0.337177
	18.115000	-0.439128
	18.120000	-0.347044
	18.125000	-0.235227
	18.130000	-0.337177
	18.135000	-0.445705
	18.140000	-0.340466
	18.145000	-0.238516
	18.150000	-0.337177
	18.155000	-0.442417
	18.160000	-0.350332
	18.165000	-0.241804
	18.170000	-0.343755
	18.175000	-0.448994
	18.180000	-0.347044
	18.185000	-0.245093
	18.190000	-0.343755
	18.195000	-0.452283
	18.200000	-0.350332
	18.205000	-0.248382
	18.210000	-0.340466
	18.215000	-0.445705
	18.220000	-0.343755
	18.225000	-0.241804
	18.230000	-0.343755
	18.235000	-0.442417
	18.240000	-0.337177
	18.245000	-0.235227
	18.250000	-0.337177
	18.255000	-0.439128
	18.260000	-0.337177
	18.265000	-0.235227
	18.270000	-0.337177
	18.275000	-0.435839
	18.280000	-0.337177
	18.285000	-0.235227
	18.290000	-0.340466
	18.295000	-0.442417
	18.300000	-0.340466
	18.305000	-0.238516
	18.310000	-0.343755
	18.315000	-0.445705
	18.320000	-0.343755
	18.325000	-0.245093
	18.330000	-0.350332
	18.335000	-0.452283
	18.340000	-0.343755
	18.345000	-0.245093
	18.350000	-0.350332
	18.355000	-0.448994
	18.360000	-0.343755
	18.365000	-0.245093
	18.370000	-0.353621
	18.375000	-0.455571
	18.380000	-0.343755
	18.385000	-0.248382
	18.390000	-0.353621
	18.395000	-0.452283
	18.400000	-0.347044
	18.405000	-0.251671
	18.410000	-0.353621
	18.415000	-0.448994
	18.420000	-0.343755
	18.425000	-0.251671
	18.430000	-0.350332
	18.435000	-0.448994
	18.440000	-0.340466
	18.445000	-0.245093
	18.450000	-0.350332
	18.455000	-0.445705
	18.460000	-0.340466
	18.465000	-0.238516
	18.470000	-0.340466
	18.475000	-0.442417
	18.480000	-0.327311
	18.485000	-0.235227
	18.490000	-0.337177
	18.495000	-0.439128
	18.500000	-0.330600
	18.505000	-0.238516
	18.510000	-0.343755
	18.515000	-0.439128
	18.520000	-0.333889
	18.525000	-0.238516
	18.530000	-0.343755
	18.535000	-0.442417
	18.540000	-0.330600
	18.545000	-0.238516
	18.550000	-0.343755
	18.555000	-0.442417
	18.560000	-0.333889
	18.565000	-0.241804
	18.570000	-0.350332
	18.575000	-0.445705
	18.580000	-0.333889
	18.585000	-0.248382
	18.590000	-0.353621
	18.595000	-0.448994
	18.600000	-0.337177
	18.605000	-0.245093
	18.610000	-0.360198
	18.615000	-0.448994
	18.620000	-0.340466
	18.625000	-0.241804
	18.630000	-0.366776
	18.635000	-0.455571
	18.640000	-0.343755
	18.645000	-0.258248
	18.650000	-0.366776
	18.655000	-0.462149
	18.660000	-0.350332
	18.665000	-0.261537
	18.670000	-0.373353
	18.675000	-0.468726
	18.680000	-0.363487
	18.685000	-0.274692
	18.690000	-0.389797
	18.695000	-0.478592
	18.700000	-0.366776
	18.705000	-0.274692
	18.710000	-0.383220
	18.715000	-0.478592
	18.720000	-0.360198
	18.725000	-0.261537
	18.730000	-0.376642
	18.735000	-0.458860
	18.740000	-0.343755
	18.745000	-0.251671
	18.750000	-0.363487
	18.755000	-0.448994
	18.760000	-0.337177
	18.765000	-0.245093
	18.770000	-0.353621
	18.775000	-0.445705
	18.780000	-0.327311
	18.785000	-0.238516
	18.790000	-0.350332
	18.795000	-0.445705
	18.800000	-0.324023
	18.805000	-0.238516
	18.810000	-0.353621
	18.815000	-0.442417
	18.820000	-0.330600
	18.825000	-0.238516
	18.830000	-0.356910
	18.835000	-0.448994
	18.840000	-0.337177
	18.845000	-0.245093
	18.850000	-0.363487
	18.855000	-0.455571
	18.860000	-0.340466
	18.865000	-0.248382
	18.870000	-0.370065
	18.875000	-0.455571
	18.880000	-0.333889
	18.885000	-0.245093
	18.890000	-0.360198
	18.895000	-0.448994
	18.900000	-0.324023
	18.905000	-0.235227
	18.910000	-0.356910
	18.915000	-0.442417
	18.920000	-0.324023
	18.925000	-0.235227
	18.930000	-0.353621
	18.935000	-0.445705
	18.940000	-0.320734
	18.945000	-0.235227
	18.950000	-0.356910
	18.955000	-0.442417
	18.960000	-0.327311
	18.965000	-0.241804
	18.970000	-0.363487
	18.975000	-0.445705
	18.980000	-0.333889
	18.985000	-0.248382
	18.990000	-0.373353
	18.995000	-0.455571
	19.000000	-0.340466
	19.005000	-0.254959
	19.010000	-0.373353
	19.015000	-0.452283
	19.020000	-0.333889
	19.025000	-0.241804
	19.030000	-0.360198
	19.035000	-0.442417
	19.040000	-0.324023
	19.045000	-0.235227
	19.050000	-0.353621
	19.055000	-0.432550
	19.060000	-0.314156
	19.065000	-0.228650
	19.070000	-0.350332
	19.075000	-0.425973
	19.080000	-0.317445
	19.085000	-0.231938
	19.090000	-0.360198
	19.095000	-0.445705
	19.100000	-0.327311
	19.105000	-0.248382
	19.110000	-0.370065
	19.115000	-0.455571
	19.120000	-0.337177
	19.125000	-0.261537
	19.130000	-0.383220
	19.135000	-0.472015
	19.140000	-0.363487
	19.145000	-0.281269
	19.150000	-0.406241
	19.155000	-0.488459
	19.160000	-0.373353
	19.165000	-0.291135
	19.170000	-0.406241
	19.175000	-0.485170
	19.180000	-0.370065
	19.185000	-0.281269
	19.190000	-0.396374
	19.195000	-0.475304
	19.200000	-0.353621
	19.205000	-0.268114
	19.210000	-0.386508
	19.215000	-0.462149
	19.220000	-0.337177
	19.225000	-0.258248
	19.230000	-0.373353
	19.235000	-0.448994
	19.240000	-0.324023
	19.245000	-0.251671
	19.250000	-0.370065
	19.255000	-0.452283
	19.260000	-0.330600
	19.265000	-0.248382
	19.270000	-0.379931
	19.275000	-0.452283
	19.280000	-0.330600
	19.285000	-0.258248
	19.290000	-0.383220
	19.295000	-0.458860
	19.300000	-0.337177
	19.305000	-0.264826
	19.310000	-0.383220
	19.315000	-0.462149
	19.320000	-0.337177
	19.325000	-0.261537
	19.330000	-0.379931
	19.335000	-0.455571
	19.340000	-0.333889
	19.345000	-0.258248
	19.350000	-0.376642
	19.355000	-0.448994
	19.360000	-0.327311
	19.365000	-0.245093
	19.370000	-0.373353
	19.375000	-0.445705
	19.380000	-0.324023
	19.385000	-0.248382
	19.390000	-0.373353
	19.395000	-0.448994
	19.400000	-0.330600
	19.405000	-0.251671
	19.410000	-0.379931
	19.415000	-0.455571
	19.420000	-0.337177
	19.425000	-0.268114
	19.430000	-0.389797
	19.435000	-0.468726
	19.440000	-0.350332
	19.445000	-0.271403
	19.450000	-0.402952
	19.455000	-0.472015
	19.460000	-0.343755
	19.465000	-0.277980
	19.470000	-0.402952
	19.475000	-0.475304
	19.480000	-0.353621
	19.485000	-0.277980
	19.490000	-0.402952
	19.495000	-0.475304
	19.500000	-0.340466
	19.505000	-0.274692
	19.510000	-0.396374
	19.515000	-0.462149
	19.520000	-0.337177
	19.525000	-0.268114
	19.530000	-0.393086
	19.535000	-0.458860
	19.540000	-0.337177
	19.545000	-0.261537
	19.550000	-0.393086
	19.555000	-0.458860
	19.560000	-0.333889
	19.565000	-0.261537
	19.570000	-0.383220
	19.575000	-0.455571
	19.580000	-0.330600
	19.585000	-0.258248
	19.590000	-0.389797
	19.595000	-0.455571
	19.600000	-0.330600
	19.605000	-0.258248
	19.610000	-0.383220
	19.615000	-0.455571
	19.620000	-0.327311
	19.625000	-0.261537
	19.630000	-0.383220
	19.635000	-0.455571
	19.640000	-0.327311
	19.645000	-0.261537
	19.650000	-0.396374
	19.655000	-0.458860
	19.660000	-0.330600
	19.665000	-0.268114
	19.670000	-0.389797
	19.675000	-0.462149
	19.680000	-0.330600
	19.685000	-0.264826
	19.690000	-0.396374
	19.695000	-0.458860
	19.700000	-0.333889
	19.705000	-0.268114
	19.710000	-0.396374
	19.715000	-0.462149
	19.720000	-0.337177
	19.725000	-0.271403
	19.730000	-0.402952
	19.735000	-0.465438
	19.740000	-0.340466
	19.745000	-0.274692
	19.750000	-0.399663
	19.755000	-0.462149
	19.760000	-0.337177
	19.765000	-0.274692
	19.770000	-0.399663
	19.775000	-0.465438
	19.780000	-0.337177
	19.785000	-0.268114
	19.790000	-0.399663
	19.795000	-0.465438
	19.800000	-0.330600
	19.805000	-0.271403
	19.810000	-0.399663
	19.815000	-0.458860
	19.820000	-0.327311
	19.825000	-0.268114
	19.830000	-0.393086
	19.835000	-0.458860
	19.840000	-0.327311
	19.845000	-0.261537
	19.850000	-0.402952
	19.855000	-0.458860
	19.860000	-0.330600
	19.865000	-0.268114
	19.870000	-0.393086
	19.875000	-0.458860
	19.880000	-0.327311
	19.885000	-0.268114
	19.890000	-0.402952
	19.895000	-0.462149
	19.900000	-0.330600
	19.905000	-0.274692
	19.910000	-0.409529
	19.915000	-0.465438
	19.920000	-0.330600
	19.925000	-0.277980
	19.930000	-0.402952
	19.935000	-0.465438
	19.940000	-0.330600
	19.945000	-0.271403
	19.950000	-0.406241
	19.955000	-0.465438
	19.960000	-0.330600
	19.965000	-0.271403
	19.970000	-0.409529
	19.975000	-0.465438
	19.980000	-0.330600
	19.985000	-0.271403
	19.990000	-0.406241
	19.995000	-0.455571
	20.000000	-0.327311
	20.005000	-0.271403
	20.010000	-0.399663
	20.015000	-0.455571
	20.020000	-0.327311
	20.025000	-0.271403
	20.030000	-0.396374
	20.035000	-0.455571
	20.040000	-0.320734
	20.045000	-0.264826
	20.050000	-0.396374
	20.055000	-0.452283
	20.060000	-0.320734
	20.065000	-0.264826
	20.070000	-0.396374
	20.075000	-0.455571
	20.080000	-0.320734
	20.085000	-0.271403
	20.090000	-0.406241
	20.095000	-0.455571
	20.100000	-0.330600
	20.105000	-0.271403
	20.110000	-0.406241
	20.115000	-0.458860
	20.120000	-0.327311
	20.125000	-0.277980
	20.130000	-0.409529
	20.135000	-0.462149
	20.140000	-0.330600
	20.145000	-0.281269
	20.150000	-0.419395
	20.155000	-0.468726
	20.160000	-0.337177
	20.165000	-0.287847
	20.170000	-0.422684
	20.175000	-0.472015
	20.180000	-0.337177
	20.185000	-0.284558
	20.190000	-0.416107
	20.195000	-0.472015
	20.200000	-0.337177
	20.205000	-0.284558
	20.210000	-0.422684
	20.215000	-0.465438
	20.220000	-0.330600
	20.225000	-0.277980
	20.230000	-0.416107
	20.235000	-0.462149
	20.240000	-0.324023
	20.245000	-0.274692
	20.250000	-0.409529
	20.255000	-0.458860
	20.260000	-0.324023
	20.265000	-0.274692
	20.270000	-0.406241
	20.275000	-0.458860
	20.280000	-0.324023
	20.285000	-0.274692
	20.290000	-0.406241
	20.295000	-0.458860
	20.300000	-0.324023
	20.305000	-0.277980
	20.310000	-0.409529
	20.315000	-0.465438
	20.320000	-0.320734
	20.325000	-0.277980
	20.330000	-0.409529
	20.335000	-0.458860
	20.340000	-0.324023
	20.345000	-0.281269
	20.350000	-0.416107
	20.355000	-0.462149
	20.360000	-0.324023
	20.365000	-0.274692
	20.370000	-0.419395
	20.375000	-0.462149
	20.380000	-0.324023
	20.385000	-0.277980
	20.390000	-0.419395
	20.395000	-0.458860
	20.400000	-0.324023
	20.405000	-0.284558
	20.410000	-0.422684
	20.415000	-0.462149
	20.420000	-0.327311
	20.425000	-0.284558
	20.430000	-0.429262
	20.435000	-0.468726
	20.440000	-0.340466
	20.445000	-0.297713
	20.450000	-0.432550
	20.455000	-0.472015
	20.460000	-0.337177
	20.465000	-0.294424
	20.470000	-0.429262
	20.475000	-0.472015
	20.480000	-0.333889
	20.485000	-0.291135
	20.490000	-0.429262
	20.495000	-0.472015
	20.500000	-0.330600
	20.505000	-0.291135
	20.510000	-0.429262
	20.515000	-0.468726
	20.520000	-0.333889
	20.525000	-0.287847
	20.530000	-0.422684
	20.535000	-0.468726
	20.540000	-0.330600
	20.545000	-0.291135
	20.550000	-0.425973
	20.555000	-0.468726
	20.560000	-0.330600
	20.565000	-0.294424
	20.570000	-0.432550
	20.575000	-0.475304
	20.580000	-0.333889
	20.585000	-0.291135
	20.590000	-0.439128
	20.595000	-0.472015
	20.600000	-0.333889
	20.605000	-0.294424
	20.610000	-0.432550
	20.615000	-0.475304
	20.620000	-0.330600
	20.625000	-0.297713
	20.630000	-0.439128
	20.635000	-0.465438
	20.640000	-0.330600
	20.645000	-0.287847
	20.650000	-0.432550
	20.655000	-0.465438
	20.660000	-0.324023
	20.665000	-0.287847
	20.670000	-0.429262
	20.675000	-0.462149
	20.680000	-0.327311
	20.685000	-0.287847
	20.690000	-0.432550
	20.695000	-0.462149
	20.700000	-0.327311
	20.705000	-0.291135
	20.710000	-0.439128
	20.715000	-0.472015
	20.720000	-0.330600
	20.725000	-0.301001
	20.730000	-0.445705
	20.735000	-0.485170
	20.740000	-0.350332
	20.745000	-0.310868
	20.750000	-0.458860
	20.755000	-0.498325
	20.760000	-0.360198
	20.765000	-0.324023
	20.770000	-0.468726
	20.775000	-0.504902
	20.780000	-0.363487
	20.785000	-0.327311
	20.790000	-0.468726
	20.795000	-0.504902
	20.800000	-0.360198
	20.805000	-0.320734
	20.810000	-0.462149
	20.815000	-0.495036
	20.820000	-0.343755
	20.825000	-0.304290
	20.830000	-0.445705
	20.835000	-0.475304
	20.840000	-0.324023
	20.845000	-0.284558
	20.850000	-0.429262
	20.855000	-0.448994
	20.860000	-0.307579
	20.865000	-0.268114
	20.870000	-0.412818
	20.875000	-0.445705
	20.880000	-0.297713
	20.885000	-0.264826
	20.890000	-0.419395
	20.895000	-0.445705
	20.900000	-0.304290
	20.905000	-0.281269
	20.910000	-0.422684
	20.915000	-0.452283
	20.920000	-0.314156
	20.925000	-0.281269
	20.930000	-0.432550
	20.935000	-0.462149
	20.940000	-0.314156
	20.945000	-0.291135
	20.950000	-0.439128
	20.955000	-0.462149
	20.960000	-0.320734
	20.965000	-0.291135
	20.970000	-0.442417
	20.975000	-0.465438
	20.980000	-0.317445
	20.985000	-0.297713
	20.990000	-0.445705
	20.995000	-0.468726
	21.000000	-0.317445
	21.005000	-0.294424
	21.010000	-0.442417
	21.015000	-0.462149
	21.020000	-0.317445
	21.025000	-0.294424
	21.030000	-0.439128
	21.035000	-0.462149
	21.040000	-0.314156
	21.045000	-0.294424
	21.050000	-0.442417
	21.055000	-0.462149
	21.060000	-0.314156
	21.065000	-0.294424
	21.070000	-0.445705
	21.075000	-0.462149
	21.080000	-0.320734
	21.085000	-0.301001
	21.090000	-0.452283
	21.095000	-0.475304
	21.100000	-0.327311
	21.105000	-0.307579
	21.110000	-0.455571
	21.115000	-0.475304
	21.120000	-0.324023
	21.125000	-0.307579
	21.130000	-0.448994
	21.135000	-0.472015
	21.140000	-0.317445
	21.145000	-0.294424
	21.150000	-0.435839
	21.155000	-0.448994
	21.160000	-0.304290
	21.165000	-0.274692
	21.170000	-0.419395
	21.175000	-0.439128
	21.180000	-0.291135
	21.185000	-0.264826
	21.190000	-0.409529
	21.195000	-0.432550
	21.200000	-0.294424
	21.205000	-0.277980
	21.210000	-0.425973
	21.215000	-0.445705
	21.220000	-0.307579
	21.225000	-0.291135
	21.230000	-0.435839
	21.235000	-0.468726
	21.240000	-0.324023
	21.245000	-0.310868
	21.250000	-0.465438
	21.255000	-0.498325
	21.260000	-0.363487
	21.265000	-0.343755
	21.270000	-0.495036
	21.275000	-0.518057
	21.280000	-0.376642
	21.285000	-0.356910
	21.290000	-0.501614
	21.295000	-0.521346
	21.300000	-0.373353
	21.305000	-0.343755
	21.310000	-0.488459
	21.315000	-0.501614
	21.320000	-0.353621
	21.325000	-0.330600
	21.330000	-0.465438
	21.335000	-0.481881
	21.340000	-0.317445
	21.345000	-0.264826
	21.350000	-0.432550
	21.355000	-0.478592
	21.360000	-0.333889
	21.365000	-0.317445
	21.370000	-0.462149
	21.375000	-0.475304
	21.380000	-0.330600
	21.385000	-0.317445
	21.390000	-0.462149
	21.395000	-0.481881
	21.400000	-0.340466
	21.405000	-0.320734
	21.410000	-0.468726
	21.415000	-0.485170
	21.420000	-0.343755
	21.425000	-0.330600
	21.430000	-0.472015
	21.435000	-0.488459
	21.440000	-0.343755
	21.445000	-0.327311
	21.450000	-0.468726
	21.455000	-0.485170
	21.460000	-0.337177
	21.465000	-0.317445
	21.470000	-0.462149
	21.475000	-0.472015
	21.480000	-0.324023
	21.485000	-0.304290
	21.490000	-0.448994
	21.495000	-0.462149
	21.500000	-0.317445
	21.505000	-0.304290
	21.510000	-0.458860
	21.515000	-0.472015
	21.520000	-0.324023
	21.525000	-0.314156
	21.530000	-0.462149
	21.535000	-0.475304
	21.540000	-0.337177
	21.545000	-0.324023
	21.550000	-0.468726
	21.555000	-0.485170
	21.560000	-0.337177
	21.565000	-0.330600
	21.570000	-0.478592
	21.575000	-0.488459
	21.580000	-0.343755
	21.585000	-0.337177
	21.590000	-0.481881
	21.595000	-0.491747
	21.600000	-0.343755
	21.605000	-0.330600
	21.610000	-0.475304
	21.615000	-0.481881
	21.620000	-0.337177
	21.625000	-0.330600
	21.630000	-0.475304
	21.635000	-0.481881
	21.640000	-0.333889
	21.645000	-0.327311
	21.650000	-0.468726
	21.655000	-0.478592
	21.660000	-0.330600
	21.665000	-0.324023
	21.670000	-0.468726
	21.675000	-0.481881
	21.680000	-0.333889
	21.685000	-0.327311
	21.690000	-0.468726
	21.695000	-0.475304
	21.700000	-0.333889
	21.705000	-0.327311
	21.710000	-0.478592
	21.715000	-0.478592
	21.720000	-0.337177
	21.725000	-0.327311
	21.730000	-0.472015
	21.735000	-0.481881
	21.740000	-0.333889
	21.745000	-0.324023
	21.750000	-0.468726
	21.755000	-0.475304
	21.760000	-0.330600
	21.765000	-0.327311
	21.770000	-0.475304
	21.775000	-0.478592
	21.780000	-0.327311
	21.785000	-0.324023
	21.790000	-0.465438
	21.795000	-0.468726
	21.800000	-0.324023
	21.805000	-0.317445
	21.810000	-0.462149
	21.815000	-0.468726
	21.820000	-0.324023
	21.825000	-0.320734
	21.830000	-0.468726
	21.835000	-0.472015
	21.840000	-0.327311
	21.845000	-0.327311
	21.850000	-0.472015
	21.855000	-0.478592
	21.860000	-0.330600
	21.865000	-0.324023
	21.870000	-0.472015
	21.875000	-0.481881
	21.880000	-0.327311
	21.885000	-0.327311
	21.890000	-0.475304
	21.895000	-0.472015
	21.900000	-0.327311
	21.905000	-0.330600
	21.910000	-0.472015
	21.915000	-0.472015
	21.920000	-0.333889
	21.925000	-0.330600
	21.930000	-0.485170
	21.935000	-0.478592
	21.940000	-0.333889
	21.945000	-0.337177
	21.950000	-0.485170
	21.955000	-0.481881
	21.960000	-0.337177
	21.965000	-0.337177
	21.970000	-0.481881
	21.975000	-0.481881
	21.980000	-0.337177
	21.985000	-0.340466
	21.990000	-0.485170
	21.995000	-0.478592
	22.000000	-0.333889
	22.005000	-0.333889
	22.010000	-0.478592
	22.015000	-0.472015
	22.020000	-0.333889
	22.025000	-0.333889
	22.030000	-0.481881
	22.035000	-0.475304
	22.040000	-0.330600
	22.045000	-0.337177
	22.050000	-0.485170
	22.055000	-0.478592
	22.060000	-0.330600
	22.065000	-0.337177
	22.070000	-0.481881
	22.075000	-0.475304
	22.080000	-0.330600
	22.085000	-0.337177
	22.090000	-0.478592
	22.095000	-0.478592
	22.100000	-0.327311
	22.105000	-0.333889
	22.110000	-0.485170
	22.115000	-0.472015
	22.120000	-0.330600
	22.125000	-0.333889
	22.130000	-0.481881
	22.135000	-0.475304
	22.140000	-0.330600
	22.145000	-0.330600
	22.150000	-0.481881
	22.155000	-0.478592
	22.160000	-0.327311
	22.165000	-0.337177
	22.170000	-0.498325
	22.175000	-0.508191
	22.180000	-0.320734
	22.185000	-0.304290
	22.190000	-0.488459
	22.195000	-0.514768
	22.200000	-0.383220
	22.205000	-0.396374
	22.210000	-0.537790
	22.215000	-0.521346
	22.220000	-0.376642
	22.225000	-0.373353
	22.230000	-0.514768
	22.235000	-0.498325
	22.240000	-0.356910
	22.245000	-0.360198
	22.250000	-0.501614
	22.255000	-0.495036
	22.260000	-0.347044
	22.265000	-0.356910
	22.270000	-0.498325
	22.275000	-0.485170
	22.280000	-0.343755
	22.285000	-0.356910
	22.290000	-0.501614
	22.295000	-0.488459
	22.300000	-0.340466
	22.305000	-0.353621
	22.310000	-0.498325
	22.315000	-0.485170
	22.320000	-0.337177
	22.325000	-0.350332
	22.330000	-0.491747
	22.335000	-0.481881
	22.340000	-0.327311
	22.345000	-0.343755
	22.350000	-0.488459
	22.355000	-0.475304
	22.360000	-0.327311
	22.365000	-0.343755
	22.370000	-0.485170
	22.375000	-0.468726
	22.380000	-0.324023
	22.385000	-0.333889
	22.390000	-0.485170
	22.395000	-0.465438
	22.400000	-0.320734
	22.405000	-0.340466
	22.410000	-0.485170
	22.415000	-0.468726
	22.420000	-0.320734
	22.425000	-0.333889
	22.430000	-0.481881
	22.435000	-0.465438
	22.440000	-0.320734
	22.445000	-0.337177
	22.450000	-0.485170
	22.455000	-0.462149
	22.460000	-0.317445
	22.465000	-0.340466
	22.470000	-0.488459
	22.475000	-0.468726
	22.480000	-0.324023
	22.485000	-0.350332
	22.490000	-0.495036
	22.495000	-0.472015
	22.500000	-0.324023
	22.505000	-0.340466
	22.510000	-0.488459
	22.515000	-0.468726
	22.520000	-0.327311
	22.525000	-0.343755
	22.530000	-0.495036
	22.535000	-0.472015
	22.540000	-0.324023
	22.545000	-0.343755
	22.550000	-0.495036
	22.555000	-0.472015
	22.560000	-0.324023
	22.565000	-0.350332
	22.570000	-0.498325
	22.575000	-0.472015
	22.580000	-0.327311
	22.585000	-0.347044
	22.590000	-0.495036
	22.595000	-0.475304
	22.600000	-0.330600
	22.605000	-0.356910
	22.610000	-0.498325
	22.615000	-0.472015
	22.620000	-0.327311
	22.625000	-0.353621
	22.630000	-0.498325
	22.635000	-0.472015
	22.640000	-0.327311
	22.645000	-0.356910
	22.650000	-0.498325
	22.655000	-0.468726
	22.660000	-0.327311
	22.665000	-0.353621
	22.670000	-0.495036
	22.675000	-0.468726
	22.680000	-0.324023
	22.685000	-0.353621
	22.690000	-0.498325
	22.695000	-0.475304
	22.700000	-0.327311
	22.705000	-0.360198
	22.710000	-0.504902
	22.715000	-0.481881
	22.720000	-0.337177
	22.725000	-0.366776
	22.730000	-0.514768
	22.735000	-0.485170
	22.740000	-0.343755
	22.745000	-0.373353
	22.750000	-0.521346
	22.755000	-0.488459
	22.760000	-0.343755
	22.765000	-0.373353
	22.770000	-0.521346
	22.775000	-0.485170
	22.780000	-0.337177
	22.785000	-0.363487
	22.790000	-0.508191
	22.795000	-0.462149
	22.800000	-0.307579
	22.805000	-0.333889
	22.810000	-0.472015
	22.815000	-0.439128
	22.820000	-0.287847
	22.825000	-0.317445
	22.830000	-0.472015
	22.835000	-0.432550
	22.840000	-0.291135
	22.845000	-0.324023
	22.850000	-0.478592
	22.855000	-0.445705
	22.860000	-0.297713
	22.865000	-0.337177
	22.870000	-0.491747
	22.875000	-0.458860
	22.880000	-0.317445
	22.885000	-0.356910
	22.890000	-0.504902
	22.895000	-0.475304
	22.900000	-0.330600
	22.905000	-0.376642
	22.910000	-0.527923
	22.915000	-0.488459
	22.920000	-0.350332
	22.925000	-0.386508
	22.930000	-0.531212
	22.935000	-0.498325
	22.940000	-0.353621
	22.945000	-0.386508
	22.950000	-0.524635
	22.955000	-0.481881
	22.960000	-0.337177
	22.965000	-0.370065
	22.970000	-0.501614
	22.975000	-0.458860
	22.980000	-0.310868
	22.985000	-0.347044
	22.990000	-0.488459
	22.995000	-0.445705
	23.000000	-0.304290
	23.005000	-0.337177
	23.010000	-0.488459
	23.015000	-0.448994
	23.020000	-0.307579
	23.025000	-0.350332
	23.030000	-0.495036
	23.035000	-0.452283
	23.040000	-0.314156
	23.045000	-0.356910
	23.050000	-0.504902
	23.055000	-0.458860
	23.060000	-0.324023
	23.065000	-0.370065
	23.070000	-0.511480
	23.075000	-0.468726
	23.080000	-0.330600
	23.085000	-0.370065
	23.090000	-0.514768
	23.095000	-0.468726
	23.100000	-0.327311
	23.105000	-0.376642
	23.110000	-0.511480
	23.115000	-0.465438
	23.120000	-0.324023
	23.125000	-0.370065
	23.130000	-0.511480
	23.135000	-0.468726
	23.140000	-0.324023
	23.145000	-0.370065
	23.150000	-0.511480
	23.155000	-0.465438
	23.160000	-0.320734
	23.165000	-0.360198
	23.170000	-0.504902
	23.175000	-0.448994
	23.180000	-0.307579
	23.185000	-0.343755
	23.190000	-0.491747
	23.195000	-0.442417
	23.200000	-0.301001
	23.205000	-0.343755
	23.210000	-0.485170
	23.215000	-0.439128
	23.220000	-0.301001
	23.225000	-0.343755
	23.230000	-0.485170
	23.235000	-0.448994
	23.240000	-0.310868
	23.245000	-0.356910
	23.250000	-0.501614
	23.255000	-0.458860
	23.260000	-0.327311
	23.265000	-0.383220
	23.270000	-0.524635
	23.275000	-0.488459
	23.280000	-0.356910
	23.285000	-0.409529
	23.290000	-0.554233
	23.295000	-0.514768
	23.300000	-0.379931
	23.305000	-0.422684
	23.310000	-0.564099
	23.315000	-0.518057
	23.320000	-0.376642
	23.325000	-0.425973
	23.330000	-0.557522
	23.335000	-0.508191
	23.340000	-0.366776
	23.345000	-0.396374
	23.350000	-0.557522
	23.355000	-0.524635
	23.360000	-0.337177
	23.365000	-0.353621
	23.370000	-0.481881
	23.375000	-0.429262
	23.380000	-0.287847
	23.385000	-0.330600
	23.390000	-0.468726
	23.395000	-0.425973
	23.400000	-0.284558
	23.405000	-0.340466
	23.410000	-0.478592
	23.415000	-0.432550
	23.420000	-0.301001
	23.425000	-0.350332
	23.430000	-0.498325
	23.435000	-0.445705
	23.440000	-0.314156
	23.445000	-0.366776
	23.450000	-0.508191
	23.455000	-0.455571
	23.460000	-0.324023
	23.465000	-0.373353
	23.470000	-0.511480
	23.475000	-0.468726
	23.480000	-0.330600
	23.485000	-0.379931
	23.490000	-0.514768
	23.495000	-0.462149
	23.500000	-0.327311
	23.505000	-0.373353
	23.510000	-0.514768
	23.515000	-0.462149
	23.520000	-0.327311
	23.525000	-0.376642
	23.530000	-0.511480
	23.535000	-0.455571
	23.540000	-0.320734
	23.545000	-0.373353
	23.550000	-0.511480
	23.555000	-0.458860
	23.560000	-0.324023
	23.565000	-0.383220
	23.570000	-0.518057
	23.575000	-0.465438
	23.580000	-0.330600
	23.585000	-0.389797
	23.590000	-0.524635
	23.595000	-0.475304
	23.600000	-0.337177
	23.605000	-0.393086
	23.610000	-0.534501
	23.615000	-0.478592
	23.620000	-0.340466
	23.625000	-0.399663
	23.630000	-0.534501
	23.635000	-0.481881
	23.640000	-0.350332
	23.645000	-0.402952
	23.650000	-0.534501
	23.655000	-0.478592
	23.660000	-0.343755
	23.665000	-0.399663
	23.670000	-0.527923
	23.675000	-0.472015
	23.680000	-0.333889
	23.685000	-0.396374
	23.690000	-0.524635
	23.695000	-0.468726
	23.700000	-0.330600
	23.705000	-0.386508
	23.710000	-0.527923
	23.715000	-0.458860
	23.720000	-0.327311
	23.725000	-0.389797
	23.730000	-0.524635
	23.735000	-0.465438
	23.740000	-0.330600
	23.745000	-0.389797
	23.750000	-0.524635
	23.755000	-0.462149
	23.760000	-0.333889
	23.765000	-0.393086
	23.770000	-0.524635
	23.775000	-0.465438
	23.780000	-0.330600
	23.785000	-0.399663
	23.790000	-0.534501
	23.795000	-0.468726
	23.800000	-0.337177
	23.805000	-0.396374
	23.810000	-0.531212
	23.815000	-0.468726
	23.820000	-0.337177
	23.825000	-0.396374
	23.830000	-0.527923
	23.835000	-0.468726
	23.840000	-0.340466
	23.845000	-0.396374
	23.850000	-0.531212
	23.855000	-0.468726
	23.860000	-0.337177
	23.865000	-0.396374
	23.870000	-0.527923
	23.875000	-0.468726
	23.880000	-0.333889
	23.885000	-0.396374
	23.890000	-0.531212
	23.895000	-0.465438
	23.900000	-0.333889
	23.905000	-0.396374
	23.910000	-0.531212
	23.915000	-0.462149
	23.920000	-0.333889
	23.925000	-0.399663
	23.930000	-0.531212
	23.935000	-0.462149
	23.940000	-0.330600
	23.945000	-0.396374
	23.950000	-0.524635
	23.955000	-0.458860
	23.960000	-0.327311
	23.965000	-0.396374
	23.970000	-0.524635
	23.975000	-0.462149
	23.980000	-0.330600
	23.985000	-0.402952
	23.990000	-0.527923
	23.995000	-0.462149
	24.000000	-0.333889
	24.005000	-0.399663
	24.010000	-0.527923
	24.015000	-0.462149
	24.020000	-0.333889
	24.025000	-0.406241
	24.030000	-0.531212
	24.035000	-0.465438
	24.040000	-0.337177
	24.045000	-0.402952
	24.050000	-0.534501
	24.055000	-0.465438
	24.060000	-0.337177
	24.065000	-0.402952
	24.070000	-0.534501
	24.075000	-0.465438
	24.080000	-0.337177
	24.085000	-0.406241
	24.090000	-0.531212
	24.095000	-0.465438
	24.100000	-0.330600
	24.105000	-0.406241
	24.110000	-0.534501
	24.115000	-0.462149
	24.120000	-0.337177
	24.125000	-0.406241
	24.130000	-0.531212
	24.135000	-0.462149
	24.140000	-0.333889
	24.145000	-0.406241
	24.150000	-0.534501
	24.155000	-0.462149
	24.160000	-0.330600
	24.165000	-0.406241
	24.170000	-0.531212
	24.175000	-0.458860
	24.180000	-0.330600
	24.185000	-0.402952
	24.190000	-0.534501
	24.195000	-0.462149
	24.200000	-0.330600
	24.205000	-0.406241
	24.210000	-0.531212
	24.215000	-0.462149
	24.220000	-0.337177
	24.225000	-0.406241
	24.230000	-0.534501
	24.235000	-0.455571
	24.240000	-0.330600
	24.245000	-0.409529
	24.250000	-0.534501
	24.255000	-0.458860
	24.260000	-0.330600
	24.265000	-0.406241
	24.270000	-0.534501
	24.275000	-0.458860
	24.280000	-0.333889
	24.285000	-0.406241
	24.290000	-0.537790
	24.295000	-0.458860
	24.300000	-0.337177
	24.305000	-0.416107
	24.310000	-0.534501
	24.315000	-0.462149
	24.320000	-0.333889
	24.325000	-0.416107
	24.330000	-0.534501
	24.335000	-0.458860
	24.340000	-0.337177
	24.345000	-0.409529
	24.350000	-0.541078
	24.355000	-0.462149
	24.360000	-0.337177
	24.365000	-0.412818
	24.370000	-0.541078
	24.375000	-0.458860
	24.380000	-0.337177
	24.385000	-0.412818
	24.390000	-0.544367
	24.395000	-0.462149
	24.400000	-0.337177
	24.405000	-0.419395
	24.410000	-0.541078
	24.415000	-0.462149
	24.420000	-0.340466
	24.425000	-0.419395
	24.430000	-0.541078
	24.435000	-0.462149
	24.440000	-0.337177
	24.445000	-0.419395
	24.450000	-0.537790
	24.455000	-0.458860
	24.460000	-0.340466
	24.465000	-0.419395
	24.470000	-0.544367
	24.475000	-0.458860
	24.480000	-0.340466
	24.485000	-0.419395
	24.490000	-0.544367
	24.495000	-0.458860
	24.500000	-0.340466
	24.505000	-0.419395
	24.510000	-0.541078
	24.515000	-0.458860
	24.520000	-0.340466
	24.525000	-0.419395
	24.530000	-0.544367
	24.535000	-0.455571
	24.540000	-0.347044
	24.545000	-0.425973
	24.550000	-0.544367
	24.555000	-0.465438
	24.560000	-0.340466
	24.565000	-0.429262
	24.570000	-0.541078
	24.575000	-0.462149
	24.580000	-0.343755
	24.585000	-0.425973
	24.590000	-0.547656
	24.595000	-0.462149
	24.600000	-0.340466
	24.605000	-0.422684
	24.610000	-0.547656
	24.615000	-0.462149
	24.620000	-0.337177
	24.625000	-0.429262
	24.630000	-0.544367
	24.635000	-0.458860
	24.640000	-0.337177
	24.645000	-0.429262
	24.650000	-0.541078
	24.655000	-0.458860
	24.660000	-0.333889
	24.665000	-0.419395
	24.670000	-0.544367
	24.675000	-0.452283
	24.680000	-0.333889
	24.685000	-0.422684
	24.690000	-0.544367
	24.695000	-0.455571
	24.700000	-0.337177
	24.705000	-0.429262
	24.710000	-0.544367
	24.715000	-0.448994
	24.720000	-0.330600
	24.725000	-0.419395
	24.730000	-0.547656
	24.735000	-0.468726
	24.740000	-0.340466
	24.745000	-0.429262
	24.750000	-0.567388
	24.755000	-0.478592
	24.760000	-0.317445
	24.765000	-0.402952
	24.770000	-0.557522
	24.775000	-0.495036
	24.780000	-0.376642
	24.785000	-0.468726
	24.790000	-0.577254
	24.795000	-0.481881
	24.800000	-0.370065
	24.805000	-0.452283
	24.810000	-0.564099
	24.815000	-0.475304
	24.820000	-0.363487
	24.825000	-0.455571
	24.830000	-0.560811
	24.835000	-0.472015
	24.840000	-0.360198
	24.845000	-0.445705
	24.850000	-0.564099
	24.855000	-0.468726
	24.860000	-0.360198
	24.865000	-0.448994
	24.870000	-0.560811
	24.875000	-0.465438
	24.880000	-0.353621
	24.885000	-0.445705
	24.890000	-0.557522
	24.895000	-0.458860
	24.900000	-0.347044
	24.905000	-0.442417
	24.910000	-0.547656
	24.915000	-0.458860
	24.920000	-0.343755
	24.925000	-0.435839
	24.930000	-0.547656
	24.935000	-0.455571
	24.940000	-0.340466
	24.945000	-0.435839
	24.950000	-0.550944
	24.955000	-0.448994
	24.960000	-0.340466
	24.965000	-0.435839
	24.970000	-0.547656
	24.975000	-0.448994
	24.980000	-0.337177
	24.985000	-0.435839
	24.990000	-0.550944
	24.995000	-0.452283
	25.000000	-0.337177
	25.005000	-0.439128
	25.010000	-0.550944
	25.015000	-0.448994
	25.020000	-0.333889
	25.025000	-0.435839
	25.030000	-0.547656
	25.035000	-0.442417
	25.040000	-0.333889
	25.045000	-0.432550
	25.050000	-0.547656
	25.055000	-0.439128
	25.060000	-0.330600
	25.065000	-0.435839
	25.070000	-0.544367
	25.075000	-0.442417
	25.080000	-0.333889
	25.085000	-0.439128
	25.090000	-0.541078
	25.095000	-0.442417
	25.100000	-0.333889
	25.105000	-0.439128
	25.110000	-0.544367
	25.115000	-0.445705
	25.120000	-0.333889
	25.125000	-0.439128
	25.130000	-0.544367
	25.135000	-0.442417
	25.140000	-0.337177
	25.145000	-0.435839
	25.150000	-0.541078
	25.155000	-0.439128
	25.160000	-0.330600
	25.165000	-0.432550
	25.170000	-0.537790
	25.175000	-0.435839
	25.180000	-0.330600
	25.185000	-0.429262
	25.190000	-0.537790
	25.195000	-0.429262
	25.200000	-0.327311
	25.205000	-0.432550
	25.210000	-0.534501
	25.215000	-0.429262
	25.220000	-0.324023
	25.225000	-0.429262
	25.230000	-0.524635
	25.235000	-0.422684
	25.240000	-0.310868
	25.245000	-0.416107
	25.250000	-0.511480
	25.255000	-0.406241
	25.260000	-0.294424
	25.265000	-0.399663
	25.270000	-0.504902
	25.275000	-0.399663
	25.280000	-0.297713
	25.285000	-0.402952
	25.290000	-0.508191
	25.295000	-0.406241
	25.300000	-0.307579
	25.305000	-0.412818
	25.310000	-0.514768
	25.315000	-0.416107
	25.320000	-0.314156
	25.325000	-0.422684
	25.330000	-0.534501
	25.335000	-0.429262
	25.340000	-0.340466
	25.345000	-0.452283
	25.350000	-0.560811
	25.355000	-0.465438
	25.360000	-0.366776
	25.365000	-0.478592
	25.370000	-0.580543
	25.375000	-0.478592
	25.380000	-0.379931
	25.385000	-0.485170
	25.390000	-0.587120
	25.395000	-0.481881
	25.400000	-0.376642
	25.405000	-0.478592
	25.410000	-0.570677
	25.415000	-0.455571
	25.420000	-0.337177
	25.425000	-0.425973
	25.430000	-0.521346
	25.435000	-0.406241
	25.440000	-0.284558
	25.445000	-0.406241
	25.450000	-0.567388
	25.455000	-0.448994
	25.460000	-0.317445
	25.465000	-0.402952
	25.470000	-0.491747
	25.475000	-0.383220
	25.480000	-0.281269
	25.485000	-0.389797
	25.490000	-0.495036
	25.495000	-0.393086
	25.500000	-0.301001
	25.505000	-0.412818
	25.510000	-0.518057
	25.515000	-0.409529
	25.520000	-0.320734
	25.525000	-0.435839
	25.530000	-0.541078
	25.535000	-0.435839
	25.540000	-0.340466
	25.545000	-0.448994
	25.550000	-0.550944
	25.555000	-0.445705
	25.560000	-0.343755
	25.565000	-0.455571
	25.570000	-0.554233
	25.575000	-0.442417
	25.580000	-0.343755
	25.585000	-0.455571
	25.590000	-0.547656
	25.595000	-0.439128
	25.600000	-0.340466
	25.605000	-0.448994
	25.610000	-0.541078
	25.615000	-0.432550
	25.620000	-0.330600
	25.625000	-0.439128
	25.630000	-0.537790
	25.635000	-0.425973
	25.640000	-0.330600
	25.645000	-0.442417
	25.650000	-0.537790
	25.655000	-0.432550
	25.660000	-0.337177
	25.665000	-0.448994
	25.670000	-0.554233
	25.675000	-0.442417
	25.680000	-0.350332
	25.685000	-0.462149
	25.690000	-0.596987
	25.695000	-0.485170
	25.700000	-0.340466
	25.705000	-0.462149
	25.710000	-0.596987
	25.715000	-0.511480
	25.720000	-0.422684
	25.725000	-0.534501
	25.730000	-0.626585
	25.735000	-0.511480
	25.740000	-0.409529
	25.745000	-0.514768
	25.750000	-0.603564
	25.755000	-0.485170
	25.760000	-0.386508
	25.765000	-0.491747
	25.770000	-0.583832
	25.775000	-0.468726
	25.780000	-0.373353
	25.785000	-0.481881
	25.790000	-0.567388
	25.795000	-0.455571
	25.800000	-0.360198
	25.805000	-0.472015
	25.810000	-0.567388
	25.815000	-0.452283
	25.820000	-0.356910
	25.825000	-0.472015
	25.830000	-0.557522
	25.835000	-0.445705
	25.840000	-0.356910
	25.845000	-0.465438
	25.850000	-0.554233
	25.855000	-0.442417
	25.860000	-0.356910
	25.865000	-0.472015
	25.870000	-0.557522
	25.875000	-0.442417
	25.880000	-0.350332
	25.885000	-0.465438
	25.890000	-0.557522
	25.895000	-0.439128
	25.900000	-0.350332
	25.905000	-0.465438
	25.910000	-0.554233
	25.915000	-0.439128
	25.920000	-0.350332
	25.925000	-0.465438
	25.930000	-0.550944
	25.935000	-0.435839
	25.940000	-0.347044
	25.945000	-0.462149
	25.950000	-0.547656
	25.955000	-0.432550
	25.960000	-0.347044
	25.965000	-0.462149
	25.970000	-0.547656
	25.975000	-0.429262
	25.980000	-0.350332
	25.985000	-0.462149
	25.990000	-0.541078
	25.995000	-0.429262
	26.000000	-0.343755
	26.005000	-0.462149
	26.010000	-0.547656
	26.015000	-0.429262
	26.020000	-0.347044
	26.025000	-0.458860
	26.030000	-0.544367
	26.035000	-0.429262
	26.040000	-0.347044
	26.045000	-0.462149
	26.050000	-0.544367
	26.055000	-0.429262
	26.060000	-0.340466
	26.065000	-0.462149
	26.070000	-0.544367
	26.075000	-0.429262
	26.080000	-0.340466
	26.085000	-0.462149
	26.090000	-0.541078
	26.095000	-0.422684
	26.100000	-0.343755
	26.105000	-0.462149
	26.110000	-0.544367
	26.115000	-0.425973
	26.120000	-0.343755
	26.125000	-0.465438
	26.130000	-0.547656
	26.135000	-0.425973
	26.140000	-0.343755
	26.145000	-0.468726
	26.150000	-0.547656
	26.155000	-0.432550
	26.160000	-0.347044
	26.165000	-0.472015
	26.170000	-0.547656
	26.175000	-0.429262
	26.180000	-0.353621
	26.185000	-0.472015
	26.190000	-0.547656
	26.195000	-0.429262
	26.200000	-0.350332
	26.205000	-0.472015
	26.210000	-0.547656
	26.215000	-0.422684
	26.220000	-0.350332
	26.225000	-0.468726
	26.230000	-0.544367
	26.235000	-0.425973
	26.240000	-0.350332
	26.245000	-0.468726
	26.250000	-0.541078
	26.255000	-0.422684
	26.260000	-0.347044
	26.265000	-0.465438
	26.270000	-0.541078
	26.275000	-0.416107
	26.280000	-0.347044
	26.285000	-0.468726
	26.290000	-0.541078
	26.295000	-0.419395
	26.300000	-0.340466
	26.305000	-0.468726
	26.310000	-0.541078
	26.315000	-0.419395
	26.320000	-0.343755
	26.325000	-0.465438
	26.330000	-0.537790
	26.335000	-0.416107
	26.340000	-0.343755
	26.345000	-0.468726
	26.350000	-0.537790
	26.355000	-0.416107
	26.360000	-0.340466
	26.365000	-0.468726
	26.370000	-0.537790
	26.375000	-0.416107
	26.380000	-0.343755
	26.385000	-0.468726
	26.390000	-0.541078
	26.395000	-0.416107
	26.400000	-0.343755
	26.405000	-0.472015
	26.410000	-0.541078
	26.415000	-0.419395
	26.420000	-0.347044
	26.425000	-0.472015
	26.430000	-0.544367
	26.435000	-0.422684
	26.440000	-0.350332
	26.445000	-0.472015
	26.450000	-0.544367
	26.455000	-0.419395
	26.460000	-0.350332
	26.465000	-0.472015
	26.470000	-0.541078
	26.475000	-0.419395
	26.480000	-0.347044
	26.485000	-0.472015
	26.490000	-0.544367
	26.495000	-0.416107
	26.500000	-0.347044
	26.505000	-0.475304
	26.510000	-0.537790
	26.515000	-0.416107
	26.520000	-0.343755
	26.525000	-0.475304
	26.530000	-0.537790
	26.535000	-0.416107
	26.540000	-0.343755
	26.545000	-0.475304
	26.550000	-0.537790
	26.555000	-0.409529
	26.560000	-0.343755
	26.565000	-0.472015
	26.570000	-0.537790
	26.575000	-0.409529
	26.580000	-0.350332
	26.585000	-0.475304
	26.590000	-0.541078
	26.595000	-0.409529
	26.600000	-0.350332
	26.605000	-0.475304
	26.610000	-0.537790
	26.615000	-0.416107
	26.620000	-0.347044
	26.625000	-0.475304
	26.630000	-0.537790
	26.635000	-0.409529
	26.640000	-0.343755
	26.645000	-0.472015
	26.650000	-0.537790
	26.655000	-0.406241
	26.660000	-0.347044
	26.665000	-0.472015
	26.670000	-0.534501
	26.675000	-0.406241
	26.680000	-0.340466
	26.685000	-0.472015
	26.690000	-0.534501
	26.695000	-0.402952
	26.700000	-0.340466
	26.705000	-0.468726
	26.710000	-0.531212
	26.715000	-0.402952
	26.720000	-0.337177
	26.725000	-0.472015
	26.730000	-0.534501
	26.735000	-0.406241
	26.740000	-0.343755
	26.745000	-0.468726
	26.750000	-0.534501
	26.755000	-0.406241
	26.760000	-0.343755
	26.765000	-0.475304
	26.770000	-0.537790
	26.775000	-0.406241
	26.780000	-0.350332
	26.785000	-0.478592
	26.790000	-0.537790
	26.795000	-0.406241
	26.800000	-0.353621
	26.805000	-0.478592
	26.810000	-0.537790
	26.815000	-0.406241
	26.820000	-0.350332
	26.825000	-0.478592
	26.830000	-0.537790
	26.835000	-0.406241
	26.840000	-0.347044
	26.845000	-0.475304
	26.850000	-0.534501
	26.855000	-0.402952
	26.860000	-0.343755
	26.865000	-0.472015
	26.870000	-0.531212
	26.875000	-0.402952
	26.880000	-0.350332
	26.885000	-0.475304
	26.890000	-0.537790
	26.895000	-0.402952
	26.900000	-0.343755
	26.905000	-0.478592
	26.910000	-0.534501
	26.915000	-0.402952
	26.920000	-0.340466
	26.925000	-0.481881
	26.930000	-0.534501
	26.935000	-0.402952
	26.940000	-0.343755
	26.945000	-0.478592
	26.950000	-0.541078
	26.955000	-0.406241
	26.960000	-0.356910
	26.965000	-0.481881
	26.970000	-0.537790
	26.975000	-0.406241
	26.980000	-0.356910
	26.985000	-0.488459
	26.990000	-0.544367
	26.995000	-0.409529
	27.000000	-0.353621
	27.005000	-0.481881
	27.010000	-0.537790
	27.015000	-0.406241
	27.020000	-0.356910
	27.025000	-0.481881
	27.030000	-0.537790
	27.035000	-0.409529
	27.040000	-0.353621
	27.045000	-0.485170
	27.050000	-0.537790
	27.055000	-0.406241
	27.060000	-0.353621
	27.065000	-0.488459
	27.070000	-0.541078
	27.075000	-0.409529
	27.080000	-0.356910
	27.085000	-0.495036
	27.090000	-0.547656
	27.095000	-0.412818
	27.100000	-0.366776
	27.105000	-0.501614
	27.110000	-0.550944
	27.115000	-0.412818
	27.120000	-0.363487
	27.125000	-0.501614
	27.130000	-0.547656
	27.135000	-0.409529
	27.140000	-0.363487
	27.145000	-0.491747
	27.150000	-0.544367
	27.155000	-0.399663
	27.160000	-0.343755
	27.165000	-0.485170
	27.170000	-0.527923
	27.175000	-0.389797
	27.180000	-0.330600
	27.185000	-0.468726
	27.190000	-0.518057
	27.195000	-0.383220
	27.200000	-0.333889
	27.205000	-0.475304
	27.210000	-0.524635
	27.215000	-0.389797
	27.220000	-0.343755
	27.225000	-0.491747
	27.230000	-0.544367
	27.235000	-0.409529
	27.240000	-0.363487
	27.245000	-0.504902
	27.250000	-0.554233
	27.255000	-0.416107
	27.260000	-0.366776
	27.265000	-0.511480
	27.270000	-0.554233
	27.275000	-0.416107
	27.280000	-0.366776
	27.285000	-0.504902
	27.290000	-0.547656
	27.295000	-0.402952
	27.300000	-0.353621
	27.305000	-0.495036
	27.310000	-0.537790
	27.315000	-0.396374
	27.320000	-0.350332
	27.325000	-0.485170
	27.330000	-0.527923
	27.335000	-0.386508
	27.340000	-0.337177
	27.345000	-0.478592
	27.350000	-0.518057
	27.355000	-0.383220
	27.360000	-0.333889
	27.365000	-0.485170
	27.370000	-0.541078
	27.375000	-0.396374
	27.380000	-0.360198
	27.385000	-0.501614
	27.390000	-0.544367
	27.395000	-0.406241
	27.400000	-0.370065
	27.405000	-0.508191
	27.410000	-0.554233
	27.415000	-0.409529
	27.420000	-0.370065
	27.425000	-0.514768
	27.430000	-0.554233
	27.435000	-0.416107
	27.440000	-0.373353
	27.445000	-0.518057
	27.450000	-0.560811
	27.455000	-0.416107
	27.460000	-0.370065
	27.465000	-0.511480
	27.470000	-0.550944
	27.475000	-0.412818
	27.480000	-0.366776
	27.485000	-0.495036
	27.490000	-0.541078
	27.495000	-0.396374
	27.500000	-0.350332
	27.505000	-0.495036
	27.510000	-0.527923
	27.515000	-0.389797
	27.520000	-0.343755
	27.525000	-0.485170
	27.530000	-0.527923
	27.535000	-0.386508
	27.540000	-0.353621
	27.545000	-0.495036
	27.550000	-0.541078
	27.555000	-0.402952
	27.560000	-0.366776
	27.565000	-0.508191
	27.570000	-0.554233
	27.575000	-0.416107
	27.580000	-0.383220
	27.585000	-0.527923
	27.590000	-0.570677
	27.595000	-0.435839
	27.600000	-0.399663
	27.605000	-0.541078
	27.610000	-0.573965
	27.615000	-0.435839
	27.620000	-0.396374
	27.625000	-0.534501
	27.630000	-0.567388
	27.635000	-0.429262
	27.640000	-0.393086
	27.645000	-0.527923
	27.650000	-0.557522
	27.655000	-0.416107
	27.660000	-0.373353
	27.665000	-0.511480
	27.670000	-0.544367
	27.675000	-0.406241
	27.680000	-0.366776
	27.685000	-0.504902
	27.690000	-0.537790
	27.695000	-0.396374
	27.700000	-0.363487
	27.705000	-0.501614
	27.710000	-0.541078
	27.715000	-0.396374
	27.720000	-0.363487
	27.725000	-0.504902
	27.730000	-0.547656
	27.735000	-0.406241
	27.740000	-0.373353
	27.745000	-0.511480
	27.750000	-0.550944
	27.755000	-0.409529
	27.760000	-0.373353
	27.765000	-0.514768
	27.770000	-0.547656
	27.775000	-0.409529
	27.780000	-0.376642
	27.785000	-0.518057
	27.790000	-0.544367
	27.795000	-0.409529
	27.800000	-0.373353
	27.805000	-0.508191
	27.810000	-0.547656
	27.815000	-0.402952
	27.820000	-0.366776
	27.825000	-0.508191
	27.830000	-0.537790
	27.835000	-0.399663
	27.840000	-0.366776
	27.845000	-0.511480
	27.850000	-0.537790
	27.855000	-0.396374
	27.860000	-0.366776
	27.865000	-0.504902
	27.870000	-0.541078
	27.875000	-0.402952
	27.880000	-0.373353
	27.885000	-0.511480
	27.890000	-0.541078
	27.895000	-0.406241
	27.900000	-0.376642
	27.905000	-0.518057
	27.910000	-0.547656
	27.915000	-0.406241
	27.920000	-0.379931
	27.925000	-0.518057
	27.930000	-0.544367
	27.935000	-0.406241
	27.940000	-0.376642
	27.945000	-0.521346
	27.950000	-0.550944
	27.955000	-0.402952
	27.960000	-0.379931
	27.965000	-0.524635
	27.970000	-0.550944
	27.975000	-0.412818
	27.980000	-0.376642
	27.985000	-0.518057
	27.990000	-0.550944
	27.995000	-0.406241
	28.000000	-0.376642
	28.005000	-0.514768
	28.010000	-0.547656
	28.015000	-0.406241
	28.020000	-0.376642
	28.025000	-0.518057
	28.030000	-0.550944
	28.035000	-0.406241
	28.040000	-0.370065
	28.045000	-0.518057
	28.050000	-0.580543
	28.055000	-0.406241
	28.060000	-0.340466
	28.065000	-0.518057
	28.070000	-0.590409
	28.075000	-0.465438
	28.080000	-0.448994
	28.085000	-0.593698
	28.090000	-0.613430
	28.095000	-0.462149
	28.100000	-0.432550
	28.105000	-0.567388
	28.110000	-0.590409
	28.115000	-0.445705
	28.120000	-0.409529
	28.125000	-0.544367
	28.130000	-0.573965
	28.135000	-0.425973
	28.140000	-0.399663
	28.145000	-0.537790
	28.150000	-0.560811
	28.155000	-0.419395
	28.160000	-0.393086
	28.165000	-0.534501
	28.170000	-0.557522
	28.175000	-0.419395
	28.180000	-0.393086
	28.185000	-0.534501
	28.190000	-0.557522
	28.195000	-0.409529
	28.200000	-0.393086
	28.205000	-0.537790
	28.210000	-0.557522
	28.215000	-0.416107
	28.220000	-0.393086
	28.225000	-0.531212
	28.230000	-0.560811
	28.235000	-0.412818
	28.240000	-0.389797
	28.245000	-0.534501
	28.250000	-0.554233
	28.255000	-0.412818
	28.260000	-0.389797
	28.265000	-0.531212
	28.270000	-0.554233
	28.275000	-0.412818
	28.280000	-0.383220
	28.285000	-0.531212
	28.290000	-0.550944
	28.295000	-0.406241
	28.300000	-0.389797
	28.305000	-0.531212
	28.310000	-0.550944
	28.315000	-0.412818
	28.320000	-0.386508
	28.325000	-0.531212
	28.330000	-0.547656
	28.335000	-0.406241
	28.340000	-0.386508
	28.345000	-0.524635
	28.350000	-0.547656
	28.355000	-0.406241
	28.360000	-0.386508
	28.365000	-0.531212
	28.370000	-0.550944
	28.375000	-0.406241
	28.380000	-0.383220
	28.385000	-0.531212
	28.390000	-0.550944
	28.395000	-0.406241
	28.400000	-0.383220
	28.405000	-0.531212
	28.410000	-0.547656
	28.415000	-0.406241
	28.420000	-0.386508
	28.425000	-0.534501
	28.430000	-0.550944
	28.435000	-0.406241
	28.440000	-0.389797
	28.445000	-0.534501
	28.450000	-0.550944
	28.455000	-0.402952
	28.460000	-0.386508
	28.465000	-0.531212
	28.470000	-0.544367
	28.475000	-0.406241
	28.480000	-0.386508
	28.485000	-0.534501
	28.490000	-0.550944
	28.495000	-0.402952
	28.500000	-0.389797
	28.505000	-0.531212
	28.510000	-0.550944
	28.515000	-0.406241
	28.520000	-0.386508
	28.525000	-0.541078
	28.530000	-0.550944
	28.535000	-0.402952
	28.540000	-0.389797
	28.545000	-0.544367
	28.550000	-0.550944
	28.555000	-0.406241
	28.560000	-0.389797
	28.565000	-0.541078
	28.570000	-0.547656
	28.575000	-0.406241
	28.580000	-0.389797
	28.585000	-0.531212
	28.590000	-0.550944
	28.595000	-0.402952
	28.600000	-0.386508
	28.605000	-0.534501
	28.610000	-0.547656
	28.615000	-0.406241
	28.620000	-0.389797
	28.625000	-0.534501
	28.630000	-0.544367
	28.635000	-0.393086
	28.640000	-0.379931
	28.645000	-0.550944
	28.650000	-0.593698
	28.655000	-0.419395
	28.660000	-0.370065
	28.665000	-0.547656
	28.670000	-0.596987
	28.675000	-0.465438
	28.680000	-0.468726
	28.685000	-0.610141
	28.690000	-0.613430
	28.695000	-0.465438
	28.700000	-0.455571
	28.705000	-0.587120
	28.710000	-0.593698
	28.715000	-0.448994
	28.720000	-0.432550
	28.725000	-0.577254
	28.730000	-0.577254
	28.735000	-0.429262
	28.740000	-0.416107
	28.745000	-0.560811
	28.750000	-0.560811
	28.755000	-0.419395
	28.760000	-0.409529
	28.765000	-0.554233
	28.770000	-0.560811
	28.775000	-0.409529
	28.780000	-0.406241
	28.785000	-0.550944
	28.790000	-0.554233
	28.795000	-0.409529
	28.800000	-0.399663
	28.805000	-0.547656
	28.810000	-0.550944
	28.815000	-0.402952
	28.820000	-0.399663
	28.825000	-0.544367
	28.830000	-0.550944
	28.835000	-0.406241
	28.840000	-0.393086
	28.845000	-0.544367
	28.850000	-0.547656
	28.855000	-0.402952
	28.860000	-0.399663
	28.865000	-0.541078
	28.870000	-0.547656
	28.875000	-0.399663
	28.880000	-0.399663
	28.885000	-0.541078
	28.890000	-0.544367
	28.895000	-0.399663
	28.900000	-0.396374
	28.905000	-0.544367
	28.910000	-0.544367
	28.915000	-0.399663
	28.920000	-0.399663
	28.925000	-0.547656
	28.930000	-0.547656
	28.935000	-0.399663
	28.940000	-0.399663
	28.945000	-0.547656
	28.950000	-0.550944
	28.955000	-0.406241
	28.960000	-0.406241
	28.965000	-0.554233
	28.970000	-0.550944
	28.975000	-0.409529
	28.980000	-0.402952
	28.985000	-0.550944
	28.990000	-0.547656
	28.995000	-0.402952
	29.000000	-0.402952
	29.005000	-0.550944
	29.010000	-0.550944
	29.015000	-0.399663
	29.020000	-0.402952
	29.025000	-0.550944
	29.030000	-0.547656
	29.035000	-0.402952
	29.040000	-0.402952
	29.045000	-0.547656
	29.050000	-0.547656
	29.055000	-0.393086
	29.060000	-0.396374
	29.065000	-0.544367
	29.070000	-0.537790
	29.075000	-0.393086
	29.080000	-0.396374
	29.085000	-0.544367
	29.090000	-0.541078
	29.095000	-0.393086
	29.100000	-0.399663
	29.105000	-0.547656
	29.110000	-0.544367
	29.115000	-0.396374
	29.120000	-0.406241
	29.125000	-0.547656
	29.130000	-0.550944
	29.135000	-0.399663
	29.140000	-0.406241
	29.145000	-0.554233
	29.150000	-0.550944
	29.155000	-0.402952
	29.160000	-0.409529
	29.165000	-0.554233
	29.170000	-0.541078
	29.175000	-0.396374
	29.180000	-0.406241
	29.185000	-0.547656
	29.190000	-0.537790
	29.195000	-0.389797
	29.200000	-0.402952
	29.205000	-0.547656
	29.210000	-0.537790
	29.215000	-0.393086
	29.220000	-0.402952
	29.225000	-0.550944
	29.230000	-0.537790
	29.235000	-0.393086
	29.240000	-0.402952
	29.245000	-0.550944
	29.250000	-0.534501
	29.255000	-0.393086
	29.260000	-0.406241
	29.265000	-0.547656
	29.270000	-0.534501
	29.275000	-0.393086
	29.280000	-0.406241
	29.285000	-0.554233
	29.290000	-0.541078
	29.295000	-0.396374
	29.300000	-0.406241
	29.305000	-0.554233
	29.310000	-0.541078
	29.315000	-0.396374
	29.320000	-0.406241
	29.325000	-0.554233
	29.330000	-0.544367
	29.335000	-0.399663
	29.340000	-0.409529
	29.345000	-0.554233
	29.350000	-0.541078
	29.355000	-0.396374
	29.360000	-0.416107
	29.365000	-0.554233
	29.370000	-0.537790
	29.375000	-0.396374
	29.380000	-0.406241
	29.385000	-0.547656
	29.390000	-0.531212
	29.395000	-0.383220
	29.400000	-0.396374
	29.405000	-0.544367
	29.410000	-0.524635
	29.415000	-0.379931
	29.420000	-0.393086
	29.425000	-0.534501
	29.430000	-0.521346
	29.435000	-0.373353
	29.440000	-0.393086
	29.445000	-0.537790
	29.450000	-0.521346
	29.455000	-0.379931
	29.460000	-0.396374
	29.465000	-0.547656
	29.470000	-0.531212
	29.475000	-0.389797
	29.480000	-0.416107
	29.485000	-0.557522
	29.490000	-0.541078
	29.495000	-0.406241
	29.500000	-0.422684
	29.505000	-0.567388
	29.510000	-0.550944
	29.515000	-0.399663
	29.520000	-0.422684
	29.525000	-0.567388
	29.530000	-0.544367
	29.535000	-0.396374
	29.540000	-0.416107
	29.545000	-0.557522
	29.550000	-0.531212
	29.555000	-0.389797
	29.560000	-0.402952
	29.565000	-0.550944
	29.570000	-0.524635
	29.575000	-0.379931
	29.580000	-0.399663
	29.585000	-0.554233
	29.590000	-0.527923
	29.595000	-0.383220
	29.600000	-0.402952
	29.605000	-0.554233
	29.610000	-0.527923
	29.615000	-0.383220
	29.620000	-0.402952
	29.625000	-0.547656
	29.630000	-0.524635
	29.635000	-0.379931
	29.640000	-0.402952
	29.645000	-0.544367
	29.650000	-0.514768
	29.655000	-0.370065
	29.660000	-0.393086
	29.665000	-0.537790
	29.670000	-0.511480
	29.675000	-0.370065
	29.680000	-0.399663
	29.685000	-0.544367
	29.690000	-0.521346
	29.695000	-0.383220
	29.700000	-0.416107
	29.705000	-0.567388
	29.710000	-0.544367
	29.715000	-0.402952
	29.720000	-0.432550
	29.725000	-0.577254
	29.730000	-0.554233
	29.735000	-0.416107
	29.740000	-0.439128
	29.745000	-0.577254
	29.750000	-0.550944
	29.755000	-0.399663
	29.760000	-0.425973
	29.765000	-0.564099
	29.770000	-0.537790
	29.775000	-0.386508
	29.780000	-0.409529
	29.785000	-0.550944
	29.790000	-0.521346
	29.795000	-0.370065
	29.800000	-0.396374
	29.805000	-0.537790
	29.810000	-0.508191
	29.815000	-0.363487
	29.820000	-0.393086
	29.825000	-0.531212
	29.830000	-0.508191
	29.835000	-0.370065
	29.840000	-0.396374
	29.845000	-0.544367
	29.850000	-0.514768
	29.855000	-0.383220
	29.860000	-0.409529
	29.865000	-0.557522
	29.870000	-0.527923
	29.875000	-0.389797
	29.880000	-0.419395
	29.885000	-0.564099
	29.890000	-0.541078
	29.895000	-0.396374
	29.900000	-0.429262
	29.905000	-0.570677
	29.910000	-0.541078
	29.915000	-0.396374
	29.920000	-0.429262
	29.925000	-0.573965
	29.930000	-0.537790
	29.935000	-0.396374
	29.940000	-0.425973
	29.945000	-0.567388
	29.950000	-0.537790
	29.955000	-0.393086
	29.960000	-0.422684
	29.965000	-0.560811
	29.970000	-0.534501
	29.975000	-0.396374
	29.980000	-0.425973
	29.985000	-0.564099
	29.990000	-0.534501
	29.995000	-0.393086
	30.000000	-0.425973
	30.005000	-0.560811
	30.010000	-0.527923
	30.015000	-0.383220
	30.020000	-0.416107
	30.025000	-0.560811
	30.030000	-0.524635
	30.035000	-0.389797
	30.040000	-0.416107
	30.045000	-0.557522
	30.050000	-0.524635
	30.055000	-0.383220
	30.060000	-0.416107
	30.065000	-0.560811
	30.070000	-0.521346
	30.075000	-0.386508
	30.080000	-0.422684
	30.085000	-0.560811
	30.090000	-0.521346
	30.095000	-0.389797
	30.100000	-0.422684
	30.105000	-0.564099
	30.110000	-0.527923
	30.115000	-0.389797
	30.120000	-0.425973
	30.125000	-0.567388
	30.130000	-0.527923
	30.135000	-0.383220
	30.140000	-0.442417
	30.145000	-0.659472
	30.150000	-0.643029
	30.155000	-0.422684
	30.160000	-0.429262
	30.165000	-0.636451
	30.170000	-0.623296
	30.175000	-0.409529
	30.180000	-0.422684
	30.185000	-0.629874
	30.190000	-0.616719
	30.195000	-0.412818
	30.200000	-0.422684
	30.205000	-0.626585
	30.210000	-0.616719
	30.215000	-0.412818
	30.220000	-0.425973
	30.225000	-0.620008
	30.230000	-0.610141
	30.235000	-0.439128
	30.240000	-0.448994
	30.245000	-0.580543
	30.250000	-0.537790
	30.255000	-0.393086
	30.260000	-0.429262
	30.265000	-0.567388
	30.270000	-0.537790
	30.275000	-0.389797
	30.280000	-0.432550
	30.285000	-0.577254
	30.290000	-0.541078
	30.295000	-0.402952
	30.300000	-0.435839
	30.305000	-0.593698
	30.310000	-0.564099
	30.315000	-0.386508
	30.320000	-0.406241
	30.325000	-0.596987
	30.330000	-0.580543
	30.335000	-0.396374
	30.340000	-0.396374
	30.345000	-0.524635
	30.350000	-0.478592
	30.355000	-0.333889
	30.360000	-0.383220
	30.365000	-0.527923
	30.370000	-0.488459
	30.375000	-0.353621
	30.380000	-0.402952
	30.385000	-0.547656
	30.390000	-0.508191
	30.395000	-0.366776
	30.400000	-0.416107
	30.405000	-0.560811
	30.410000	-0.514768
	30.415000	-0.383220
	30.420000	-0.429262
	30.425000	-0.567388
	30.430000	-0.527923
	30.435000	-0.383220
	30.440000	-0.429262
	30.445000	-0.567388
	30.450000	-0.524635
	30.455000	-0.386508
	30.460000	-0.432550
	30.465000	-0.570677
	30.470000	-0.521346
	30.475000	-0.389797
	30.480000	-0.432550
	30.485000	-0.577254
	30.490000	-0.527923
	30.495000	-0.393086
	30.500000	-0.439128
	30.505000	-0.573965
	30.510000	-0.527923
	30.515000	-0.396374
	30.520000	-0.442417
	30.525000	-0.580543
	30.530000	-0.534501
	30.535000	-0.396374
	30.540000	-0.439128
	30.545000	-0.583832
	30.550000	-0.537790
	30.555000	-0.396374
	30.560000	-0.445705
	30.565000	-0.583832
	30.570000	-0.531212
	30.575000	-0.396374
	30.580000	-0.448994
	30.585000	-0.583832
	30.590000	-0.527923
	30.595000	-0.396374
	30.600000	-0.445705
	30.605000	-0.580543
	30.610000	-0.531212
	30.615000	-0.393086
	30.620000	-0.445705
	30.625000	-0.580543
	30.630000	-0.534501
	30.635000	-0.396374
	30.640000	-0.445705
	30.645000	-0.590409
	30.650000	-0.534501
	30.655000	-0.399663
	30.660000	-0.448994
	30.665000	-0.583832
	30.670000	-0.534501
	30.675000	-0.396374
	30.680000	-0.452283
	30.685000	-0.587120
	30.690000	-0.541078
	30.695000	-0.399663
	30.700000	-0.448994
	30.705000	-0.590409
	30.710000	-0.537790
	30.715000	-0.402952
	30.720000	-0.448994
	30.725000	-0.590409
	30.730000	-0.534501
	30.735000	-0.399663
	30.740000	-0.452283
	30.745000	-0.596987
	30.750000	-0.547656
	30.755000	-0.399663
	30.760000	-0.452283
	30.765000	-0.596987
	30.770000	-0.550944
	30.775000	-0.412818
	30.780000	-0.462149
	30.785000	-0.593698
	30.790000	-0.534501
	30.795000	-0.396374
	30.800000	-0.455571
	30.805000	-0.587120
	30.810000	-0.527923
	30.815000	-0.393086
	30.820000	-0.448994
	30.825000	-0.577254
	30.830000	-0.524635
	30.835000	-0.386508
	30.840000	-0.452283
	30.845000	-0.580543
	30.850000	-0.527923
	30.855000	-0.393086
	30.860000	-0.448994
	30.865000	-0.583832
	30.870000	-0.531212
	30.875000	-0.396374
	30.880000	-0.455571
	30.885000	-0.587120
	30.890000	-0.531212
	30.895000	-0.396374
	30.900000	-0.455571
	30.905000	-0.587120
	30.910000	-0.527923
	30.915000	-0.396374
	30.920000	-0.458860
	30.925000	-0.590409
	30.930000	-0.527923
	30.935000	-0.396374
	30.940000	-0.462149
	30.945000	-0.593698
	30.950000	-0.524635
	30.955000	-0.399663
	30.960000	-0.455571
	30.965000	-0.587120
	30.970000	-0.527923
	30.975000	-0.396374
	30.980000	-0.452283
	30.985000	-0.587120
	30.990000	-0.527923
	30.995000	-0.393086
	31.000000	-0.452283
	31.005000	-0.590409
	31.010000	-0.524635
	31.015000	-0.396374
	31.020000	-0.455571
	31.025000	-0.587120
	31.030000	-0.524635
	31.035000	-0.396374
	31.040000	-0.455571
	31.045000	-0.590409
	31.050000	-0.524635
	31.055000	-0.389797
	31.060000	-0.452283
	31.065000	-0.603564
	31.070000	-0.541078
	31.075000	-0.416107
	31.080000	-0.475304
	31.085000	-0.626585
	31.090000	-0.567388
	31.095000	-0.432550
	31.100000	-0.488459
	31.105000	-0.636451
	31.110000	-0.580543
	31.115000	-0.445705
	31.120000	-0.511480
	31.125000	-0.656184
	31.130000	-0.593698
	31.135000	-0.448994
	31.140000	-0.508191
	31.145000	-0.652895
	31.150000	-0.596987
	31.155000	-0.458860
	31.160000	-0.521346
	31.165000	-0.692359
	31.170000	-0.620008
	31.175000	-0.409529
	31.180000	-0.485170
	31.185000	-0.698937
	31.190000	-0.623296
	31.195000	-0.399663
	31.200000	-0.465438
	31.205000	-0.672627
	31.210000	-0.600275
	31.215000	-0.386508
	31.220000	-0.448994
	31.225000	-0.652895
	31.230000	-0.596987
	31.235000	-0.393086
	31.240000	-0.462149
	31.245000	-0.662761
	31.250000	-0.593698
	31.255000	-0.399663
	31.260000	-0.458860
	31.265000	-0.666050
	31.270000	-0.596987
	31.275000	-0.393086
	31.280000	-0.462149
	31.285000	-0.666050
	31.290000	-0.593698
	31.295000	-0.389797
	31.300000	-0.465438
	31.305000	-0.672627
	31.310000	-0.600275
	31.315000	-0.386508
	31.320000	-0.468726
	31.325000	-0.672627
	31.330000	-0.596987
	31.335000	-0.396374
	31.340000	-0.475304
	31.345000	-0.679205
	31.350000	-0.606853
	31.355000	-0.396374
	31.360000	-0.472015
	31.365000	-0.682493
	31.370000	-0.606853
	31.375000	-0.396374
	31.380000	-0.481881
	31.385000	-0.685782
	31.390000	-0.606853
	31.395000	-0.396374
	31.400000	-0.481881
	31.405000	-0.692359
	31.410000	-0.610141
	31.415000	-0.399663
	31.420000	-0.485170
	31.425000	-0.698937
	31.430000	-0.610141
	31.435000	-0.396374
	31.440000	-0.481881
	31.445000	-0.692359
	31.450000	-0.603564
	31.455000	-0.389797
	31.460000	-0.475304
	31.465000	-0.675916
	31.470000	-0.590409
	31.475000	-0.376642
	31.480000	-0.458860
	31.485000	-0.669338
	31.490000	-0.570677
	31.495000	-0.356910
	31.500000	-0.445705
	31.505000	-0.652895
	31.510000	-0.557522
	31.515000	-0.347044
	31.520000	-0.442417
	31.525000	-0.649606
	31.530000	-0.554233
	31.535000	-0.347044
	31.540000	-0.452283
	31.545000	-0.669338
	31.550000	-0.573965
	31.555000	-0.366776
	31.560000	-0.472015
	31.565000	-0.692359
	31.570000	-0.603564
	31.575000	-0.406241
	31.580000	-0.501614
	31.585000	-0.718669
	31.590000	-0.629874
	31.595000	-0.422684
	31.600000	-0.518057
	31.605000	-0.725247
	31.610000	-0.620008
	31.615000	-0.412818
	31.620000	-0.475304
	31.625000	-0.587120
	31.630000	-0.498325
	31.635000	-0.373353
	31.640000	-0.458860
	31.645000	-0.577254
	31.650000	-0.491747
	31.655000	-0.373353
	31.660000	-0.458860
	31.665000	-0.580543
	31.670000	-0.495036
	31.675000	-0.373353
	31.680000	-0.458860
	31.685000	-0.583832
	31.690000	-0.488459
	31.695000	-0.373353
	31.700000	-0.462149
	31.705000	-0.587120
	31.710000	-0.501614
	31.715000	-0.379931
	31.720000	-0.468726
	31.725000	-0.590409
	31.730000	-0.501614
	31.735000	-0.389797
	31.740000	-0.472015
	31.745000	-0.596987
	31.750000	-0.508191
	31.755000	-0.386508
	31.760000	-0.485170
	31.765000	-0.596987
	31.770000	-0.508191
	31.775000	-0.386508
	31.780000	-0.478592
	31.785000	-0.593698
	31.790000	-0.511480
	31.795000	-0.396374
	31.800000	-0.481881
	31.805000	-0.596987
	31.810000	-0.511480
	31.815000	-0.393086
	31.820000	-0.475304
	31.825000	-0.590409
	31.830000	-0.508191
	31.835000	-0.386508
	31.840000	-0.472015
	31.845000	-0.587120
	31.850000	-0.501614
	31.855000	-0.383220
	31.860000	-0.472015
	31.865000	-0.590409
	31.870000	-0.508191
	31.875000	-0.386508
	31.880000	-0.481881
	31.885000	-0.600275
	31.890000	-0.514768
	31.895000	-0.406241
	31.900000	-0.498325
	31.905000	-0.620008
	31.910000	-0.541078
	31.915000	-0.429262
	31.920000	-0.521346
	31.925000	-0.646317
	31.930000	-0.557522
	31.935000	-0.448994
	31.940000	-0.541078
	31.945000	-0.659472
	31.950000	-0.567388
	31.955000	-0.452283
	31.960000	-0.537790
	31.965000	-0.659472
	31.970000	-0.564099
	31.975000	-0.448994
	31.980000	-0.537790
	31.985000	-0.649606
	31.990000	-0.560811
	31.995000	-0.442417
	32.000000	-0.524635
	32.005000	-0.666050
	32.010000	-0.567388
	32.015000	-0.406241
	32.020000	-0.501614
	32.025000	-0.669338
	32.030000	-0.590409
	32.035000	-0.445705
	32.040000	-0.521346
	32.045000	-0.636451
	32.050000	-0.541078
	32.055000	-0.406241
	32.060000	-0.495036
	32.065000	-0.613430
	32.070000	-0.521346
	32.075000	-0.399663
	32.080000	-0.488459
	32.085000	-0.610141
	32.090000	-0.518057
	32.095000	-0.376642
	32.100000	-0.501614
	32.105000	-0.695648
	32.110000	-0.593698
	32.115000	-0.402952
	32.120000	-0.508191
	32.125000	-0.698937
	32.130000	-0.593698
	32.135000	-0.422684
	32.140000	-0.514768
	32.145000	-0.685782
	32.150000	-0.590409
	32.155000	-0.422684
	32.160000	-0.518057
	32.165000	-0.682493
	32.170000	-0.587120
	32.175000	-0.425973
	32.180000	-0.518057
	32.185000	-0.682493
	32.190000	-0.587120
	32.195000	-0.422684
	32.200000	-0.514768
	32.205000	-0.682493
	32.210000	-0.583832
	32.215000	-0.425973
	32.220000	-0.524635
	32.225000	-0.679205
	32.230000	-0.587120
	32.235000	-0.429262
	32.240000	-0.527923
	32.245000	-0.675916
	32.250000	-0.580543
	32.255000	-0.425973
	32.260000	-0.521346
	32.265000	-0.669338
	32.270000	-0.570677
	32.275000	-0.429262
	32.280000	-0.521346
	32.285000	-0.656184
	32.290000	-0.570677
	32.295000	-0.458860
	32.300000	-0.547656
	32.305000	-0.643029
	32.310000	-0.544367
	32.315000	-0.439128
	32.320000	-0.537790
	32.325000	-0.639740
	32.330000	-0.541078
	32.335000	-0.435839
	32.340000	-0.534501
	32.345000	-0.639740
	32.350000	-0.537790
	32.355000	-0.435839
	32.360000	-0.537790
	32.365000	-0.643029
	32.370000	-0.544367
	32.375000	-0.439128
	32.380000	-0.541078
	32.385000	-0.659472
	32.390000	-0.554233
	32.395000	-0.409529
	32.400000	-0.511480
	32.405000	-0.646317
	32.410000	-0.557522
	32.415000	-0.409529
	32.420000	-0.511480
	32.425000	-0.646317
	32.430000	-0.564099
	32.435000	-0.465438
	32.440000	-0.577254
	32.445000	-0.682493
	32.450000	-0.577254
	32.455000	-0.475304
	32.460000	-0.577254
	32.465000	-0.698937
	32.470000	-0.600275
	32.475000	-0.491747
	32.480000	-0.590409
	32.485000	-0.695648
	32.490000	-0.583832
	32.495000	-0.478592
	32.500000	-0.583832
	32.505000	-0.731824
	32.510000	-0.626585
	32.515000	-0.481881
	32.520000	-0.590409
	32.525000	-0.735113
	32.530000	-0.662761
	32.535000	-0.564099
	32.540000	-0.685782
	32.545000	-0.794310
	32.550000	-0.685782
	32.555000	-0.537790
	32.560000	-0.649606
	32.565000	-0.791021
	32.570000	-0.685782
	32.575000	-0.544367
	32.580000	-0.656184
	32.585000	-0.800887
	32.590000	-0.702226
	32.595000	-0.567388
	32.600000	-0.679205
	32.605000	-0.830486
	32.610000	-0.728535
	32.615000	-0.593698
	32.620000	-0.712092
	32.625000	-0.853507
	32.630000	-0.761423
	32.635000	-0.620008
	32.640000	-0.741690
	32.645000	-0.883105
	32.650000	-0.781155
	32.655000	-0.643029
	32.660000	-0.758134
	32.665000	-0.896260
	32.670000	-0.787732
	32.675000	-0.639740
	32.680000	-0.754845
	32.685000	-0.889683
	32.690000	-0.781155
	32.695000	-0.633162
	32.700000	-0.744979
	32.705000	-0.883105
	32.710000	-0.771289
	32.715000	-0.626585
	32.720000	-0.735113
	32.725000	-0.879817
	32.730000	-0.761423
	32.735000	-0.616719
	32.740000	-0.725247
	32.745000	-0.866662
	32.750000	-0.751556
	32.755000	-0.603564
	32.760000	-0.712092
	32.765000	-0.853507
	32.770000	-0.738402
	32.775000	-0.590409
	32.780000	-0.705514
	32.785000	-0.846929
	32.790000	-0.731824
	32.795000	-0.580543
	32.800000	-0.702226
	32.805000	-0.846929
	32.810000	-0.728535
	32.815000	-0.580543
	32.820000	-0.692359
	32.825000	-0.843641
	32.830000	-0.725247
	32.835000	-0.570677
	32.840000	-0.695648
	32.845000	-0.843641
	32.850000	-0.725247
	32.855000	-0.573965
	32.860000	-0.695648
	32.865000	-0.843641
	32.870000	-0.721958
	32.875000	-0.567388
	32.880000	-0.689071
	32.885000	-0.840352
	32.890000	-0.712092
	32.895000	-0.567388
	32.900000	-0.689071
	32.905000	-0.840352
	32.910000	-0.715381
	32.915000	-0.560811
	32.920000	-0.679205
	32.925000	-0.837063
	32.930000	-0.712092
	32.935000	-0.557522
	32.940000	-0.682493
	32.945000	-0.837063
	32.950000	-0.718669
	32.955000	-0.564099
	32.960000	-0.689071
	32.965000	-0.840352
	32.970000	-0.712092
	32.975000	-0.557522
	32.980000	-0.682493
	32.985000	-0.840352
	32.990000	-0.712092
	32.995000	-0.560811
	33.000000	-0.689071
	33.005000	-0.837063
	33.010000	-0.715381
	33.015000	-0.557522
	33.020000	-0.689071
	33.025000	-0.840352
	33.030000	-0.712092
	33.035000	-0.560811
	33.040000	-0.685782
	33.045000	-0.833775
	33.050000	-0.712092
	33.055000	-0.557522
	33.060000	-0.685782
	33.065000	-0.830486
	33.070000	-0.702226
	33.075000	-0.554233
	33.080000	-0.679205
	33.085000	-0.827197
	33.090000	-0.698937
	33.095000	-0.554233
	33.100000	-0.672627
	33.105000	-0.823908
	33.110000	-0.695648
	33.115000	-0.557522
	33.120000	-0.685782
	33.125000	-0.830486
	33.130000	-0.708803
	33.135000	-0.573965
	33.140000	-0.695648
	33.145000	-0.843641
	33.150000	-0.721958
	33.155000	-0.580543
	33.160000	-0.715381
	33.165000	-0.853507
	33.170000	-0.725247
	33.175000	-0.600275
	33.180000	-0.718669
	33.185000	-0.853507
	33.190000	-0.725247
	33.195000	-0.593698
	33.200000	-0.721958
	33.205000	-0.846929
	33.210000	-0.725247
	33.215000	-0.590409
	33.220000	-0.715381
	33.225000	-0.837063
	33.230000	-0.712092
	33.235000	-0.583832
	33.240000	-0.712092
	33.245000	-0.827197
	33.250000	-0.705514
	33.255000	-0.577254
	33.260000	-0.702226
	33.265000	-0.820620
	33.270000	-0.692359
	33.275000	-0.567388
	33.280000	-0.695648
	33.285000	-0.814042
	33.290000	-0.689071
	33.295000	-0.567388
	33.300000	-0.689071
	33.305000	-0.810754
	33.310000	-0.685782
	33.315000	-0.560811
	33.320000	-0.682493
	33.325000	-0.791021
	33.330000	-0.662761
	33.335000	-0.544367
	33.340000	-0.662761
	33.345000	-0.781155
	33.350000	-0.643029
	33.355000	-0.521346
	33.360000	-0.646317
	33.365000	-0.771289
	33.370000	-0.636451
	33.375000	-0.511480
	33.380000	-0.639740
	33.385000	-0.754845
	33.390000	-0.626585
	33.395000	-0.501614
	33.400000	-0.629874
	33.405000	-0.751556
	33.410000	-0.620008
	33.415000	-0.495036
	33.420000	-0.623296
	33.425000	-0.741690
	33.430000	-0.610141
	33.435000	-0.488459
	33.440000	-0.616719
	33.445000	-0.741690
	33.450000	-0.613430
	33.455000	-0.498325
	33.460000	-0.616719
	33.465000	-0.728535
	33.470000	-0.590409
	33.475000	-0.475304
	33.480000	-0.610141
	33.485000	-0.735113
	33.490000	-0.590409
	33.495000	-0.448994
	33.500000	-0.593698
	33.505000	-0.735113
	33.510000	-0.626585
	33.515000	-0.521346
	33.520000	-0.646317
	33.525000	-0.751556
	33.530000	-0.613430
	33.535000	-0.501614
	33.540000	-0.623296
	33.545000	-0.728535
	33.550000	-0.587120
	33.555000	-0.485170
	33.560000	-0.606853
	33.565000	-0.712092
	33.570000	-0.577254
	33.575000	-0.472015
	33.580000	-0.600275
	33.585000	-0.708803
	33.590000	-0.573965
	33.595000	-0.465438
	33.600000	-0.603564
	33.605000	-0.705514
	33.610000	-0.573965
	33.615000	-0.468726
	33.620000	-0.606853
	33.625000	-0.708803
	33.630000	-0.577254
	33.635000	-0.472015
	33.640000	-0.603564
	33.645000	-0.708803
	33.650000	-0.580543
	33.655000	-0.478592
	33.660000	-0.610141
	33.665000	-0.715381
	33.670000	-0.577254
	33.675000	-0.475304
	33.680000	-0.616719
	33.685000	-0.715381
	33.690000	-0.577254
	33.695000	-0.472015
	33.700000	-0.610141
	33.705000	-0.715381
	33.710000	-0.580543
	33.715000	-0.475304
	33.720000	-0.610141
	33.725000	-0.718669
	33.730000	-0.577254
	33.735000	-0.475304
	33.740000	-0.613430
	33.745000	-0.715381
	33.750000	-0.580543
	33.755000	-0.481881
	33.760000	-0.616719
	33.765000	-0.718669
	33.770000	-0.583832
	33.775000	-0.478592
	33.780000	-0.623296
	33.785000	-0.718669
	33.790000	-0.587120
	33.795000	-0.481881
	33.800000	-0.629874
	33.805000	-0.725247
	33.810000	-0.590409
	33.815000	-0.491747
	33.820000	-0.629874
	33.825000	-0.728535
	33.830000	-0.593698
	33.835000	-0.488459
	33.840000	-0.633162
	33.845000	-0.738402
	33.850000	-0.596987
	33.855000	-0.495036
	33.860000	-0.636451
	33.865000	-0.735113
	33.870000	-0.590409
	33.875000	-0.491747
	33.880000	-0.629874
	33.885000	-0.735113
	33.890000	-0.590409
	33.895000	-0.485170
	33.900000	-0.623296
	33.905000	-0.728535
	33.910000	-0.587120
	33.915000	-0.481881
	33.920000	-0.629874
	33.925000	-0.725247
	33.930000	-0.583832
	33.935000	-0.481881
	33.940000	-0.626585
	33.945000	-0.725247
	33.950000	-0.583832
	33.955000	-0.478592
	33.960000	-0.620008
