2024/7/10 	 21:55:21 
 This file comes from Vt only measurement 	 1.000000E-1 
 Voltage Sensitivity 	 0.000000E+0 
 Sampling rate 	 200 
 Number of samples per channel 	 -1 
 No filter from Labview 	 	 	 
 	 
 ***End_of_Header*** 
 	 Time 	  Voltage 	 Filtered Voltage 	 
	0.000000	-2.807295
	0.005000	-2.897549
	0.010000	-2.936229
	0.015000	-2.849199
	0.020000	-2.804072
	0.025000	-2.894326
	0.030000	-2.939453
	0.035000	-2.855645
	0.040000	-2.804072
	0.045000	-2.897549
	0.050000	-2.942676
	0.055000	-2.855645
	0.060000	-2.813742
	0.065000	-2.897549
	0.070000	-2.942676
	0.075000	-2.852422
	0.080000	-2.810518
	0.085000	-2.907219
	0.090000	-2.949123
	0.095000	-2.858869
	0.100000	-2.816965
	0.105000	-2.903996
	0.110000	-2.949123
	0.115000	-2.858869
	0.120000	-2.823412
	0.125000	-2.903996
	0.130000	-2.949123
	0.135000	-2.862092
	0.140000	-2.820188
	0.145000	-2.913666
	0.150000	-2.968463
	0.155000	-2.868539
	0.160000	-2.829858
	0.165000	-2.916889
	0.170000	-2.958793
	0.175000	-2.871762
	0.180000	-2.829858
	0.185000	-2.916889
	0.190000	-2.965239
	0.195000	-2.868539
	0.200000	-2.829858
	0.205000	-2.910442
	0.210000	-2.965239
	0.215000	-2.868539
	0.220000	-2.826635
	0.225000	-2.916889
	0.230000	-2.949123
	0.235000	-2.865315
	0.240000	-2.826635
	0.245000	-2.913666
	0.250000	-2.955569
	0.255000	-2.865315
	0.260000	-2.823412
	0.265000	-2.907219
	0.270000	-2.952346
	0.275000	-2.865315
	0.280000	-2.826635
	0.285000	-2.907219
	0.290000	-2.949123
	0.295000	-2.858869
	0.300000	-2.820188
	0.305000	-2.907219
	0.310000	-2.955569
	0.315000	-2.862092
	0.320000	-2.820188
	0.325000	-2.907219
	0.330000	-2.952346
	0.335000	-2.862092
	0.340000	-2.820188
	0.345000	-2.910442
	0.350000	-2.949123
	0.355000	-2.858869
	0.360000	-2.810518
	0.365000	-2.910442
	0.370000	-2.952346
	0.375000	-2.852422
	0.380000	-2.810518
	0.385000	-2.907219
	0.390000	-2.945899
	0.395000	-2.858869
	0.400000	-2.820188
	0.405000	-2.900772
	0.410000	-2.945899
	0.415000	-2.852422
	0.420000	-2.813742
	0.425000	-2.903996
	0.430000	-2.945899
	0.435000	-2.852422
	0.440000	-2.810518
	0.445000	-2.907219
	0.450000	-2.945899
	0.455000	-2.849199
	0.460000	-2.807295
	0.465000	-2.900772
	0.470000	-2.939453
	0.475000	-2.855645
	0.480000	-2.810518
	0.485000	-2.897549
	0.490000	-2.942676
	0.495000	-2.852422
	0.500000	-2.810518
	0.505000	-2.897549
	0.510000	-2.942676
	0.515000	-2.852422
	0.520000	-2.810518
	0.525000	-2.900772
	0.530000	-2.939453
	0.535000	-2.845975
	0.540000	-2.804072
	0.545000	-2.900772
	0.550000	-2.942676
	0.555000	-2.852422
	0.560000	-2.813742
	0.565000	-2.903996
	0.570000	-2.939453
	0.575000	-2.849199
	0.580000	-2.804072
	0.585000	-2.900772
	0.590000	-2.942676
	0.595000	-2.852422
	0.600000	-2.813742
	0.605000	-2.900772
	0.610000	-2.933006
	0.615000	-2.839528
	0.620000	-2.807295
	0.625000	-2.897549
	0.630000	-2.933006
	0.635000	-2.849199
	0.640000	-2.804072
	0.645000	-2.894326
	0.650000	-2.933006
	0.655000	-2.842752
	0.660000	-2.804072
	0.665000	-2.894326
	0.670000	-2.939453
	0.675000	-2.839528
	0.680000	-2.800848
	0.685000	-2.894326
	0.690000	-2.936229
	0.695000	-2.842752
	0.700000	-2.800848
	0.705000	-2.897549
	0.710000	-2.933006
	0.715000	-2.842752
	0.720000	-2.804072
	0.725000	-2.891102
	0.730000	-2.929783
	0.735000	-2.839528
	0.740000	-2.804072
	0.745000	-2.894326
	0.750000	-2.929783
	0.755000	-2.845975
	0.760000	-2.797625
	0.765000	-2.891102
	0.770000	-2.923336
	0.775000	-2.833082
	0.780000	-2.791178
	0.785000	-2.887879
	0.790000	-2.929783
	0.795000	-2.829858
	0.800000	-2.794401
	0.805000	-2.878209
	0.810000	-2.920112
	0.815000	-2.826635
	0.820000	-2.794401
	0.825000	-2.884655
	0.830000	-2.920112
	0.835000	-2.826635
	0.840000	-2.791178
	0.845000	-2.881432
	0.850000	-2.926559
	0.855000	-2.836305
	0.860000	-2.787955
	0.865000	-2.884655
	0.870000	-2.926559
	0.875000	-2.833082
	0.880000	-2.800848
	0.885000	-2.894326
	0.890000	-2.929783
	0.895000	-2.839528
	0.900000	-2.791178
	0.905000	-2.894326
	0.910000	-2.929783
	0.915000	-2.836305
	0.920000	-2.800848
	0.925000	-2.891102
	0.930000	-2.926559
	0.935000	-2.836305
	0.940000	-2.794401
	0.945000	-2.887879
	0.950000	-2.923336
	0.955000	-2.829858
	0.960000	-2.797625
	0.965000	-2.881432
	0.970000	-2.923336
	0.975000	-2.833082
	0.980000	-2.791178
	0.985000	-2.887879
	0.990000	-2.923336
	0.995000	-2.833082
	1.000000	-2.797625
	1.005000	-2.887879
	1.010000	-2.926559
	1.015000	-2.829858
	1.020000	-2.784731
	1.025000	-2.881432
	1.030000	-2.920112
	1.035000	-2.826635
	1.040000	-2.787955
	1.045000	-2.881432
	1.050000	-2.916889
	1.055000	-2.820188
	1.060000	-2.791178
	1.065000	-2.871762
	1.070000	-2.913666
	1.075000	-2.816965
	1.080000	-2.781508
	1.085000	-2.878209
	1.090000	-2.910442
	1.095000	-2.816965
	1.100000	-2.778285
	1.105000	-2.871762
	1.110000	-2.907219
	1.115000	-2.816965
	1.120000	-2.775061
	1.125000	-2.868539
	1.130000	-2.900772
	1.135000	-2.804072
	1.140000	-2.775061
	1.145000	-2.855645
	1.150000	-2.891102
	1.155000	-2.797625
	1.160000	-2.768615
	1.165000	-2.862092
	1.170000	-2.894326
	1.175000	-2.800848
	1.180000	-2.762168
	1.185000	-2.858869
	1.190000	-2.897549
	1.195000	-2.807295
	1.200000	-2.775061
	1.205000	-2.865315
	1.210000	-2.907219
	1.215000	-2.813742
	1.220000	-2.771838
	1.225000	-2.874985
	1.230000	-2.907219
	1.235000	-2.823412
	1.240000	-2.781508
	1.245000	-2.874985
	1.250000	-2.913666
	1.255000	-2.816965
	1.260000	-2.784731
	1.265000	-2.874985
	1.270000	-2.913666
	1.275000	-2.826635
	1.280000	-2.781508
	1.285000	-2.878209
	1.290000	-2.913666
	1.295000	-2.823412
	1.300000	-2.784731
	1.305000	-2.881432
	1.310000	-2.910442
	1.315000	-2.820188
	1.320000	-2.781508
	1.325000	-2.878209
	1.330000	-2.910442
	1.335000	-2.816965
	1.340000	-2.775061
	1.345000	-2.865315
	1.350000	-2.900772
	1.355000	-2.810518
	1.360000	-2.771838
	1.365000	-2.865315
	1.370000	-2.900772
	1.375000	-2.810518
	1.380000	-2.768615
	1.385000	-2.858869
	1.390000	-2.897549
	1.395000	-2.807295
	1.400000	-2.765391
	1.405000	-2.858869
	1.410000	-2.897549
	1.415000	-2.800848
	1.420000	-2.765391
	1.425000	-2.855645
	1.430000	-2.894326
	1.435000	-2.800848
	1.440000	-2.758944
	1.445000	-2.852422
	1.450000	-2.887879
	1.455000	-2.794401
	1.460000	-2.758944
	1.465000	-2.855645
	1.470000	-2.887879
	1.475000	-2.797625
	1.480000	-2.755721
	1.485000	-2.858869
	1.490000	-2.891102
	1.495000	-2.794401
	1.500000	-2.762168
	1.505000	-2.852422
	1.510000	-2.881432
	1.515000	-2.794401
	1.520000	-2.752498
	1.525000	-2.845975
	1.530000	-2.881432
	1.535000	-2.791178
	1.540000	-2.755721
	1.545000	-2.852422
	1.550000	-2.881432
	1.555000	-2.784731
	1.560000	-2.752498
	1.565000	-2.845975
	1.570000	-2.878209
	1.575000	-2.778285
	1.580000	-2.746051
	1.585000	-2.849199
	1.590000	-2.878209
	1.595000	-2.787955
	1.600000	-2.752498
	1.605000	-2.839528
	1.610000	-2.878209
	1.615000	-2.787955
	1.620000	-2.746051
	1.625000	-2.839528
	1.630000	-2.874985
	1.635000	-2.784731
	1.640000	-2.752498
	1.645000	-2.849199
	1.650000	-2.878209
	1.655000	-2.787955
	1.660000	-2.749274
	1.665000	-2.842752
	1.670000	-2.874985
	1.675000	-2.791178
	1.680000	-2.755721
	1.685000	-2.849199
	1.690000	-2.881432
	1.695000	-2.784731
	1.700000	-2.755721
	1.705000	-2.842752
	1.710000	-2.878209
	1.715000	-2.787955
	1.720000	-2.752498
	1.725000	-2.849199
	1.730000	-2.881432
	1.735000	-2.784731
	1.740000	-2.749274
	1.745000	-2.842752
	1.750000	-2.881432
	1.755000	-2.781508
	1.760000	-2.749274
	1.765000	-2.842752
	1.770000	-2.874985
	1.775000	-2.775061
	1.780000	-2.746051
	1.785000	-2.845975
	1.790000	-2.874985
	1.795000	-2.781508
	1.800000	-2.742828
	1.805000	-2.836305
	1.810000	-2.865315
	1.815000	-2.768615
	1.820000	-2.739604
	1.825000	-2.826635
	1.830000	-2.865315
	1.835000	-2.771838
	1.840000	-2.739604
	1.845000	-2.836305
	1.850000	-2.868539
	1.855000	-2.771838
	1.860000	-2.742828
	1.865000	-2.836305
	1.870000	-2.871762
	1.875000	-2.778285
	1.880000	-2.749274
	1.885000	-2.849199
	1.890000	-2.887879
	1.895000	-2.787955
	1.900000	-2.758944
	1.905000	-2.855645
	1.910000	-2.887879
	1.915000	-2.800848
	1.920000	-2.768615
	1.925000	-2.858869
	1.930000	-2.894326
	1.935000	-2.800848
	1.940000	-2.771838
	1.945000	-2.858869
	1.950000	-2.897549
	1.955000	-2.804072
	1.960000	-2.771838
	1.965000	-2.865315
	1.970000	-2.897549
	1.975000	-2.807295
	1.980000	-2.771838
	1.985000	-2.868539
	1.990000	-2.903996
	1.995000	-2.800848
	2.000000	-2.778285
	2.005000	-2.865315
	2.010000	-2.897549
	2.015000	-2.807295
	2.020000	-2.775061
	2.025000	-2.865315
	2.030000	-2.897549
	2.035000	-2.810518
	2.040000	-2.771838
	2.045000	-2.865315
	2.050000	-2.900772
	2.055000	-2.807295
	2.060000	-2.771838
	2.065000	-2.862092
	2.070000	-2.894326
	2.075000	-2.804072
	2.080000	-2.768615
	2.085000	-2.865315
	2.090000	-2.894326
	2.095000	-2.804072
	2.100000	-2.768615
	2.105000	-2.865315
	2.110000	-2.897549
	2.115000	-2.800848
	2.120000	-2.768615
	2.125000	-2.868539
	2.130000	-2.891102
	2.135000	-2.804072
	2.140000	-2.771838
	2.145000	-2.868539
	2.150000	-2.903996
	2.155000	-2.797625
	2.160000	-2.771838
	2.165000	-2.868539
	2.170000	-2.903996
	2.175000	-2.804072
	2.180000	-2.778285
	2.185000	-2.871762
	2.190000	-2.900772
	2.195000	-2.804072
	2.200000	-2.771838
	2.205000	-2.865315
	2.210000	-2.894326
	2.215000	-2.794401
	2.220000	-2.771838
	2.225000	-2.865315
	2.230000	-2.897549
	2.235000	-2.804072
	2.240000	-2.771838
	2.245000	-2.868539
	2.250000	-2.897549
	2.255000	-2.797625
	2.260000	-2.771838
	2.265000	-2.871762
	2.270000	-2.897549
	2.275000	-2.810518
	2.280000	-2.775061
	2.285000	-2.868539
	2.290000	-2.897549
	2.295000	-2.807295
	2.300000	-2.778285
	2.305000	-2.868539
	2.310000	-2.897549
	2.315000	-2.797625
	2.320000	-2.775061
	2.325000	-2.865315
	2.330000	-2.894326
	2.335000	-2.807295
	2.340000	-2.771838
	2.345000	-2.878209
	2.350000	-2.897549
	2.355000	-2.807295
	2.360000	-2.775061
	2.365000	-2.868539
	2.370000	-2.897549
	2.375000	-2.804072
	2.380000	-2.778285
	2.385000	-2.871762
	2.390000	-2.897549
	2.395000	-2.800848
	2.400000	-2.771838
	2.405000	-2.871762
	2.410000	-2.900772
	2.415000	-2.804072
	2.420000	-2.771838
	2.425000	-2.868539
	2.430000	-2.897549
	2.435000	-2.804072
	2.440000	-2.771838
	2.445000	-2.871762
	2.450000	-2.894326
	2.455000	-2.800848
	2.460000	-2.771838
	2.465000	-2.868539
	2.470000	-2.891102
	2.475000	-2.804072
	2.480000	-2.765391
	2.485000	-2.868539
	2.490000	-2.900772
	2.495000	-2.794401
	2.500000	-2.768615
	2.505000	-2.865315
	2.510000	-2.897549
	2.515000	-2.800848
	2.520000	-2.775061
	2.525000	-2.868539
	2.530000	-2.887879
	2.535000	-2.804072
	2.540000	-2.765391
	2.545000	-2.868539
	2.550000	-2.894326
	2.555000	-2.800848
	2.560000	-2.771838
	2.565000	-2.862092
	2.570000	-2.897549
	2.575000	-2.791178
	2.580000	-2.771838
	2.585000	-2.865315
	2.590000	-2.891102
	2.595000	-2.800848
	2.600000	-2.762168
	2.605000	-2.858869
	2.610000	-2.887879
	2.615000	-2.791178
	2.620000	-2.762168
	2.625000	-2.862092
	2.630000	-2.891102
	2.635000	-2.797625
	2.640000	-2.762168
	2.645000	-2.862092
	2.650000	-2.887879
	2.655000	-2.787955
	2.660000	-2.762168
	2.665000	-2.868539
	2.670000	-2.887879
	2.675000	-2.791178
	2.680000	-2.762168
	2.685000	-2.858869
	2.690000	-2.891102
	2.695000	-2.791178
	2.700000	-2.758944
	2.705000	-2.858869
	2.710000	-2.887879
	2.715000	-2.791178
	2.720000	-2.765391
	2.725000	-2.852422
	2.730000	-2.887879
	2.735000	-2.787955
	2.740000	-2.758944
	2.745000	-2.858869
	2.750000	-2.887879
	2.755000	-2.784731
	2.760000	-2.755721
	2.765000	-2.855645
	2.770000	-2.884655
	2.775000	-2.784731
	2.780000	-2.755721
	2.785000	-2.855645
	2.790000	-2.871762
	2.795000	-2.781508
	2.800000	-2.755721
	2.805000	-2.855645
	2.810000	-2.871762
	2.815000	-2.781508
	2.820000	-2.749274
	2.825000	-2.849199
	2.830000	-2.871762
	2.835000	-2.778285
	2.840000	-2.755721
	2.845000	-2.845975
	2.850000	-2.878209
	2.855000	-2.781508
	2.860000	-2.749274
	2.865000	-2.845975
	2.870000	-2.871762
	2.875000	-2.781508
	2.880000	-2.752498
	2.885000	-2.845975
	2.890000	-2.868539
	2.895000	-2.778285
	2.900000	-2.746051
	2.905000	-2.842752
	2.910000	-2.874985
	2.915000	-2.784731
	2.920000	-2.746051
	2.925000	-2.842752
	2.930000	-2.871762
	2.935000	-2.778285
	2.940000	-2.746051
	2.945000	-2.839528
	2.950000	-2.868539
	2.955000	-2.775061
	2.960000	-2.746051
	2.965000	-2.842752
	2.970000	-2.865315
	2.975000	-2.771838
	2.980000	-2.746051
	2.985000	-2.836305
	2.990000	-2.865315
	2.995000	-2.768615
	3.000000	-2.746051
	3.005000	-2.833082
	3.010000	-2.862092
	3.015000	-2.768615
	3.020000	-2.742828
	3.025000	-2.836305
	3.030000	-2.858869
	3.035000	-2.765391
	3.040000	-2.739604
	3.045000	-2.836305
	3.050000	-2.858869
	3.055000	-2.765391
	3.060000	-2.742828
	3.065000	-2.836305
	3.070000	-2.865315
	3.075000	-2.765391
	3.080000	-2.739604
	3.085000	-2.836305
	3.090000	-2.862092
	3.095000	-2.762168
	3.100000	-2.742828
	3.105000	-2.836305
	3.110000	-2.862092
	3.115000	-2.762168
	3.120000	-2.733158
	3.125000	-2.829858
	3.130000	-2.852422
	3.135000	-2.762168
	3.140000	-2.729934
	3.145000	-2.829858
	3.150000	-2.855645
	3.155000	-2.752498
	3.160000	-2.729934
	3.165000	-2.829858
	3.170000	-2.855645
	3.175000	-2.762168
	3.180000	-2.733158
	3.185000	-2.829858
	3.190000	-2.849199
	3.195000	-2.755721
	3.200000	-2.729934
	3.205000	-2.826635
	3.210000	-2.852422
	3.215000	-2.758944
	3.220000	-2.726711
	3.225000	-2.829858
	3.230000	-2.849199
	3.235000	-2.752498
	3.240000	-2.723488
	3.245000	-2.826635
	3.250000	-2.845975
	3.255000	-2.746051
	3.260000	-2.726711
	3.265000	-2.820188
	3.270000	-2.845975
	3.275000	-2.752498
	3.280000	-2.726711
	3.285000	-2.826635
	3.290000	-2.852422
	3.295000	-2.746051
	3.300000	-2.723488
	3.305000	-2.823412
	3.310000	-2.845975
	3.315000	-2.746051
	3.320000	-2.723488
	3.325000	-2.820188
	3.330000	-2.839528
	3.335000	-2.746051
	3.340000	-2.720264
	3.345000	-2.813742
	3.350000	-2.839528
	3.355000	-2.746051
	3.360000	-2.713817
	3.365000	-2.813742
	3.370000	-2.842752
	3.375000	-2.742828
	3.380000	-2.717041
	3.385000	-2.816965
	3.390000	-2.836305
	3.395000	-2.746051
	3.400000	-2.723488
	3.405000	-2.813742
	3.410000	-2.833082
	3.415000	-2.739604
	3.420000	-2.717041
	3.425000	-2.816965
	3.430000	-2.836305
	3.435000	-2.742828
	3.440000	-2.713817
	3.445000	-2.810518
	3.450000	-2.833082
	3.455000	-2.729934
	3.460000	-2.713817
	3.465000	-2.810518
	3.470000	-2.836305
	3.475000	-2.736381
	3.480000	-2.713817
	3.485000	-2.800848
	3.490000	-2.826635
	3.495000	-2.726711
	3.500000	-2.707371
	3.505000	-2.800848
	3.510000	-2.823412
	3.515000	-2.723488
	3.520000	-2.697701
	3.525000	-2.797625
	3.530000	-2.816965
	3.535000	-2.733158
	3.540000	-2.704147
	3.545000	-2.797625
	3.550000	-2.820188
	3.555000	-2.723488
	3.560000	-2.700924
	3.565000	-2.797625
	3.570000	-2.820188
	3.575000	-2.723488
	3.580000	-2.694477
	3.585000	-2.794401
	3.590000	-2.820188
	3.595000	-2.723488
	3.600000	-2.694477
	3.605000	-2.794401
	3.610000	-2.810518
	3.615000	-2.720264
	3.620000	-2.688031
	3.625000	-2.794401
	3.630000	-2.816965
	3.635000	-2.717041
	3.640000	-2.684807
	3.645000	-2.784731
	3.650000	-2.810518
	3.655000	-2.710594
	3.660000	-2.688031
	3.665000	-2.784731
	3.670000	-2.804072
	3.675000	-2.710594
	3.680000	-2.694477
	3.685000	-2.791178
	3.690000	-2.810518
	3.695000	-2.707371
	3.700000	-2.688031
	3.705000	-2.781508
	3.710000	-2.804072
	3.715000	-2.707371
	3.720000	-2.684807
	3.725000	-2.781508
	3.730000	-2.807295
	3.735000	-2.700924
	3.740000	-2.691254
	3.745000	-2.784731
	3.750000	-2.807295
	3.755000	-2.707371
	3.760000	-2.688031
	3.765000	-2.787955
	3.770000	-2.810518
	3.775000	-2.713817
	3.780000	-2.691254
	3.785000	-2.787955
	3.790000	-2.807295
	3.795000	-2.710594
	3.800000	-2.684807
	3.805000	-2.784731
	3.810000	-2.810518
	3.815000	-2.707371
	3.820000	-2.697701
	3.825000	-2.797625
	3.830000	-2.816965
	3.835000	-2.717041
	3.840000	-2.697701
	3.845000	-2.797625
	3.850000	-2.823412
	3.855000	-2.723488
	3.860000	-2.694477
	3.865000	-2.800848
	3.870000	-2.826635
	3.875000	-2.723488
	3.880000	-2.700924
	3.885000	-2.794401
	3.890000	-2.820188
	3.895000	-2.723488
	3.900000	-2.704147
	3.905000	-2.800848
	3.910000	-2.820188
	3.915000	-2.726711
	3.920000	-2.697701
	3.925000	-2.797625
	3.930000	-2.816965
	3.935000	-2.723488
	3.940000	-2.697701
	3.945000	-2.794401
	3.950000	-2.816965
	3.955000	-2.720264
	3.960000	-2.697701
	3.965000	-2.800848
	3.970000	-2.820188
	3.975000	-2.720264
	3.980000	-2.697701
	3.985000	-2.794401
	3.990000	-2.823412
	3.995000	-2.720264
	4.000000	-2.694477
	4.005000	-2.804072
	4.010000	-2.816965
	4.015000	-2.720264
	4.020000	-2.694477
	4.025000	-2.791178
	4.030000	-2.813742
	4.035000	-2.720264
	4.040000	-2.700924
	4.045000	-2.791178
	4.050000	-2.820188
	4.055000	-2.717041
	4.060000	-2.697701
	4.065000	-2.791178
	4.070000	-2.813742
	4.075000	-2.717041
	4.080000	-2.691254
	4.085000	-2.797625
	4.090000	-2.813742
	4.095000	-2.713817
	4.100000	-2.694477
	4.105000	-2.794401
	4.110000	-2.816965
	4.115000	-2.717041
	4.120000	-2.700924
	4.125000	-2.794401
	4.130000	-2.816965
	4.135000	-2.723488
	4.140000	-2.700924
	4.145000	-2.794401
	4.150000	-2.813742
	4.155000	-2.720264
	4.160000	-2.694477
	4.165000	-2.800848
	4.170000	-2.820188
	4.175000	-2.726711
	4.180000	-2.704147
	4.185000	-2.800848
	4.190000	-2.820188
	4.195000	-2.723488
	4.200000	-2.700924
	4.205000	-2.807295
	4.210000	-2.826635
	4.215000	-2.726711
	4.220000	-2.707371
	4.225000	-2.807295
	4.230000	-2.826635
	4.235000	-2.729934
	4.240000	-2.707371
	4.245000	-2.810518
	4.250000	-2.829858
	4.255000	-2.729934
	4.260000	-2.710594
	4.265000	-2.813742
	4.270000	-2.829858
	4.275000	-2.736381
	4.280000	-2.710594
	4.285000	-2.816965
	4.290000	-2.829858
	4.295000	-2.729934
	4.300000	-2.710594
	4.305000	-2.813742
	4.310000	-2.826635
	4.315000	-2.733158
	4.320000	-2.710594
	4.325000	-2.804072
	4.330000	-2.833082
	4.335000	-2.729934
	4.340000	-2.704147
	4.345000	-2.810518
	4.350000	-2.826635
	4.355000	-2.723488
	4.360000	-2.700924
	4.365000	-2.804072
	4.370000	-2.813742
	4.375000	-2.713817
	4.380000	-2.691254
	4.385000	-2.787955
	4.390000	-2.797625
	4.395000	-2.694477
	4.400000	-2.668690
	4.405000	-2.762168
	4.410000	-2.775061
	4.415000	-2.668690
	4.420000	-2.652574
	4.425000	-2.746051
	4.430000	-2.762168
	4.435000	-2.649350
	4.440000	-2.639680
	4.445000	-2.729934
	4.450000	-2.746051
	4.455000	-2.639680
	4.460000	-2.623563
	4.465000	-2.717041
	4.470000	-2.733158
	4.475000	-2.633233
	4.480000	-2.610670
	4.485000	-2.710594
	4.490000	-2.726711
	4.495000	-2.623563
	4.500000	-2.601000
	4.505000	-2.694477
	4.510000	-2.710594
	4.515000	-2.607447
	4.520000	-2.591330
	4.525000	-2.684807
	4.530000	-2.694477
	4.535000	-2.607447
	4.540000	-2.584883
	4.545000	-2.678361
	4.550000	-2.694477
	4.555000	-2.597777
	4.560000	-2.581660
	4.565000	-2.671914
	4.570000	-2.688031
	4.575000	-2.591330
	4.580000	-2.575213
	4.585000	-2.671914
	4.590000	-2.688031
	4.595000	-2.594553
	4.600000	-2.575213
	4.605000	-2.668690
	4.610000	-2.684807
	4.615000	-2.591330
	4.620000	-2.575213
	4.625000	-2.668690
	4.630000	-2.691254
	4.635000	-2.601000
	4.640000	-2.575213
	4.645000	-2.678361
	4.650000	-2.697701
	4.655000	-2.601000
	4.660000	-2.584883
	4.665000	-2.691254
	4.670000	-2.710594
	4.675000	-2.617117
	4.680000	-2.604223
	4.685000	-2.694477
	4.690000	-2.720264
	4.695000	-2.630010
	4.700000	-2.613893
	4.705000	-2.713817
	4.710000	-2.729934
	4.715000	-2.639680
	4.720000	-2.633233
	4.725000	-2.726711
	4.730000	-2.749274
	4.735000	-2.659020
	4.740000	-2.642904
	4.745000	-2.742828
	4.750000	-2.765391
	4.755000	-2.678361
	4.760000	-2.659020
	4.765000	-2.768615
	4.770000	-2.787955
	4.775000	-2.704147
	4.780000	-2.694477
	4.785000	-2.804072
	4.790000	-2.820188
	4.795000	-2.739604
	4.800000	-2.720264
	4.805000	-2.829858
	4.810000	-2.849199
	4.815000	-2.758944
	4.820000	-2.742828
	4.825000	-2.842752
	4.830000	-2.865315
	4.835000	-2.762168
	4.840000	-2.752498
	4.845000	-2.845975
	4.850000	-2.858869
	4.855000	-2.765391
	4.860000	-2.749274
	4.865000	-2.842752
	4.870000	-2.862092
	4.875000	-2.768615
	4.880000	-2.742828
	4.885000	-2.845975
	4.890000	-2.865315
	4.895000	-2.752498
	4.900000	-2.742828
	4.905000	-2.836305
	4.910000	-2.852422
	4.915000	-2.752498
	4.920000	-2.736381
	4.925000	-2.826635
	4.930000	-2.842752
	4.935000	-2.742828
	4.940000	-2.717041
	4.945000	-2.816965
	4.950000	-2.823412
	4.955000	-2.720264
	4.960000	-2.694477
	4.965000	-2.784731
	4.970000	-2.804072
	4.975000	-2.700924
	4.980000	-2.681584
	4.985000	-2.775061
	4.990000	-2.787955
	4.995000	-2.691254
	5.000000	-2.662244
	5.005000	-2.758944
	5.010000	-2.765391
	5.015000	-2.675137
	5.020000	-2.649350
	5.025000	-2.739604
	5.030000	-2.758944
	5.035000	-2.659020
	5.040000	-2.636457
	5.045000	-2.726711
	5.050000	-2.749274
	5.055000	-2.642904
	5.060000	-2.620340
	5.065000	-2.720264
	5.070000	-2.733158
	5.075000	-2.633233
	5.080000	-2.617117
	5.085000	-2.710594
	5.090000	-2.726711
	5.095000	-2.630010
	5.100000	-2.617117
	5.105000	-2.704147
	5.110000	-2.729934
	5.115000	-2.642904
	5.120000	-2.613893
	5.125000	-2.717041
	5.130000	-2.739604
	5.135000	-2.646127
	5.140000	-2.636457
	5.145000	-2.736381
	5.150000	-2.749274
	5.155000	-2.662244
	5.160000	-2.646127
	5.165000	-2.749274
	5.170000	-2.771838
	5.175000	-2.678361
	5.180000	-2.662244
	5.185000	-2.771838
	5.190000	-2.784731
	5.195000	-2.691254
	5.200000	-2.678361
	5.205000	-2.778285
	5.210000	-2.797625
	5.215000	-2.704147
	5.220000	-2.688031
	5.225000	-2.787955
	5.230000	-2.804072
	5.235000	-2.713817
	5.240000	-2.697701
	5.245000	-2.791178
	5.250000	-2.816965
	5.255000	-2.713817
	5.260000	-2.697701
	5.265000	-2.804072
	5.270000	-2.820188
	5.275000	-2.723488
	5.280000	-2.704147
	5.285000	-2.810518
	5.290000	-2.826635
	5.295000	-2.733158
	5.300000	-2.713817
	5.305000	-2.807295
	5.310000	-2.829858
	5.315000	-2.736381
	5.320000	-2.717041
	5.325000	-2.807295
	5.330000	-2.833082
	5.335000	-2.736381
	5.340000	-2.717041
	5.345000	-2.813742
	5.350000	-2.833082
	5.355000	-2.736381
	5.360000	-2.720264
	5.365000	-2.820188
	5.370000	-2.836305
	5.375000	-2.739604
	5.380000	-2.726711
	5.385000	-2.820188
	5.390000	-2.842752
	5.395000	-2.739604
	5.400000	-2.723488
	5.405000	-2.820188
	5.410000	-2.839528
	5.415000	-2.742828
	5.420000	-2.726711
	5.425000	-2.826635
	5.430000	-2.845975
	5.435000	-2.746051
	5.440000	-2.723488
	5.445000	-2.823412
	5.450000	-2.845975
	5.455000	-2.746051
	5.460000	-2.726711
	5.465000	-2.829858
	5.470000	-2.845975
	5.475000	-2.742828
	5.480000	-2.729934
	5.485000	-2.833082
	5.490000	-2.842752
	5.495000	-2.746051
	5.500000	-2.733158
	5.505000	-2.833082
	5.510000	-2.849199
	5.515000	-2.752498
	5.520000	-2.726711
	5.525000	-2.833082
	5.530000	-2.842752
	5.535000	-2.755721
	5.540000	-2.729934
	5.545000	-2.836305
	5.550000	-2.849199
	5.555000	-2.752498
	5.560000	-2.733158
	5.565000	-2.826635
	5.570000	-2.855645
	5.575000	-2.742828
	5.580000	-2.726711
	5.585000	-2.833082
	5.590000	-2.845975
	5.595000	-2.746051
	5.600000	-2.729934
	5.605000	-2.826635
	5.610000	-2.839528
	5.615000	-2.739604
	5.620000	-2.729934
	5.625000	-2.826635
	5.630000	-2.839528
	5.635000	-2.749274
	5.640000	-2.729934
	5.645000	-2.823412
	5.650000	-2.839528
	5.655000	-2.746051
	5.660000	-2.726711
	5.665000	-2.826635
	5.670000	-2.839528
	5.675000	-2.746051
	5.680000	-2.723488
	5.685000	-2.829858
	5.690000	-2.839528
	5.695000	-2.746051
	5.700000	-2.726711
	5.705000	-2.826635
	5.710000	-2.842752
	5.715000	-2.746051
	5.720000	-2.726711
	5.725000	-2.826635
	5.730000	-2.842752
	5.735000	-2.746051
	5.740000	-2.733158
	5.745000	-2.826635
	5.750000	-2.839528
	5.755000	-2.746051
	5.760000	-2.729934
	5.765000	-2.826635
	5.770000	-2.842752
	5.775000	-2.742828
	5.780000	-2.729934
	5.785000	-2.829858
	5.790000	-2.836305
	5.795000	-2.742828
	5.800000	-2.726711
	5.805000	-2.826635
	5.810000	-2.842752
	5.815000	-2.742828
	5.820000	-2.726711
	5.825000	-2.820188
	5.830000	-2.845975
	5.835000	-2.742828
	5.840000	-2.723488
	5.845000	-2.829858
	5.850000	-2.849199
	5.855000	-2.746051
	5.860000	-2.723488
	5.865000	-2.823412
	5.870000	-2.836305
	5.875000	-2.742828
	5.880000	-2.726711
	5.885000	-2.826635
	5.890000	-2.836305
	5.895000	-2.742828
	5.900000	-2.729934
	5.905000	-2.829858
	5.910000	-2.842752
	5.915000	-2.746051
	5.920000	-2.729934
	5.925000	-2.826635
	5.930000	-2.845975
	5.935000	-2.742828
	5.940000	-2.726711
	5.945000	-2.823412
	5.950000	-2.839528
	5.955000	-2.739604
	5.960000	-2.726711
	5.965000	-2.829858
	5.970000	-2.839528
	5.975000	-2.742828
	5.980000	-2.723488
	5.985000	-2.823412
	5.990000	-2.839528
	5.995000	-2.739604
	6.000000	-2.723488
	6.005000	-2.823412
	6.010000	-2.833082
	6.015000	-2.736381
	6.020000	-2.726711
	6.025000	-2.820188
	6.030000	-2.833082
	6.035000	-2.742828
	6.040000	-2.723488
	6.045000	-2.816965
	6.050000	-2.836305
	6.055000	-2.736381
	6.060000	-2.717041
	6.065000	-2.820188
	6.070000	-2.833082
	6.075000	-2.733158
	6.080000	-2.720264
	6.085000	-2.820188
	6.090000	-2.833082
	6.095000	-2.733158
	6.100000	-2.720264
	6.105000	-2.816965
	6.110000	-2.833082
	6.115000	-2.733158
	6.120000	-2.713817
	6.125000	-2.813742
	6.130000	-2.829858
	6.135000	-2.733158
	6.140000	-2.713817
	6.145000	-2.807295
	6.150000	-2.836305
	6.155000	-2.729934
	6.160000	-2.713817
	6.165000	-2.807295
	6.170000	-2.829858
	6.175000	-2.733158
	6.180000	-2.717041
	6.185000	-2.813742
	6.190000	-2.826635
	6.195000	-2.729934
	6.200000	-2.707371
	6.205000	-2.807295
	6.210000	-2.826635
	6.215000	-2.729934
	6.220000	-2.707371
	6.225000	-2.807295
	6.230000	-2.816965
	6.235000	-2.726711
	6.240000	-2.704147
	6.245000	-2.800848
	6.250000	-2.823412
	6.255000	-2.720264
	6.260000	-2.707371
	6.265000	-2.804072
	6.270000	-2.816965
	6.275000	-2.717041
	6.280000	-2.710594
	6.285000	-2.804072
	6.290000	-2.816965
	6.295000	-2.720264
	6.300000	-2.704147
	6.305000	-2.800848
	6.310000	-2.816965
	6.315000	-2.720264
	6.320000	-2.691254
	6.325000	-2.804072
	6.330000	-2.816965
	6.335000	-2.717041
	6.340000	-2.697701
	6.345000	-2.794401
	6.350000	-2.813742
	6.355000	-2.717041
	6.360000	-2.688031
	6.365000	-2.797625
	6.370000	-2.807295
	6.375000	-2.713817
	6.380000	-2.694477
	6.385000	-2.791178
	6.390000	-2.807295
	6.395000	-2.713817
	6.400000	-2.697701
	6.405000	-2.794401
	6.410000	-2.810518
	6.415000	-2.707371
	6.420000	-2.697701
	6.425000	-2.794401
	6.430000	-2.813742
	6.435000	-2.713817
	6.440000	-2.694477
	6.445000	-2.797625
	6.450000	-2.804072
	6.455000	-2.707371
	6.460000	-2.694477
	6.465000	-2.794401
	6.470000	-2.816965
	6.475000	-2.713817
	6.480000	-2.691254
	6.485000	-2.794401
	6.490000	-2.813742
	6.495000	-2.710594
	6.500000	-2.697701
	6.505000	-2.797625
	6.510000	-2.810518
	6.515000	-2.713817
	6.520000	-2.697701
	6.525000	-2.797625
	6.530000	-2.810518
	6.535000	-2.710594
	6.540000	-2.694477
	6.545000	-2.794401
	6.550000	-2.813742
	6.555000	-2.710594
	6.560000	-2.697701
	6.565000	-2.797625
	6.570000	-2.813742
	6.575000	-2.713817
	6.580000	-2.697701
	6.585000	-2.791178
	6.590000	-2.816965
	6.595000	-2.720264
	6.600000	-2.691254
	6.605000	-2.797625
	6.610000	-2.820188
	6.615000	-2.713817
	6.620000	-2.700924
	6.625000	-2.797625
	6.630000	-2.820188
	6.635000	-2.720264
	6.640000	-2.704147
	6.645000	-2.797625
	6.650000	-2.820188
	6.655000	-2.720264
	6.660000	-2.704147
	6.665000	-2.804072
	6.670000	-2.823412
	6.675000	-2.720264
	6.680000	-2.700924
	6.685000	-2.804072
	6.690000	-2.826635
	6.695000	-2.723488
	6.700000	-2.710594
	6.705000	-2.807295
	6.710000	-2.823412
	6.715000	-2.723488
	6.720000	-2.704147
	6.725000	-2.800848
	6.730000	-2.823412
	6.735000	-2.723488
	6.740000	-2.704147
	6.745000	-2.807295
	6.750000	-2.820188
	6.755000	-2.720264
	6.760000	-2.704147
	6.765000	-2.807295
	6.770000	-2.826635
	6.775000	-2.720264
	6.780000	-2.704147
	6.785000	-2.797625
	6.790000	-2.823412
	6.795000	-2.713817
	6.800000	-2.700924
	6.805000	-2.800848
	6.810000	-2.816965
	6.815000	-2.720264
	6.820000	-2.694477
	6.825000	-2.794401
	6.830000	-2.816965
	6.835000	-2.713817
	6.840000	-2.694477
	6.845000	-2.794401
	6.850000	-2.810518
	6.855000	-2.710594
	6.860000	-2.694477
	6.865000	-2.791178
	6.870000	-2.813742
	6.875000	-2.710594
	6.880000	-2.691254
	6.885000	-2.791178
	6.890000	-2.810518
	6.895000	-2.707371
	6.900000	-2.694477
	6.905000	-2.787955
	6.910000	-2.810518
	6.915000	-2.707371
	6.920000	-2.684807
	6.925000	-2.794401
	6.930000	-2.816965
	6.935000	-2.704147
	6.940000	-2.691254
	6.945000	-2.794401
	6.950000	-2.807295
	6.955000	-2.713817
	6.960000	-2.694477
	6.965000	-2.791178
	6.970000	-2.810518
	6.975000	-2.713817
	6.980000	-2.697701
	6.985000	-2.797625
	6.990000	-2.810518
	6.995000	-2.707371
	7.000000	-2.697701
	7.005000	-2.794401
	7.010000	-2.813742
	7.015000	-2.713817
	7.020000	-2.694477
	7.025000	-2.794401
	7.030000	-2.816965
	7.035000	-2.713817
	7.040000	-2.697701
	7.045000	-2.797625
	7.050000	-2.813742
	7.055000	-2.710594
	7.060000	-2.700924
	7.065000	-2.791178
	7.070000	-2.820188
	7.075000	-2.713817
	7.080000	-2.694477
	7.085000	-2.797625
	7.090000	-2.807295
	7.095000	-2.710594
	7.100000	-2.694477
	7.105000	-2.787955
	7.110000	-2.807295
	7.115000	-2.697701
	7.120000	-2.684807
	7.125000	-2.778285
	7.130000	-2.797625
	7.135000	-2.688031
	7.140000	-2.671914
	7.145000	-2.765391
	7.150000	-2.775061
	7.155000	-2.671914
	7.160000	-2.649350
	7.165000	-2.746051
	7.170000	-2.755721
	7.175000	-2.652574
	7.180000	-2.630010
	7.185000	-2.726711
	7.190000	-2.736381
	7.195000	-2.633233
	7.200000	-2.613893
	7.205000	-2.704147
	7.210000	-2.723488
	7.215000	-2.613893
	7.220000	-2.594553
	7.225000	-2.691254
	7.230000	-2.697701
	7.235000	-2.601000
	7.240000	-2.581660
	7.245000	-2.671914
	7.250000	-2.688031
	7.255000	-2.588106
	7.260000	-2.568766
	7.265000	-2.675137
	7.270000	-2.678361
	7.275000	-2.578436
	7.280000	-2.568766
	7.285000	-2.659020
	7.290000	-2.675137
	7.295000	-2.575213
	7.300000	-2.552650
	7.305000	-2.649350
	7.310000	-2.665467
	7.315000	-2.571990
	7.320000	-2.552650
	7.325000	-2.642904
	7.330000	-2.665467
	7.335000	-2.562320
	7.340000	-2.552650
	7.345000	-2.646127
	7.350000	-2.665467
	7.355000	-2.575213
	7.360000	-2.552650
	7.365000	-2.649350
	7.370000	-2.668690
	7.375000	-2.578436
	7.380000	-2.562320
	7.385000	-2.655797
	7.390000	-2.675137
	7.395000	-2.581660
	7.400000	-2.568766
	7.405000	-2.665467
	7.410000	-2.691254
	7.415000	-2.601000
	7.420000	-2.581660
	7.425000	-2.684807
	7.430000	-2.707371
	7.435000	-2.610670
	7.440000	-2.604223
	7.445000	-2.700924
	7.450000	-2.726711
	7.455000	-2.630010
	7.460000	-2.617117
	7.465000	-2.720264
	7.470000	-2.742828
	7.475000	-2.649350
	7.480000	-2.636457
	7.485000	-2.739604
	7.490000	-2.762168
	7.495000	-2.671914
	7.500000	-2.659020
	7.505000	-2.768615
	7.510000	-2.787955
	7.515000	-2.694477
	7.520000	-2.694477
	7.525000	-2.791178
	7.530000	-2.807295
	7.535000	-2.713817
	7.540000	-2.700924
	7.545000	-2.794401
	7.550000	-2.820188
	7.555000	-2.717041
	7.560000	-2.707371
	7.565000	-2.807295
	7.570000	-2.816965
	7.575000	-2.726711
	7.580000	-2.710594
	7.585000	-2.804072
	7.590000	-2.826635
	7.595000	-2.726711
	7.600000	-2.710594
	7.605000	-2.810518
	7.610000	-2.820188
	7.615000	-2.723488
	7.620000	-2.707371
	7.625000	-2.807295
	7.630000	-2.820188
	7.635000	-2.713817
	7.640000	-2.707371
	7.645000	-2.797625
	7.650000	-2.813742
	7.655000	-2.717041
	7.660000	-2.694477
	7.665000	-2.784731
	7.670000	-2.807295
	7.675000	-2.700924
	7.680000	-2.684807
	7.685000	-2.781508
	7.690000	-2.791178
	7.695000	-2.688031
	7.700000	-2.659020
	7.705000	-2.762168
	7.710000	-2.778285
	7.715000	-2.675137
	7.720000	-2.655797
	7.725000	-2.746051
	7.730000	-2.762168
	7.735000	-2.655797
	7.740000	-2.639680
	7.745000	-2.736381
	7.750000	-2.752498
	7.755000	-2.646127
	7.760000	-2.626787
	7.765000	-2.717041
	7.770000	-2.733158
	7.775000	-2.630010
	7.780000	-2.617117
	7.785000	-2.704147
	7.790000	-2.720264
	7.795000	-2.623563
	7.800000	-2.607447
	7.805000	-2.704147
	7.810000	-2.720264
	7.815000	-2.620340
	7.820000	-2.604223
	7.825000	-2.704147
	7.830000	-2.720264
	7.835000	-2.620340
	7.840000	-2.607447
	7.845000	-2.697701
	7.850000	-2.723488
	7.855000	-2.620340
	7.860000	-2.610670
	7.865000	-2.707371
	7.870000	-2.733158
	7.875000	-2.636457
	7.880000	-2.623563
	7.885000	-2.726711
	7.890000	-2.746051
	7.895000	-2.646127
	7.900000	-2.642904
	7.905000	-2.733158
	7.910000	-2.762168
	7.915000	-2.668690
	7.920000	-2.642904
	7.925000	-2.742828
	7.930000	-2.771838
	7.935000	-2.671914
	7.940000	-2.659020
	7.945000	-2.755721
	7.950000	-2.778285
	7.955000	-2.688031
	7.960000	-2.662244
	7.965000	-2.768615
	7.970000	-2.787955
	7.975000	-2.688031
	7.980000	-2.675137
	7.985000	-2.775061
	7.990000	-2.787955
	7.995000	-2.704147
	8.000000	-2.675137
	8.005000	-2.771838
	8.010000	-2.797625
	8.015000	-2.697701
	8.020000	-2.681584
	8.025000	-2.778285
	8.030000	-2.794401
	8.035000	-2.697701
	8.040000	-2.678361
	8.045000	-2.778285
	8.050000	-2.800848
	8.055000	-2.704147
	8.060000	-2.684807
	8.065000	-2.784731
	8.070000	-2.804072
	8.075000	-2.700924
	8.080000	-2.694477
	8.085000	-2.784731
	8.090000	-2.804072
	8.095000	-2.710594
	8.100000	-2.691254
	8.105000	-2.791178
	8.110000	-2.810518
	8.115000	-2.704147
	8.120000	-2.691254
	8.125000	-2.787955
	8.130000	-2.807295
	8.135000	-2.710594
	8.140000	-2.691254
	8.145000	-2.791178
	8.150000	-2.807295
	8.155000	-2.713817
	8.160000	-2.694477
	8.165000	-2.791178
	8.170000	-2.810518
	8.175000	-2.717041
	8.180000	-2.700924
	8.185000	-2.794401
	8.190000	-2.810518
	8.195000	-2.717041
	8.200000	-2.694477
	8.205000	-2.797625
	8.210000	-2.813742
	8.215000	-2.723488
	8.220000	-2.694477
	8.225000	-2.800848
	8.230000	-2.816965
	8.235000	-2.713817
	8.240000	-2.704147
	8.245000	-2.797625
	8.250000	-2.813742
	8.255000	-2.717041
	8.260000	-2.700924
	8.265000	-2.791178
	8.270000	-2.816965
	8.275000	-2.717041
	8.280000	-2.697701
	8.285000	-2.800848
	8.290000	-2.810518
	8.295000	-2.723488
	8.300000	-2.700924
	8.305000	-2.794401
	8.310000	-2.820188
	8.315000	-2.720264
	8.320000	-2.694477
	8.325000	-2.797625
	8.330000	-2.820188
	8.335000	-2.717041
	8.340000	-2.700924
	8.345000	-2.797625
	8.350000	-2.816965
	8.355000	-2.720264
	8.360000	-2.694477
	8.365000	-2.797625
	8.370000	-2.823412
	8.375000	-2.713817
	8.380000	-2.691254
	8.385000	-2.797625
	8.390000	-2.816965
	8.395000	-2.720264
	8.400000	-2.694477
	8.405000	-2.797625
	8.410000	-2.820188
	8.415000	-2.713817
	8.420000	-2.700924
	8.425000	-2.794401
	8.430000	-2.813742
	8.435000	-2.717041
	8.440000	-2.697701
	8.445000	-2.794401
	8.450000	-2.813742
	8.455000	-2.713817
	8.460000	-2.694477
	8.465000	-2.797625
	8.470000	-2.810518
	8.475000	-2.713817
	8.480000	-2.694477
	8.485000	-2.791178
	8.490000	-2.813742
	8.495000	-2.717041
	8.500000	-2.694477
	8.505000	-2.787955
	8.510000	-2.807295
	8.515000	-2.710594
	8.520000	-2.688031
	8.525000	-2.791178
	8.530000	-2.804072
	8.535000	-2.707371
	8.540000	-2.694477
	8.545000	-2.794401
	8.550000	-2.810518
	8.555000	-2.707371
	8.560000	-2.694477
	8.565000	-2.791178
	8.570000	-2.807295
	8.575000	-2.707371
	8.580000	-2.688031
	8.585000	-2.791178
	8.590000	-2.810518
	8.595000	-2.704147
	8.600000	-2.684807
	8.605000	-2.791178
	8.610000	-2.810518
	8.615000	-2.707371
	8.620000	-2.688031
	8.625000	-2.787955
	8.630000	-2.810518
	8.635000	-2.704147
	8.640000	-2.691254
	8.645000	-2.787955
	8.650000	-2.800848
	8.655000	-2.704147
	8.660000	-2.688031
	8.665000	-2.784731
	8.670000	-2.797625
	8.675000	-2.710594
	8.680000	-2.691254
	8.685000	-2.791178
	8.690000	-2.810518
	8.695000	-2.710594
	8.700000	-2.691254
	8.705000	-2.784731
	8.710000	-2.804072
	8.715000	-2.710594
	8.720000	-2.684807
	8.725000	-2.791178
	8.730000	-2.810518
	8.735000	-2.707371
	8.740000	-2.688031
	8.745000	-2.787955
	8.750000	-2.804072
	8.755000	-2.710594
	8.760000	-2.688031
	8.765000	-2.791178
	8.770000	-2.804072
	8.775000	-2.710594
	8.780000	-2.694477
	8.785000	-2.791178
	8.790000	-2.810518
	8.795000	-2.704147
	8.800000	-2.688031
	8.805000	-2.787955
	8.810000	-2.813742
	8.815000	-2.707371
	8.820000	-2.684807
	8.825000	-2.784731
	8.830000	-2.804072
	8.835000	-2.713817
	8.840000	-2.691254
	8.845000	-2.787955
	8.850000	-2.807295
	8.855000	-2.710594
	8.860000	-2.691254
	8.865000	-2.781508
	8.870000	-2.810518
	8.875000	-2.717041
	8.880000	-2.694477
	8.885000	-2.791178
	8.890000	-2.804072
	8.895000	-2.710594
	8.900000	-2.694477
	8.905000	-2.791178
	8.910000	-2.804072
	8.915000	-2.710594
	8.920000	-2.694477
	8.925000	-2.791178
	8.930000	-2.810518
	8.935000	-2.707371
	8.940000	-2.684807
	8.945000	-2.791178
	8.950000	-2.807295
	8.955000	-2.704147
	8.960000	-2.694477
	8.965000	-2.791178
	8.970000	-2.804072
	8.975000	-2.713817
	8.980000	-2.688031
	8.985000	-2.781508
	8.990000	-2.807295
	8.995000	-2.710594
	9.000000	-2.681584
	9.005000	-2.781508
	9.010000	-2.804072
	9.015000	-2.704147
	9.020000	-2.681584
	9.025000	-2.784731
	9.030000	-2.804072
	9.035000	-2.704147
	9.040000	-2.678361
	9.045000	-2.775061
	9.050000	-2.800848
	9.055000	-2.700924
	9.060000	-2.684807
	9.065000	-2.778285
	9.070000	-2.800848
	9.075000	-2.700924
	9.080000	-2.681584
	9.085000	-2.775061
	9.090000	-2.797625
	9.095000	-2.694477
	9.100000	-2.678361
	9.105000	-2.778285
	9.110000	-2.797625
	9.115000	-2.697701
	9.120000	-2.678361
	9.125000	-2.781508
	9.130000	-2.800848
	9.135000	-2.700924
	9.140000	-2.675137
	9.145000	-2.771838
	9.150000	-2.794401
	9.155000	-2.697701
	9.160000	-2.678361
	9.165000	-2.775061
	9.170000	-2.794401
	9.175000	-2.700924
	9.180000	-2.675137
	9.185000	-2.775061
	9.190000	-2.794401
	9.195000	-2.691254
	9.200000	-2.681584
	9.205000	-2.778285
	9.210000	-2.794401
	9.215000	-2.694477
	9.220000	-2.668690
	9.225000	-2.768615
	9.230000	-2.794401
	9.235000	-2.694477
	9.240000	-2.671914
	9.245000	-2.771838
	9.250000	-2.784731
	9.255000	-2.691254
	9.260000	-2.668690
	9.265000	-2.768615
	9.270000	-2.784731
	9.275000	-2.691254
	9.280000	-2.665467
	9.285000	-2.775061
	9.290000	-2.787955
	9.295000	-2.691254
	9.300000	-2.668690
	9.305000	-2.765391
	9.310000	-2.787955
	9.315000	-2.688031
	9.320000	-2.671914
	9.325000	-2.765391
	9.330000	-2.787955
	9.335000	-2.688031
	9.340000	-2.665467
	9.345000	-2.765391
	9.350000	-2.784731
	9.355000	-2.688031
	9.360000	-2.671914
	9.365000	-2.771838
	9.370000	-2.791178
	9.375000	-2.691254
	9.380000	-2.668690
	9.385000	-2.768615
	9.390000	-2.787955
	9.395000	-2.688031
	9.400000	-2.662244
	9.405000	-2.762168
	9.410000	-2.787955
	9.415000	-2.688031
	9.420000	-2.665467
	9.425000	-2.765391
	9.430000	-2.781508
	9.435000	-2.688031
	9.440000	-2.665467
	9.445000	-2.762168
	9.450000	-2.781508
	9.455000	-2.688031
	9.460000	-2.665467
	9.465000	-2.765391
	9.470000	-2.784731
	9.475000	-2.688031
	9.480000	-2.665467
	9.485000	-2.762168
	9.490000	-2.781508
	9.495000	-2.684807
	9.500000	-2.662244
	9.505000	-2.752498
	9.510000	-2.781508
	9.515000	-2.684807
	9.520000	-2.668690
	9.525000	-2.765391
	9.530000	-2.781508
	9.535000	-2.681584
	9.540000	-2.665467
	9.545000	-2.762168
	9.550000	-2.778285
	9.555000	-2.675137
	9.560000	-2.655797
	9.565000	-2.762168
	9.570000	-2.781508
	9.575000	-2.684807
	9.580000	-2.659020
	9.585000	-2.758944
	9.590000	-2.775061
	9.595000	-2.684807
	9.600000	-2.655797
	9.605000	-2.752498
	9.610000	-2.787955
	9.615000	-2.684807
	9.620000	-2.665467
	9.625000	-2.752498
	9.630000	-2.781508
	9.635000	-2.678361
	9.640000	-2.659020
	9.645000	-2.755721
	9.650000	-2.778285
	9.655000	-2.684807
	9.660000	-2.662244
	9.665000	-2.752498
	9.670000	-2.781508
	9.675000	-2.678361
	9.680000	-2.662244
	9.685000	-2.755721
	9.690000	-2.778285
	9.695000	-2.681584
	9.700000	-2.655797
	9.705000	-2.755721
	9.710000	-2.778285
	9.715000	-2.681584
	9.720000	-2.662244
	9.725000	-2.758944
	9.730000	-2.784731
	9.735000	-2.681584
	9.740000	-2.662244
	9.745000	-2.758944
	9.750000	-2.778285
	9.755000	-2.681584
	9.760000	-2.659020
	9.765000	-2.755721
	9.770000	-2.784731
	9.775000	-2.681584
	9.780000	-2.659020
	9.785000	-2.768615
	9.790000	-2.781508
	9.795000	-2.675137
	9.800000	-2.659020
	9.805000	-2.762168
	9.810000	-2.781508
	9.815000	-2.681584
	9.820000	-2.662244
	9.825000	-2.758944
	9.830000	-2.778285
	9.835000	-2.681584
	9.840000	-2.665467
	9.845000	-2.765391
	9.850000	-2.781508
	9.855000	-2.684807
	9.860000	-2.662244
	9.865000	-2.758944
	9.870000	-2.781508
	9.875000	-2.684807
	9.880000	-2.665467
	9.885000	-2.758944
	9.890000	-2.784731
	9.895000	-2.684807
	9.900000	-2.662244
	9.905000	-2.765391
	9.910000	-2.781508
	9.915000	-2.688031
	9.920000	-2.665467
	9.925000	-2.755721
	9.930000	-2.778285
	9.935000	-2.691254
	9.940000	-2.655797
	9.945000	-2.762168
	9.950000	-2.791178
	9.955000	-2.688031
	9.960000	-2.671914
	9.965000	-2.771838
	9.970000	-2.787955
	9.975000	-2.697701
	9.980000	-2.671914
	9.985000	-2.768615
	9.990000	-2.791178
	9.995000	-2.691254
	10.000000	-2.668690
	10.005000	-2.768615
	10.010000	-2.797625
	10.015000	-2.704147
	10.020000	-2.681584
	10.025000	-2.775061
	10.030000	-2.800848
	10.035000	-2.704147
	10.040000	-2.681584
	10.045000	-2.784731
	10.050000	-2.804072
	10.055000	-2.704147
	10.060000	-2.684807
	10.065000	-2.784731
	10.070000	-2.810518
	10.075000	-2.710594
	10.080000	-2.688031
	10.085000	-2.787955
	10.090000	-2.813742
	10.095000	-2.707371
	10.100000	-2.691254
	10.105000	-2.781508
	10.110000	-2.807295
	10.115000	-2.710594
	10.120000	-2.678361
	10.125000	-2.784731
	10.130000	-2.800848
	10.135000	-2.700924
	10.140000	-2.675137
	10.145000	-2.771838
	10.150000	-2.787955
	10.155000	-2.688031
	10.160000	-2.659020
	10.165000	-2.758944
	10.170000	-2.768615
	10.175000	-2.671914
	10.180000	-2.649350
	10.185000	-2.742828
	10.190000	-2.758944
	10.195000	-2.655797
	10.200000	-2.623563
	10.205000	-2.723488
	10.210000	-2.739604
	10.215000	-2.639680
	10.220000	-2.613893
	10.225000	-2.704147
	10.230000	-2.726711
	10.235000	-2.623563
	10.240000	-2.597777
	10.245000	-2.691254
	10.250000	-2.707371
	10.255000	-2.610670
	10.260000	-2.588106
	10.265000	-2.678361
	10.270000	-2.691254
	10.275000	-2.597777
	10.280000	-2.568766
	10.285000	-2.662244
	10.290000	-2.681584
	10.295000	-2.584883
	10.300000	-2.552650
	10.305000	-2.646127
	10.310000	-2.668690
	10.315000	-2.562320
	10.320000	-2.546203
	10.325000	-2.642904
	10.330000	-2.655797
	10.335000	-2.565543
	10.340000	-2.536533
	10.345000	-2.639680
	10.350000	-2.655797
	10.355000	-2.562320
	10.360000	-2.533309
	10.365000	-2.633233
	10.370000	-2.652574
	10.375000	-2.552650
	10.380000	-2.530086
	10.385000	-2.626787
	10.390000	-2.652574
	10.395000	-2.562320
	10.400000	-2.546203
	10.405000	-2.639680
	10.410000	-2.665467
	10.415000	-2.568766
	10.420000	-2.555873
	10.425000	-2.649350
	10.430000	-2.675137
	10.435000	-2.584883
	10.440000	-2.562320
	10.445000	-2.659020
	10.450000	-2.688031
	10.455000	-2.601000
	10.460000	-2.571990
	10.465000	-2.675137
	10.470000	-2.704147
	10.475000	-2.613893
	10.480000	-2.594553
	10.485000	-2.691254
	10.490000	-2.720264
	10.495000	-2.623563
	10.500000	-2.610670
	10.505000	-2.707371
	10.510000	-2.726711
	10.515000	-2.636457
	10.520000	-2.620340
	10.525000	-2.723488
	10.530000	-2.746051
	10.535000	-2.659020
	10.540000	-2.636457
	10.545000	-2.742828
	10.550000	-2.771838
	10.555000	-2.678361
	10.560000	-2.665467
	10.565000	-2.758944
	10.570000	-2.784731
	10.575000	-2.697701
	10.580000	-2.675137
	10.585000	-2.768615
	10.590000	-2.797625
	10.595000	-2.700924
	10.600000	-2.678361
	10.605000	-2.778285
	10.610000	-2.800848
	10.615000	-2.700924
	10.620000	-2.681584
	10.625000	-2.768615
	10.630000	-2.794401
	10.635000	-2.691254
	10.640000	-2.668690
	10.645000	-2.765391
	10.650000	-2.791178
	10.655000	-2.691254
	10.660000	-2.662244
	10.665000	-2.752498
	10.670000	-2.778285
	10.675000	-2.668690
	10.680000	-2.642904
	10.685000	-2.733158
	10.690000	-2.755721
	10.695000	-2.652574
	10.700000	-2.630010
	10.705000	-2.720264
	10.710000	-2.739604
	10.715000	-2.636457
	10.720000	-2.610670
	10.725000	-2.697701
	10.730000	-2.717041
	10.735000	-2.623563
	10.740000	-2.591330
	10.745000	-2.688031
	10.750000	-2.717041
	10.755000	-2.617117
	10.760000	-2.588106
	10.765000	-2.681584
	10.770000	-2.707371
	10.775000	-2.613893
	10.780000	-2.581660
	10.785000	-2.678361
	10.790000	-2.700924
	10.795000	-2.597777
	10.800000	-2.581660
	10.805000	-2.668690
	10.810000	-2.704147
	10.815000	-2.597777
	10.820000	-2.581660
	10.825000	-2.678361
	10.830000	-2.694477
	10.835000	-2.604223
	10.840000	-2.584883
	10.845000	-2.671914
	10.850000	-2.697701
	10.855000	-2.610670
	10.860000	-2.588106
	10.865000	-2.675137
	10.870000	-2.700924
	10.875000	-2.610670
	10.880000	-2.588106
	10.885000	-2.684807
	10.890000	-2.713817
	10.895000	-2.620340
	10.900000	-2.604223
	10.905000	-2.694477
	10.910000	-2.723488
	10.915000	-2.633233
	10.920000	-2.604223
	10.925000	-2.704147
	10.930000	-2.729934
	10.935000	-2.642904
	10.940000	-2.623563
	10.945000	-2.717041
	10.950000	-2.739604
	10.955000	-2.646127
	10.960000	-2.626787
	10.965000	-2.726711
	10.970000	-2.749274
	10.975000	-2.655797
	10.980000	-2.630010
	10.985000	-2.723488
	10.990000	-2.758944
	10.995000	-2.662244
	11.000000	-2.636457
	11.005000	-2.746051
	11.010000	-2.758944
	11.015000	-2.675137
	11.020000	-2.642904
	11.025000	-2.742828
	11.030000	-2.768615
	11.035000	-2.678361
	11.040000	-2.652574
	11.045000	-2.746051
	11.050000	-2.771838
	11.055000	-2.678361
	11.060000	-2.662244
	11.065000	-2.749274
	11.070000	-2.775061
	11.075000	-2.681584
	11.080000	-2.655797
	11.085000	-2.752498
	11.090000	-2.778285
	11.095000	-2.684807
	11.100000	-2.662244
	11.105000	-2.758944
	11.110000	-2.781508
	11.115000	-2.691254
	11.120000	-2.659020
	11.125000	-2.762168
	11.130000	-2.784731
	11.135000	-2.691254
	11.140000	-2.665467
	11.145000	-2.758944
	11.150000	-2.791178
	11.155000	-2.694477
	11.160000	-2.668690
	11.165000	-2.762168
	11.170000	-2.787955
	11.175000	-2.697701
	11.180000	-2.668690
	11.185000	-2.765391
	11.190000	-2.791178
	11.195000	-2.697701
	11.200000	-2.668690
	11.205000	-2.762168
	11.210000	-2.794401
	11.215000	-2.697701
	11.220000	-2.671914
	11.225000	-2.765391
	11.230000	-2.794401
	11.235000	-2.700924
	11.240000	-2.665467
	11.245000	-2.765391
	11.250000	-2.791178
	11.255000	-2.700924
	11.260000	-2.668690
	11.265000	-2.762168
	11.270000	-2.791178
	11.275000	-2.694477
	11.280000	-2.668690
	11.285000	-2.771838
	11.290000	-2.791178
	11.295000	-2.700924
	11.300000	-2.671914
	11.305000	-2.762168
	11.310000	-2.794401
	11.315000	-2.697701
	11.320000	-2.668690
	11.325000	-2.768615
	11.330000	-2.794401
	11.335000	-2.694477
	11.340000	-2.671914
	11.345000	-2.768615
	11.350000	-2.791178
	11.355000	-2.694477
	11.360000	-2.671914
	11.365000	-2.768615
	11.370000	-2.787955
	11.375000	-2.700924
	11.380000	-2.668690
	11.385000	-2.762168
	11.390000	-2.794401
	11.395000	-2.694477
	11.400000	-2.671914
	11.405000	-2.765391
	11.410000	-2.791178
	11.415000	-2.694477
	11.420000	-2.671914
	11.425000	-2.758944
	11.430000	-2.794401
	11.435000	-2.694477
	11.440000	-2.668690
	11.445000	-2.762168
	11.450000	-2.794401
	11.455000	-2.691254
	11.460000	-2.668690
	11.465000	-2.765391
	11.470000	-2.791178
	11.475000	-2.704147
	11.480000	-2.668690
	11.485000	-2.762168
	11.490000	-2.794401
	11.495000	-2.697701
	11.500000	-2.665467
	11.505000	-2.765391
	11.510000	-2.797625
	11.515000	-2.694477
	11.520000	-2.671914
	11.525000	-2.762168
	11.530000	-2.797625
	11.535000	-2.697701
	11.540000	-2.668690
	11.545000	-2.762168
	11.550000	-2.797625
	11.555000	-2.704147
	11.560000	-2.665467
	11.565000	-2.765391
	11.570000	-2.797625
	11.575000	-2.700924
	11.580000	-2.668690
	11.585000	-2.765391
	11.590000	-2.797625
	11.595000	-2.694477
	11.600000	-2.671914
	11.605000	-2.758944
	11.610000	-2.794401
	11.615000	-2.694477
	11.620000	-2.665467
	11.625000	-2.768615
	11.630000	-2.794401
	11.635000	-2.700924
	11.640000	-2.668690
	11.645000	-2.765391
	11.650000	-2.797625
	11.655000	-2.694477
	11.660000	-2.668690
	11.665000	-2.768615
	11.670000	-2.794401
	11.675000	-2.697701
	11.680000	-2.671914
	11.685000	-2.768615
	11.690000	-2.794401
	11.695000	-2.697701
	11.700000	-2.678361
	11.705000	-2.765391
	11.710000	-2.794401
	11.715000	-2.697701
	11.720000	-2.668690
	11.725000	-2.765391
	11.730000	-2.791178
	11.735000	-2.704147
	11.740000	-2.678361
	11.745000	-2.768615
	11.750000	-2.797625
	11.755000	-2.697701
	11.760000	-2.675137
	11.765000	-2.762168
	11.770000	-2.800848
	11.775000	-2.700924
	11.780000	-2.671914
	11.785000	-2.771838
	11.790000	-2.800848
	11.795000	-2.700924
	11.800000	-2.668690
	11.805000	-2.765391
	11.810000	-2.791178
	11.815000	-2.700924
	11.820000	-2.671914
	11.825000	-2.765391
	11.830000	-2.791178
	11.835000	-2.700924
	11.840000	-2.671914
	11.845000	-2.768615
	11.850000	-2.791178
	11.855000	-2.697701
	11.860000	-2.668690
	11.865000	-2.768615
	11.870000	-2.797625
	11.875000	-2.704147
	11.880000	-2.671914
	11.885000	-2.768615
	11.890000	-2.797625
	11.895000	-2.700924
	11.900000	-2.675137
	11.905000	-2.771838
	11.910000	-2.794401
	11.915000	-2.700924
	11.920000	-2.665467
	11.925000	-2.765391
	11.930000	-2.794401
	11.935000	-2.697701
	11.940000	-2.668690
	11.945000	-2.765391
	11.950000	-2.797625
	11.955000	-2.704147
	11.960000	-2.675137
	11.965000	-2.765391
	11.970000	-2.797625
	11.975000	-2.694477
	11.980000	-2.671914
	11.985000	-2.762168
	11.990000	-2.791178
	11.995000	-2.697701
	12.000000	-2.665467
	12.005000	-2.762168
	12.010000	-2.794401
	12.015000	-2.694477
	12.020000	-2.665467
	12.025000	-2.762168
	12.030000	-2.791178
	12.035000	-2.694477
	12.040000	-2.668690
	12.045000	-2.762168
	12.050000	-2.787955
	12.055000	-2.694477
	12.060000	-2.665467
	12.065000	-2.758944
	12.070000	-2.787955
	12.075000	-2.694477
	12.080000	-2.659020
	12.085000	-2.755721
	12.090000	-2.778285
	12.095000	-2.684807
	12.100000	-2.649350
	12.105000	-2.746051
	12.110000	-2.771838
	12.115000	-2.675137
	12.120000	-2.639680
	12.125000	-2.733158
	12.130000	-2.758944
	12.135000	-2.668690
	12.140000	-2.639680
	12.145000	-2.729934
	12.150000	-2.755721
	12.155000	-2.655797
	12.160000	-2.626787
	12.165000	-2.723488
	12.170000	-2.752498
	12.175000	-2.659020
	12.180000	-2.620340
	12.185000	-2.713817
	12.190000	-2.749274
	12.195000	-2.649350
	12.200000	-2.617117
	12.205000	-2.723488
	12.210000	-2.746051
	12.215000	-2.652574
	12.220000	-2.617117
	12.225000	-2.720264
	12.230000	-2.749274
	12.235000	-2.665467
	12.240000	-2.630010
	12.245000	-2.726711
	12.250000	-2.765391
	12.255000	-2.665467
	12.260000	-2.636457
	12.265000	-2.729934
	12.270000	-2.768615
	12.275000	-2.668690
	12.280000	-2.639680
	12.285000	-2.729934
	12.290000	-2.765391
	12.295000	-2.671914
	12.300000	-2.646127
	12.305000	-2.729934
	12.310000	-2.762168
	12.315000	-2.668690
	12.320000	-2.633233
	12.325000	-2.733158
	12.330000	-2.758944
	12.335000	-2.665467
	12.340000	-2.633233
	12.345000	-2.720264
	12.350000	-2.755721
	12.355000	-2.662244
	12.360000	-2.636457
	12.365000	-2.729934
	12.370000	-2.758944
	12.375000	-2.659020
	12.380000	-2.630010
	12.385000	-2.720264
	12.390000	-2.752498
	12.395000	-2.662244
	12.400000	-2.626787
	12.405000	-2.723488
	12.410000	-2.752498
	12.415000	-2.655797
	12.420000	-2.617117
	12.425000	-2.713817
	12.430000	-2.752498
	12.435000	-2.655797
	12.440000	-2.620340
	12.445000	-2.713817
	12.450000	-2.742828
	12.455000	-2.646127
	12.460000	-2.623563
	12.465000	-2.710594
	12.470000	-2.749274
	12.475000	-2.646127
	12.480000	-2.620340
	12.485000	-2.710594
	12.490000	-2.736381
	12.495000	-2.649350
	12.500000	-2.617117
	12.505000	-2.707371
	12.510000	-2.742828
	12.515000	-2.649350
	12.520000	-2.613893
	12.525000	-2.704147
	12.530000	-2.742828
	12.535000	-2.642904
	12.540000	-2.610670
	12.545000	-2.704147
	12.550000	-2.739604
	12.555000	-2.646127
	12.560000	-2.607447
	12.565000	-2.704147
	12.570000	-2.746051
	12.575000	-2.642904
	12.580000	-2.604223
	12.585000	-2.704147
	12.590000	-2.739604
	12.595000	-2.636457
	12.600000	-2.601000
	12.605000	-2.697701
	12.610000	-2.736381
	12.615000	-2.642904
	12.620000	-2.607447
	12.625000	-2.700924
	12.630000	-2.739604
	12.635000	-2.639680
	12.640000	-2.604223
	12.645000	-2.694477
	12.650000	-2.729934
	12.655000	-2.639680
	12.660000	-2.610670
	12.665000	-2.694477
	12.670000	-2.729934
	12.675000	-2.630010
	12.680000	-2.604223
	12.685000	-2.697701
	12.690000	-2.729934
	12.695000	-2.633233
	12.700000	-2.601000
	12.705000	-2.694477
	12.710000	-2.726711
	12.715000	-2.630010
	12.720000	-2.594553
	12.725000	-2.694477
	12.730000	-2.726711
	12.735000	-2.630010
	12.740000	-2.597777
	12.745000	-2.691254
	12.750000	-2.729934
	12.755000	-2.626787
	12.760000	-2.607447
	12.765000	-2.691254
	12.770000	-2.729934
	12.775000	-2.636457
	12.780000	-2.604223
	12.785000	-2.700924
	12.790000	-2.729934
	12.795000	-2.633233
	12.800000	-2.610670
	12.805000	-2.700924
	12.810000	-2.733158
	12.815000	-2.639680
	12.820000	-2.607447
	12.825000	-2.704147
	12.830000	-2.739604
	12.835000	-2.646127
	12.840000	-2.613893
	12.845000	-2.713817
	12.850000	-2.746051
	12.855000	-2.652574
	12.860000	-2.617117
	12.865000	-2.713817
	12.870000	-2.749274
	12.875000	-2.655797
	12.880000	-2.630010
	12.885000	-2.720264
	12.890000	-2.758944
	12.895000	-2.665467
	12.900000	-2.623563
	12.905000	-2.726711
	12.910000	-2.765391
	12.915000	-2.668690
	12.920000	-2.633233
	12.925000	-2.729934
	12.930000	-2.765391
	12.935000	-2.668690
	12.940000	-2.636457
	12.945000	-2.729934
	12.950000	-2.765391
	12.955000	-2.668690
	12.960000	-2.636457
	12.965000	-2.733158
	12.970000	-2.765391
	12.975000	-2.668690
	12.980000	-2.639680
	12.985000	-2.733158
	12.990000	-2.765391
	12.995000	-2.675137
	13.000000	-2.639680
	13.005000	-2.736381
	13.010000	-2.765391
	13.015000	-2.678361
	13.020000	-2.636457
	13.025000	-2.733158
	13.030000	-2.762168
	13.035000	-2.665467
	13.040000	-2.636457
	13.045000	-2.720264
	13.050000	-2.752498
	13.055000	-2.655797
	13.060000	-2.623563
	13.065000	-2.707371
	13.070000	-2.739604
	13.075000	-2.642904
	13.080000	-2.597777
	13.085000	-2.684807
	13.090000	-2.717041
	13.095000	-2.613893
	13.100000	-2.575213
	13.105000	-2.668690
	13.110000	-2.694477
	13.115000	-2.597777
	13.120000	-2.555873
	13.125000	-2.642904
	13.130000	-2.675137
	13.135000	-2.584883
	13.140000	-2.542979
	13.145000	-2.630010
	13.150000	-2.668690
	13.155000	-2.575213
	13.160000	-2.533309
	13.165000	-2.620340
	13.170000	-2.652574
	13.175000	-2.559096
	13.180000	-2.526863
	13.185000	-2.613893
	13.190000	-2.655797
	13.195000	-2.559096
	13.200000	-2.533309
	13.205000	-2.620340
	13.210000	-2.649350
	13.215000	-2.559096
	13.220000	-2.530086
	13.225000	-2.626787
	13.230000	-2.659020
	13.235000	-2.575213
	13.240000	-2.539756
	13.245000	-2.633233
	13.250000	-2.668690
	13.255000	-2.578436
	13.260000	-2.552650
	13.265000	-2.649350
	13.270000	-2.678361
	13.275000	-2.594553
	13.280000	-2.562320
	13.285000	-2.662244
	13.290000	-2.697701
	13.295000	-2.604223
	13.300000	-2.571990
	13.305000	-2.659020
	13.310000	-2.707371
	13.315000	-2.610670
	13.320000	-2.578436
	13.325000	-2.678361
	13.330000	-2.700924
	13.335000	-2.613893
	13.340000	-2.584883
	13.345000	-2.675137
	13.350000	-2.710594
	13.355000	-2.623563
	13.360000	-2.591330
	13.365000	-2.678361
	13.370000	-2.717041
	13.375000	-2.630010
	13.380000	-2.597777
	13.385000	-2.684807
	13.390000	-2.720264
	13.395000	-2.630010
	13.400000	-2.601000
	13.405000	-2.697701
	13.410000	-2.723488
	13.415000	-2.639680
	13.420000	-2.610670
	13.425000	-2.700924
	13.430000	-2.733158
	13.435000	-2.649350
	13.440000	-2.613893
	13.445000	-2.710594
	13.450000	-2.739604
	13.455000	-2.655797
	13.460000	-2.623563
	13.465000	-2.713817
	13.470000	-2.746051
	13.475000	-2.655797
	13.480000	-2.626787
	13.485000	-2.717041
	13.490000	-2.749274
	13.495000	-2.665467
	13.500000	-2.636457
	13.505000	-2.720264
	13.510000	-2.765391
	13.515000	-2.665467
	13.520000	-2.626787
	13.525000	-2.726711
	13.530000	-2.765391
	13.535000	-2.665467
	13.540000	-2.633233
	13.545000	-2.726711
	13.550000	-2.758944
	13.555000	-2.668690
	13.560000	-2.626787
	13.565000	-2.720264
	13.570000	-2.758944
	13.575000	-2.662244
	13.580000	-2.623563
	13.585000	-2.720264
	13.590000	-2.752498
	13.595000	-2.652574
	13.600000	-2.613893
	13.605000	-2.700924
	13.610000	-2.733158
	13.615000	-2.646127
	13.620000	-2.610670
	13.625000	-2.700924
	13.630000	-2.729934
	13.635000	-2.642904
	13.640000	-2.601000
	13.645000	-2.694477
	13.650000	-2.726711
	13.655000	-2.633233
	13.660000	-2.594553
	13.665000	-2.684807
	13.670000	-2.723488
	13.675000	-2.630010
	13.680000	-2.591330
	13.685000	-2.681584
	13.690000	-2.723488
	13.695000	-2.630010
	13.700000	-2.594553
	13.705000	-2.684807
	13.710000	-2.717041
	13.715000	-2.626787
	13.720000	-2.594553
	13.725000	-2.684807
	13.730000	-2.717041
	13.735000	-2.626787
	13.740000	-2.591330
	13.745000	-2.681584
	13.750000	-2.717041
	13.755000	-2.626787
	13.760000	-2.591330
	13.765000	-2.688031
	13.770000	-2.717041
	13.775000	-2.639680
	13.780000	-2.601000
	13.785000	-2.691254
	13.790000	-2.733158
	13.795000	-2.642904
	13.800000	-2.607447
	13.805000	-2.697701
	13.810000	-2.742828
	13.815000	-2.646127
	13.820000	-2.617117
	13.825000	-2.710594
	13.830000	-2.746051
	13.835000	-2.652574
	13.840000	-2.630010
	13.845000	-2.717041
	13.850000	-2.758944
	13.855000	-2.668690
	13.860000	-2.630010
	13.865000	-2.717041
	13.870000	-2.762168
	13.875000	-2.668690
	13.880000	-2.642904
	13.885000	-2.723488
	13.890000	-2.765391
	13.895000	-2.675137
	13.900000	-2.642904
	13.905000	-2.733158
	13.910000	-2.771838
	13.915000	-2.678361
	13.920000	-2.639680
	13.925000	-2.736381
	13.930000	-2.771838
	13.935000	-2.684807
	13.940000	-2.649350
	13.945000	-2.739604
	13.950000	-2.775061
	13.955000	-2.688031
	13.960000	-2.652574
	13.965000	-2.749274
	13.970000	-2.775061
	13.975000	-2.694477
	13.980000	-2.655797
	13.985000	-2.752498
	13.990000	-2.784731
	13.995000	-2.691254
	14.000000	-2.668690
	14.005000	-2.755721
	14.010000	-2.791178
	14.015000	-2.700924
	14.020000	-2.665467
	14.025000	-2.755721
	14.030000	-2.794401
	14.035000	-2.704147
	14.040000	-2.668690
	14.045000	-2.755721
	14.050000	-2.797625
	14.055000	-2.707371
	14.060000	-2.671914
	14.065000	-2.758944
	14.070000	-2.794401
	14.075000	-2.707371
	14.080000	-2.668690
	14.085000	-2.765391
	14.090000	-2.797625
	14.095000	-2.707371
	14.100000	-2.665467
	14.105000	-2.765391
	14.110000	-2.797625
	14.115000	-2.707371
	14.120000	-2.671914
	14.125000	-2.765391
	14.130000	-2.807295
	14.135000	-2.713817
	14.140000	-2.671914
	14.145000	-2.758944
	14.150000	-2.804072
	14.155000	-2.717041
	14.160000	-2.671914
	14.165000	-2.758944
	14.170000	-2.807295
	14.175000	-2.710594
	14.180000	-2.668690
	14.185000	-2.758944
	14.190000	-2.807295
	14.195000	-2.720264
	14.200000	-2.675137
	14.205000	-2.758944
	14.210000	-2.804072
	14.215000	-2.710594
	14.220000	-2.675137
	14.225000	-2.765391
	14.230000	-2.807295
	14.235000	-2.710594
	14.240000	-2.671914
	14.245000	-2.762168
	14.250000	-2.800848
	14.255000	-2.710594
	14.260000	-2.675137
	14.265000	-2.762168
	14.270000	-2.800848
	14.275000	-2.707371
	14.280000	-2.668690
	14.285000	-2.762168
	14.290000	-2.797625
	14.295000	-2.713817
	14.300000	-2.671914
	14.305000	-2.765391
	14.310000	-2.807295
	14.315000	-2.720264
	14.320000	-2.671914
	14.325000	-2.758944
	14.330000	-2.804072
	14.335000	-2.713817
	14.340000	-2.671914
	14.345000	-2.762168
	14.350000	-2.800848
	14.355000	-2.720264
	14.360000	-2.671914
	14.365000	-2.765391
	14.370000	-2.810518
	14.375000	-2.717041
	14.380000	-2.678361
	14.385000	-2.768615
	14.390000	-2.810518
	14.395000	-2.720264
	14.400000	-2.681584
	14.405000	-2.771838
	14.410000	-2.807295
	14.415000	-2.720264
	14.420000	-2.681584
	14.425000	-2.768615
	14.430000	-2.804072
	14.435000	-2.713817
	14.440000	-2.681584
	14.445000	-2.771838
	14.450000	-2.813742
	14.455000	-2.720264
	14.460000	-2.678361
	14.465000	-2.768615
	14.470000	-2.810518
	14.475000	-2.717041
	14.480000	-2.678361
	14.485000	-2.765391
	14.490000	-2.807295
	14.495000	-2.717041
	14.500000	-2.678361
	14.505000	-2.768615
	14.510000	-2.816965
	14.515000	-2.723488
	14.520000	-2.678361
	14.525000	-2.771838
	14.530000	-2.813742
	14.535000	-2.720264
	14.540000	-2.681584
	14.545000	-2.768615
	14.550000	-2.816965
	14.555000	-2.723488
	14.560000	-2.684807
	14.565000	-2.768615
	14.570000	-2.813742
	14.575000	-2.723488
	14.580000	-2.684807
	14.585000	-2.775061
	14.590000	-2.813742
	14.595000	-2.726711
	14.600000	-2.681584
	14.605000	-2.771838
	14.610000	-2.810518
	14.615000	-2.723488
	14.620000	-2.681584
	14.625000	-2.771838
	14.630000	-2.810518
	14.635000	-2.723488
	14.640000	-2.678361
	14.645000	-2.775061
	14.650000	-2.816965
	14.655000	-2.733158
	14.660000	-2.681584
	14.665000	-2.775061
	14.670000	-2.807295
	14.675000	-2.720264
	14.680000	-2.684807
	14.685000	-2.765391
	14.690000	-2.813742
	14.695000	-2.723488
	14.700000	-2.681584
	14.705000	-2.778285
	14.710000	-2.810518
	14.715000	-2.717041
	14.720000	-2.678361
	14.725000	-2.765391
	14.730000	-2.807295
	14.735000	-2.720264
	14.740000	-2.675137
	14.745000	-2.768615
	14.750000	-2.813742
	14.755000	-2.720264
	14.760000	-2.684807
	14.765000	-2.768615
	14.770000	-2.810518
	14.775000	-2.717041
	14.780000	-2.681584
	14.785000	-2.768615
	14.790000	-2.810518
	14.795000	-2.717041
	14.800000	-2.675137
	14.805000	-2.768615
	14.810000	-2.810518
	14.815000	-2.713817
	14.820000	-2.678361
	14.825000	-2.758944
	14.830000	-2.804072
	14.835000	-2.707371
	14.840000	-2.675137
	14.845000	-2.758944
	14.850000	-2.807295
	14.855000	-2.713817
	14.860000	-2.671914
	14.865000	-2.765391
	14.870000	-2.804072
	14.875000	-2.707371
	14.880000	-2.671914
	14.885000	-2.755721
	14.890000	-2.804072
	14.895000	-2.710594
	14.900000	-2.665467
	14.905000	-2.758944
	14.910000	-2.797625
	14.915000	-2.710594
	14.920000	-2.662244
	14.925000	-2.749274
	14.930000	-2.800848
	14.935000	-2.707371
	14.940000	-2.662244
	14.945000	-2.752498
	14.950000	-2.797625
	14.955000	-2.707371
	14.960000	-2.655797
	14.965000	-2.742828
	14.970000	-2.800848
	14.975000	-2.707371
	14.980000	-2.655797
	14.985000	-2.752498
	14.990000	-2.791178
	14.995000	-2.707371
	15.000000	-2.662244
	15.005000	-2.739604
	15.010000	-2.791178
	15.015000	-2.700924
	15.020000	-2.649350
	15.025000	-2.742828
	15.030000	-2.784731
	15.035000	-2.697701
	15.040000	-2.649350
	15.045000	-2.739604
	15.050000	-2.781508
	15.055000	-2.694477
	15.060000	-2.642904
	15.065000	-2.742828
	15.070000	-2.784731
	15.075000	-2.691254
	15.080000	-2.652574
	15.085000	-2.736381
	15.090000	-2.784731
	15.095000	-2.694477
	15.100000	-2.646127
	15.105000	-2.739604
	15.110000	-2.778285
	15.115000	-2.694477
	15.120000	-2.649350
	15.125000	-2.736381
	15.130000	-2.778285
	15.135000	-2.691254
	15.140000	-2.646127
	15.145000	-2.733158
	15.150000	-2.775061
	15.155000	-2.684807
	15.160000	-2.642904
	15.165000	-2.733158
	15.170000	-2.771838
	15.175000	-2.684807
	15.180000	-2.639680
	15.185000	-2.726711
	15.190000	-2.775061
	15.195000	-2.684807
	15.200000	-2.636457
	15.205000	-2.726711
	15.210000	-2.771838
	15.215000	-2.681584
	15.220000	-2.633233
	15.225000	-2.723488
	15.230000	-2.768615
	15.235000	-2.678361
	15.240000	-2.636457
	15.245000	-2.720264
	15.250000	-2.771838
	15.255000	-2.678361
	15.260000	-2.639680
	15.265000	-2.726711
	15.270000	-2.765391
	15.275000	-2.681584
	15.280000	-2.633233
	15.285000	-2.723488
	15.290000	-2.768615
	15.295000	-2.675137
	15.300000	-2.633233
	15.305000	-2.720264
	15.310000	-2.768615
	15.315000	-2.681584
	15.320000	-2.636457
	15.325000	-2.723488
	15.330000	-2.768615
	15.335000	-2.678361
	15.340000	-2.639680
	15.345000	-2.723488
	15.350000	-2.768615
	15.355000	-2.678361
	15.360000	-2.639680
	15.365000	-2.720264
	15.370000	-2.768615
	15.375000	-2.681584
	15.380000	-2.639680
	15.385000	-2.723488
	15.390000	-2.771838
	15.395000	-2.691254
	15.400000	-2.636457
	15.405000	-2.720264
	15.410000	-2.765391
	15.415000	-2.684807
	15.420000	-2.636457
	15.425000	-2.726711
	15.430000	-2.765391
	15.435000	-2.681584
	15.440000	-2.636457
	15.445000	-2.720264
	15.450000	-2.768615
	15.455000	-2.681584
	15.460000	-2.633233
	15.465000	-2.726711
	15.470000	-2.771838
	15.475000	-2.681584
	15.480000	-2.633233
	15.485000	-2.720264
	15.490000	-2.765391
	15.495000	-2.678361
	15.500000	-2.633233
	15.505000	-2.720264
	15.510000	-2.768615
	15.515000	-2.684807
	15.520000	-2.642904
	15.525000	-2.726711
	15.530000	-2.778285
	15.535000	-2.688031
	15.540000	-2.646127
	15.545000	-2.736381
	15.550000	-2.781508
	15.555000	-2.694477
	15.560000	-2.646127
	15.565000	-2.729934
	15.570000	-2.784731
	15.575000	-2.694477
	15.580000	-2.652574
	15.585000	-2.739604
	15.590000	-2.781508
	15.595000	-2.697701
	15.600000	-2.652574
	15.605000	-2.736381
	15.610000	-2.778285
	15.615000	-2.694477
	15.620000	-2.642904
	15.625000	-2.726711
	15.630000	-2.771838
	15.635000	-2.688031
	15.640000	-2.639680
	15.645000	-2.723488
	15.650000	-2.775061
	15.655000	-2.688031
	15.660000	-2.639680
	15.665000	-2.723488
	15.670000	-2.771838
	15.675000	-2.675137
	15.680000	-2.633233
	15.685000	-2.717041
	15.690000	-2.765391
	15.695000	-2.681584
	15.700000	-2.633233
	15.705000	-2.723488
	15.710000	-2.771838
	15.715000	-2.681584
	15.720000	-2.626787
	15.725000	-2.720264
	15.730000	-2.762168
	15.735000	-2.688031
	15.740000	-2.636457
	15.745000	-2.717041
	15.750000	-2.765391
	15.755000	-2.665467
	15.760000	-2.623563
	15.765000	-2.717041
	15.770000	-2.755721
	15.775000	-2.659020
	15.780000	-2.613893
	15.785000	-2.688031
	15.790000	-2.736381
	15.795000	-2.646127
	15.800000	-2.594553
	15.805000	-2.681584
	15.810000	-2.720264
	15.815000	-2.630010
	15.820000	-2.581660
	15.825000	-2.665467
	15.830000	-2.713817
	15.835000	-2.617117
	15.840000	-2.568766
	15.845000	-2.649350
	15.850000	-2.694477
	15.855000	-2.604223
	15.860000	-2.559096
	15.865000	-2.639680
	15.870000	-2.681584
	15.875000	-2.594553
	15.880000	-2.546203
	15.885000	-2.626787
	15.890000	-2.665467
	15.895000	-2.578436
	15.900000	-2.533309
	15.905000	-2.617117
	15.910000	-2.659020
	15.915000	-2.575213
	15.920000	-2.520416
	15.925000	-2.597777
	15.930000	-2.649350
	15.935000	-2.555873
	15.940000	-2.510746
	15.945000	-2.588106
	15.950000	-2.633233
	15.955000	-2.546203
	15.960000	-2.504299
	15.965000	-2.584883
	15.970000	-2.630010
	15.975000	-2.542979
	15.980000	-2.501076
	15.985000	-2.591330
	15.990000	-2.626787
	15.995000	-2.546203
	16.000000	-2.497852
	16.005000	-2.588106
	16.010000	-2.630010
	16.015000	-2.542979
	16.020000	-2.497852
	16.025000	-2.584883
	16.030000	-2.626787
	16.035000	-2.552650
	16.040000	-2.504299
	16.045000	-2.591330
	16.050000	-2.646127
	16.055000	-2.552650
	16.060000	-2.517193
	16.065000	-2.597777
	16.070000	-2.646127
	16.075000	-2.568766
	16.080000	-2.523639
	16.085000	-2.610670
	16.090000	-2.655797
	16.095000	-2.578436
	16.100000	-2.533309
	16.105000	-2.617117
	16.110000	-2.668690
	16.115000	-2.588106
	16.120000	-2.542979
	16.125000	-2.630010
	16.130000	-2.681584
	16.135000	-2.604223
	16.140000	-2.555873
	16.145000	-2.646127
	16.150000	-2.700924
	16.155000	-2.620340
	16.160000	-2.565543
	16.165000	-2.655797
	16.170000	-2.704147
	16.175000	-2.630010
	16.180000	-2.578436
	16.185000	-2.665467
	16.190000	-2.720264
	16.195000	-2.639680
	16.200000	-2.591330
	16.205000	-2.675137
	16.210000	-2.733158
	16.215000	-2.646127
	16.220000	-2.601000
	16.225000	-2.691254
	16.230000	-2.746051
	16.235000	-2.668690
	16.240000	-2.617117
	16.245000	-2.704147
	16.250000	-2.755721
	16.255000	-2.678361
	16.260000	-2.633233
	16.265000	-2.726711
	16.270000	-2.784731
	16.275000	-2.700924
	16.280000	-2.659020
	16.285000	-2.752498
	16.290000	-2.800848
	16.295000	-2.717041
	16.300000	-2.671914
	16.305000	-2.755721
	16.310000	-2.800848
	16.315000	-2.713817
	16.320000	-2.668690
	16.325000	-2.746051
	16.330000	-2.804072
	16.335000	-2.710594
	16.340000	-2.655797
	16.345000	-2.742828
	16.350000	-2.794401
	16.355000	-2.704147
	16.360000	-2.646127
	16.365000	-2.736381
	16.370000	-2.778285
	16.375000	-2.694477
	16.380000	-2.639680
	16.385000	-2.726711
	16.390000	-2.765391
	16.395000	-2.684807
	16.400000	-2.630010
	16.405000	-2.713817
	16.410000	-2.758944
	16.415000	-2.665467
	16.420000	-2.617117
	16.425000	-2.700924
	16.430000	-2.749274
	16.435000	-2.659020
	16.440000	-2.607447
	16.445000	-2.688031
	16.450000	-2.733158
	16.455000	-2.649350
	16.460000	-2.597777
	16.465000	-2.681584
	16.470000	-2.726711
	16.475000	-2.639680
	16.480000	-2.591330
	16.485000	-2.675137
	16.490000	-2.720264
	16.495000	-2.639680
	16.500000	-2.578436
	16.505000	-2.665467
	16.510000	-2.717041
	16.515000	-2.636457
	16.520000	-2.584883
	16.525000	-2.668690
	16.530000	-2.720264
	16.535000	-2.642904
	16.540000	-2.581660
	16.545000	-2.662244
	16.550000	-2.720264
	16.555000	-2.639680
	16.560000	-2.591330
	16.565000	-2.668690
	16.570000	-2.720264
	16.575000	-2.636457
	16.580000	-2.591330
	16.585000	-2.671914
	16.590000	-2.729934
	16.595000	-2.652574
	16.600000	-2.601000
	16.605000	-2.684807
	16.610000	-2.742828
	16.615000	-2.659020
	16.620000	-2.617117
	16.625000	-2.694477
	16.630000	-2.749274
	16.635000	-2.671914
	16.640000	-2.626787
	16.645000	-2.704147
	16.650000	-2.758944
	16.655000	-2.681584
	16.660000	-2.626787
	16.665000	-2.713817
	16.670000	-2.762168
	16.675000	-2.684807
	16.680000	-2.630010
	16.685000	-2.720264
	16.690000	-2.762168
	16.695000	-2.684807
	16.700000	-2.639680
	16.705000	-2.720264
	16.710000	-2.765391
	16.715000	-2.691254
	16.720000	-2.633233
	16.725000	-2.717041
	16.730000	-2.775061
	16.735000	-2.691254
	16.740000	-2.639680
	16.745000	-2.729934
	16.750000	-2.775061
	16.755000	-2.697701
	16.760000	-2.649350
	16.765000	-2.729934
	16.770000	-2.784731
	16.775000	-2.700924
	16.780000	-2.642904
	16.785000	-2.733158
	16.790000	-2.784731
	16.795000	-2.697701
	16.800000	-2.646127
	16.805000	-2.726711
	16.810000	-2.781508
	16.815000	-2.697701
	16.820000	-2.646127
	16.825000	-2.733158
	16.830000	-2.781508
	16.835000	-2.691254
	16.840000	-2.646127
	16.845000	-2.729934
	16.850000	-2.784731
	16.855000	-2.704147
	16.860000	-2.646127
	16.865000	-2.736381
	16.870000	-2.784731
	16.875000	-2.697701
	16.880000	-2.649350
	16.885000	-2.726711
	16.890000	-2.784731
	16.895000	-2.700924
	16.900000	-2.646127
	16.905000	-2.726711
	16.910000	-2.784731
	16.915000	-2.700924
	16.920000	-2.652574
	16.925000	-2.729934
	16.930000	-2.781508
	16.935000	-2.707371
	16.940000	-2.652574
	16.945000	-2.723488
	16.950000	-2.784731
	16.955000	-2.704147
	16.960000	-2.649350
	16.965000	-2.729934
	16.970000	-2.784731
	16.975000	-2.707371
	16.980000	-2.649350
	16.985000	-2.729934
	16.990000	-2.781508
	16.995000	-2.700924
	17.000000	-2.649350
	17.005000	-2.729934
	17.010000	-2.787955
	17.015000	-2.707371
	17.020000	-2.649350
	17.025000	-2.733158
	17.030000	-2.787955
	17.035000	-2.704147
	17.040000	-2.639680
	17.045000	-2.726711
	17.050000	-2.781508
	17.055000	-2.707371
	17.060000	-2.649350
	17.065000	-2.733158
	17.070000	-2.778285
	17.075000	-2.700924
	17.080000	-2.642904
	17.085000	-2.729934
	17.090000	-2.781508
	17.095000	-2.700924
	17.100000	-2.642904
	17.105000	-2.726711
	17.110000	-2.784731
	17.115000	-2.697701
	17.120000	-2.639680
	17.125000	-2.723488
	17.130000	-2.787955
	17.135000	-2.697701
	17.140000	-2.639680
	17.145000	-2.726711
	17.150000	-2.787955
	17.155000	-2.697701
	17.160000	-2.636457
	17.165000	-2.729934
	17.170000	-2.784731
	17.175000	-2.700924
	17.180000	-2.633233
	17.185000	-2.729934
	17.190000	-2.775061
	17.195000	-2.694477
	17.200000	-2.639680
	17.205000	-2.726711
	17.210000	-2.778285
	17.215000	-2.691254
	17.220000	-2.636457
	17.225000	-2.723488
	17.230000	-2.781508
	17.235000	-2.700924
	17.240000	-2.646127
	17.245000	-2.723488
	17.250000	-2.778285
	17.255000	-2.704147
	17.260000	-2.642904
	17.265000	-2.729934
	17.270000	-2.781508
	17.275000	-2.700924
	17.280000	-2.639680
	17.285000	-2.720264
	17.290000	-2.781508
	17.295000	-2.694477
	17.300000	-2.646127
	17.305000	-2.720264
	17.310000	-2.781508
	17.315000	-2.694477
	17.320000	-2.636457
	17.325000	-2.720264
	17.330000	-2.781508
	17.335000	-2.700924
	17.340000	-2.639680
	17.345000	-2.723488
	17.350000	-2.781508
	17.355000	-2.694477
	17.360000	-2.636457
	17.365000	-2.720264
	17.370000	-2.778285
	17.375000	-2.697701
	17.380000	-2.636457
	17.385000	-2.720264
	17.390000	-2.781508
	17.395000	-2.691254
	17.400000	-2.642904
	17.405000	-2.723488
	17.410000	-2.781508
	17.415000	-2.691254
	17.420000	-2.639680
	17.425000	-2.723488
	17.430000	-2.781508
	17.435000	-2.697701
	17.440000	-2.636457
	17.445000	-2.726711
	17.450000	-2.778285
	17.455000	-2.694477
	17.460000	-2.642904
	17.465000	-2.720264
	17.470000	-2.784731
	17.475000	-2.697701
	17.480000	-2.639680
	17.485000	-2.726711
	17.490000	-2.775061
	17.495000	-2.691254
	17.500000	-2.639680
	17.505000	-2.723488
	17.510000	-2.791178
	17.515000	-2.694477
	17.520000	-2.642904
	17.525000	-2.720264
	17.530000	-2.778285
	17.535000	-2.697701
	17.540000	-2.642904
	17.545000	-2.720264
	17.550000	-2.778285
	17.555000	-2.697701
	17.560000	-2.646127
	17.565000	-2.720264
	17.570000	-2.781508
	17.575000	-2.697701
	17.580000	-2.642904
	17.585000	-2.723488
	17.590000	-2.784731
	17.595000	-2.707371
	17.600000	-2.642904
	17.605000	-2.720264
	17.610000	-2.784731
	17.615000	-2.704147
	17.620000	-2.642904
	17.625000	-2.720264
	17.630000	-2.778285
	17.635000	-2.704147
	17.640000	-2.639680
	17.645000	-2.726711
	17.650000	-2.778285
	17.655000	-2.697701
	17.660000	-2.646127
	17.665000	-2.729934
	17.670000	-2.784731
	17.675000	-2.694477
	17.680000	-2.642904
	17.685000	-2.717041
	17.690000	-2.778285
	17.695000	-2.697701
	17.700000	-2.639680
	17.705000	-2.717041
	17.710000	-2.775061
	17.715000	-2.700924
	17.720000	-2.639680
	17.725000	-2.717041
	17.730000	-2.784731
	17.735000	-2.700924
	17.740000	-2.642904
	17.745000	-2.717041
	17.750000	-2.778285
	17.755000	-2.697701
	17.760000	-2.633233
	17.765000	-2.720264
	17.770000	-2.781508
	17.775000	-2.694477
	17.780000	-2.636457
	17.785000	-2.713817
	17.790000	-2.771838
	17.795000	-2.694477
	17.800000	-2.636457
	17.805000	-2.717041
	17.810000	-2.775061
	17.815000	-2.691254
	17.820000	-2.630010
	17.825000	-2.713817
	17.830000	-2.768615
	17.835000	-2.691254
	17.840000	-2.633233
	17.845000	-2.713817
	17.850000	-2.765391
	17.855000	-2.681584
	17.860000	-2.630010
	17.865000	-2.707371
	17.870000	-2.768615
	17.875000	-2.684807
	17.880000	-2.630010
	17.885000	-2.707371
	17.890000	-2.768615
	17.895000	-2.678361
	17.900000	-2.630010
	17.905000	-2.707371
	17.910000	-2.758944
	17.915000	-2.678361
	17.920000	-2.623563
	17.925000	-2.700924
	17.930000	-2.758944
	17.935000	-2.678361
	17.940000	-2.620340
	17.945000	-2.697701
	17.950000	-2.762168
	17.955000	-2.684807
	17.960000	-2.620340
	17.965000	-2.700924
	17.970000	-2.758944
	17.975000	-2.675137
	17.980000	-2.620340
	17.985000	-2.697701
	17.990000	-2.758944
	17.995000	-2.678361
	18.000000	-2.617117
	18.005000	-2.697701
	18.010000	-2.749274
	18.015000	-2.678361
	18.020000	-2.610670
	18.025000	-2.694477
	18.030000	-2.752498
	18.035000	-2.671914
	18.040000	-2.610670
	18.045000	-2.691254
	18.050000	-2.752498
	18.055000	-2.671914
	18.060000	-2.607447
	18.065000	-2.688031
	18.070000	-2.746051
	18.075000	-2.668690
	18.080000	-2.607447
	18.085000	-2.681584
	18.090000	-2.752498
	18.095000	-2.662244
	18.100000	-2.607447
	18.105000	-2.688031
	18.110000	-2.749274
	18.115000	-2.662244
	18.120000	-2.607447
	18.125000	-2.684807
	18.130000	-2.742828
	18.135000	-2.668690
	18.140000	-2.604223
	18.145000	-2.684807
	18.150000	-2.746051
	18.155000	-2.659020
	18.160000	-2.607447
	18.165000	-2.684807
	18.170000	-2.746051
	18.175000	-2.665467
	18.180000	-2.601000
	18.185000	-2.684807
	18.190000	-2.742828
	18.195000	-2.665467
	18.200000	-2.607447
	18.205000	-2.681584
	18.210000	-2.742828
	18.215000	-2.665467
	18.220000	-2.601000
	18.225000	-2.681584
	18.230000	-2.746051
	18.235000	-2.659020
	18.240000	-2.601000
	18.245000	-2.678361
	18.250000	-2.739604
	18.255000	-2.659020
	18.260000	-2.607447
	18.265000	-2.678361
	18.270000	-2.739604
	18.275000	-2.662244
	18.280000	-2.597777
	18.285000	-2.681584
	18.290000	-2.749274
	18.295000	-2.662244
	18.300000	-2.607447
	18.305000	-2.684807
	18.310000	-2.755721
	18.315000	-2.675137
	18.320000	-2.610670
	18.325000	-2.688031
	18.330000	-2.752498
	18.335000	-2.671914
	18.340000	-2.620340
	18.345000	-2.688031
	18.350000	-2.755721
	18.355000	-2.675137
	18.360000	-2.617117
	18.365000	-2.697701
	18.370000	-2.752498
	18.375000	-2.675137
	18.380000	-2.623563
	18.385000	-2.691254
	18.390000	-2.752498
	18.395000	-2.668690
	18.400000	-2.613893
	18.405000	-2.684807
	18.410000	-2.746051
	18.415000	-2.665467
	18.420000	-2.604223
	18.425000	-2.675137
	18.430000	-2.729934
	18.435000	-2.649350
	18.440000	-2.581660
	18.445000	-2.655797
	18.450000	-2.710594
	18.455000	-2.617117
	18.460000	-2.562320
	18.465000	-2.630010
	18.470000	-2.688031
	18.475000	-2.601000
	18.480000	-2.546203
	18.485000	-2.613893
	18.490000	-2.671914
	18.495000	-2.588106
	18.500000	-2.520416
	18.505000	-2.597777
	18.510000	-2.655797
	18.515000	-2.581660
	18.520000	-2.510746
	18.525000	-2.584883
	18.530000	-2.630010
	18.535000	-2.559096
	18.540000	-2.494629
	18.545000	-2.568766
	18.550000	-2.626787
	18.555000	-2.546203
	18.560000	-2.478512
	18.565000	-2.562320
	18.570000	-2.617117
	18.575000	-2.539756
	18.580000	-2.472066
	18.585000	-2.546203
	18.590000	-2.604223
	18.595000	-2.533309
	18.600000	-2.472066
	18.605000	-2.552650
	18.610000	-2.597777
	18.615000	-2.526863
	18.620000	-2.465619
	18.625000	-2.536533
	18.630000	-2.594553
	18.635000	-2.523639
	18.640000	-2.468842
	18.645000	-2.542979
	18.650000	-2.601000
	18.655000	-2.533309
	18.660000	-2.465619
	18.665000	-2.539756
	18.670000	-2.604223
	18.675000	-2.526863
	18.680000	-2.468842
	18.685000	-2.542979
	18.690000	-2.613893
	18.695000	-2.542979
	18.700000	-2.478512
	18.705000	-2.568766
	18.710000	-2.617117
	18.715000	-2.549426
	18.720000	-2.491406
	18.725000	-2.562320
	18.730000	-2.633233
	18.735000	-2.559096
	18.740000	-2.504299
	18.745000	-2.578436
	18.750000	-2.642904
	18.755000	-2.571990
	18.760000	-2.517193
	18.765000	-2.594553
	18.770000	-2.659020
	18.775000	-2.581660
	18.780000	-2.526863
	18.785000	-2.610670
	18.790000	-2.668690
	18.795000	-2.601000
	18.800000	-2.542979
	18.805000	-2.626787
	18.810000	-2.694477
	18.815000	-2.623563
	18.820000	-2.562320
	18.825000	-2.642904
	18.830000	-2.707371
	18.835000	-2.636457
	18.840000	-2.575213
	18.845000	-2.655797
	18.850000	-2.713817
	18.855000	-2.646127
	18.860000	-2.588106
	18.865000	-2.662244
	18.870000	-2.720264
	18.875000	-2.652574
	18.880000	-2.584883
	18.885000	-2.655797
	18.890000	-2.723488
	18.895000	-2.652574
	18.900000	-2.584883
	18.905000	-2.659020
	18.910000	-2.717041
	18.915000	-2.633233
	18.920000	-2.565543
	18.925000	-2.646127
	18.930000	-2.700924
	18.935000	-2.620340
	18.940000	-2.559096
	18.945000	-2.626787
	18.950000	-2.681584
	18.955000	-2.604223
	18.960000	-2.539756
	18.965000	-2.601000
	18.970000	-2.668690
	18.975000	-2.588106
	18.980000	-2.507522
	18.985000	-2.588106
	18.990000	-2.636457
	18.995000	-2.562320
	19.000000	-2.491406
	19.005000	-2.555873
	19.010000	-2.617117
	19.015000	-2.542979
	19.020000	-2.468842
	19.025000	-2.539756
	19.030000	-2.601000
	19.035000	-2.523639
	19.040000	-2.455949
	19.045000	-2.520416
	19.050000	-2.588106
	19.055000	-2.510746
	19.060000	-2.452725
	19.065000	-2.520416
	19.070000	-2.588106
	19.075000	-2.507522
	19.080000	-2.449502
	19.085000	-2.520416
	19.090000	-2.578436
	19.095000	-2.513969
	19.100000	-2.452725
	19.105000	-2.526863
	19.110000	-2.584883
	19.115000	-2.517193
	19.120000	-2.455949
	19.125000	-2.526863
	19.130000	-2.594553
	19.135000	-2.523639
	19.140000	-2.465619
	19.145000	-2.536533
	19.150000	-2.601000
	19.155000	-2.533309
	19.160000	-2.472066
	19.165000	-2.539756
	19.170000	-2.610670
	19.175000	-2.546203
	19.180000	-2.484959
	19.185000	-2.555873
	19.190000	-2.617117
	19.195000	-2.555873
	19.200000	-2.491406
	19.205000	-2.562320
	19.210000	-2.626787
	19.215000	-2.568766
	19.220000	-2.494629
	19.225000	-2.578436
	19.230000	-2.642904
	19.235000	-2.575213
	19.240000	-2.513969
	19.245000	-2.584883
	19.250000	-2.652574
	19.255000	-2.584883
	19.260000	-2.523639
	19.265000	-2.597777
	19.270000	-2.671914
	19.275000	-2.591330
	19.280000	-2.533309
	19.285000	-2.610670
	19.290000	-2.678361
	19.295000	-2.601000
	19.300000	-2.546203
	19.305000	-2.626787
	19.310000	-2.684807
	19.315000	-2.617117
	19.320000	-2.555873
	19.325000	-2.630010
	19.330000	-2.700924
	19.335000	-2.630010
	19.340000	-2.568766
	19.345000	-2.649350
	19.350000	-2.717041
	19.355000	-2.630010
	19.360000	-2.578436
	19.365000	-2.659020
	19.370000	-2.720264
	19.375000	-2.646127
	19.380000	-2.588106
	19.385000	-2.662244
	19.390000	-2.726711
	19.395000	-2.655797
	19.400000	-2.591330
	19.405000	-2.668690
	19.410000	-2.726711
	19.415000	-2.655797
	19.420000	-2.601000
	19.425000	-2.671914
	19.430000	-2.729934
	19.435000	-2.662244
	19.440000	-2.597777
	19.445000	-2.671914
	19.450000	-2.736381
	19.455000	-2.665467
	19.460000	-2.604223
	19.465000	-2.675137
	19.470000	-2.742828
	19.475000	-2.665467
	19.480000	-2.601000
	19.485000	-2.681584
	19.490000	-2.739604
	19.495000	-2.668690
	19.500000	-2.607447
	19.505000	-2.678361
	19.510000	-2.742828
	19.515000	-2.665467
	19.520000	-2.604223
	19.525000	-2.678361
	19.530000	-2.742828
	19.535000	-2.671914
	19.540000	-2.613893
	19.545000	-2.671914
	19.550000	-2.746051
	19.555000	-2.671914
	19.560000	-2.604223
	19.565000	-2.684807
	19.570000	-2.746051
	19.575000	-2.678361
	19.580000	-2.607447
	19.585000	-2.684807
	19.590000	-2.746051
	19.595000	-2.671914
	19.600000	-2.610670
	19.605000	-2.684807
	19.610000	-2.752498
	19.615000	-2.678361
	19.620000	-2.613893
	19.625000	-2.691254
	19.630000	-2.749274
	19.635000	-2.681584
	19.640000	-2.620340
	19.645000	-2.684807
	19.650000	-2.752498
	19.655000	-2.675137
	19.660000	-2.613893
	19.665000	-2.688031
	19.670000	-2.752498
	19.675000	-2.678361
	19.680000	-2.610670
	19.685000	-2.684807
	19.690000	-2.752498
	19.695000	-2.678361
	19.700000	-2.613893
	19.705000	-2.684807
	19.710000	-2.752498
	19.715000	-2.678361
	19.720000	-2.613893
	19.725000	-2.691254
	19.730000	-2.758944
	19.735000	-2.678361
	19.740000	-2.617117
	19.745000	-2.694477
	19.750000	-2.758944
	19.755000	-2.684807
	19.760000	-2.617117
	19.765000	-2.694477
	19.770000	-2.755721
	19.775000	-2.684807
	19.780000	-2.620340
	19.785000	-2.691254
	19.790000	-2.755721
	19.795000	-2.681584
	19.800000	-2.617117
	19.805000	-2.688031
	19.810000	-2.758944
	19.815000	-2.688031
	19.820000	-2.613893
	19.825000	-2.688031
	19.830000	-2.755721
	19.835000	-2.688031
	19.840000	-2.620340
	19.845000	-2.691254
	19.850000	-2.755721
	19.855000	-2.688031
	19.860000	-2.617117
	19.865000	-2.688031
	19.870000	-2.762168
	19.875000	-2.681584
	19.880000	-2.617117
	19.885000	-2.691254
	19.890000	-2.755721
	19.895000	-2.678361
	19.900000	-2.623563
	19.905000	-2.697701
	19.910000	-2.752498
	19.915000	-2.681584
	19.920000	-2.617117
	19.925000	-2.694477
	19.930000	-2.762168
	19.935000	-2.681584
	19.940000	-2.620340
	19.945000	-2.681584
	19.950000	-2.762168
	19.955000	-2.675137
	19.960000	-2.613893
	19.965000	-2.691254
	19.970000	-2.755721
	19.975000	-2.684807
	19.980000	-2.617117
	19.985000	-2.688031
	19.990000	-2.755721
	19.995000	-2.688031
	20.000000	-2.610670
	20.005000	-2.684807
	20.010000	-2.752498
	20.015000	-2.681584
	20.020000	-2.604223
	20.025000	-2.678361
	20.030000	-2.752498
	20.035000	-2.678361
	20.040000	-2.610670
	20.045000	-2.678361
	20.050000	-2.739604
	20.055000	-2.671914
	20.060000	-2.610670
	20.065000	-2.675137
	20.070000	-2.755721
	20.075000	-2.678361
	20.080000	-2.607447
	20.085000	-2.681584
	20.090000	-2.749274
	20.095000	-2.671914
	20.100000	-2.607447
	20.105000	-2.681584
	20.110000	-2.749274
	20.115000	-2.681584
	20.120000	-2.610670
	20.125000	-2.681584
	20.130000	-2.752498
	20.135000	-2.678361
	20.140000	-2.607447
	20.145000	-2.675137
	20.150000	-2.752498
	20.155000	-2.681584
	20.160000	-2.610670
	20.165000	-2.678361
	20.170000	-2.749274
	20.175000	-2.678361
	20.180000	-2.610670
	20.185000	-2.681584
	20.190000	-2.755721
	20.195000	-2.675137
	20.200000	-2.617117
	20.205000	-2.691254
	20.210000	-2.755721
	20.215000	-2.678361
	20.220000	-2.613893
	20.225000	-2.688031
	20.230000	-2.758944
	20.235000	-2.675137
	20.240000	-2.610670
	20.245000	-2.688031
	20.250000	-2.762168
	20.255000	-2.681584
	20.260000	-2.617117
	20.265000	-2.688031
	20.270000	-2.749274
	20.275000	-2.691254
	20.280000	-2.617117
	20.285000	-2.688031
	20.290000	-2.755721
	20.295000	-2.684807
	20.300000	-2.610670
	20.305000	-2.684807
	20.310000	-2.755721
	20.315000	-2.678361
	20.320000	-2.610670
	20.325000	-2.688031
	20.330000	-2.758944
	20.335000	-2.684807
	20.340000	-2.610670
	20.345000	-2.684807
	20.350000	-2.755721
	20.355000	-2.681584
	20.360000	-2.613893
	20.365000	-2.678361
	20.370000	-2.758944
	20.375000	-2.681584
	20.380000	-2.613893
	20.385000	-2.684807
	20.390000	-2.755721
	20.395000	-2.684807
	20.400000	-2.620340
	20.405000	-2.678361
	20.410000	-2.752498
	20.415000	-2.688031
	20.420000	-2.613893
	20.425000	-2.681584
	20.430000	-2.752498
	20.435000	-2.681584
	20.440000	-2.610670
	20.445000	-2.675137
	20.450000	-2.742828
	20.455000	-2.678361
	20.460000	-2.610670
	20.465000	-2.678361
	20.470000	-2.742828
	20.475000	-2.675137
	20.480000	-2.601000
	20.485000	-2.678361
	20.490000	-2.742828
	20.495000	-2.671914
	20.500000	-2.601000
	20.505000	-2.675137
	20.510000	-2.739604
	20.515000	-2.668690
	20.520000	-2.601000
	20.525000	-2.668690
	20.530000	-2.742828
	20.535000	-2.671914
	20.540000	-2.601000
	20.545000	-2.671914
	20.550000	-2.746051
	20.555000	-2.671914
	20.560000	-2.594553
	20.565000	-2.665467
	20.570000	-2.736381
	20.575000	-2.665467
	20.580000	-2.594553
	20.585000	-2.665467
	20.590000	-2.739604
	20.595000	-2.671914
	20.600000	-2.597777
	20.605000	-2.662244
	20.610000	-2.739604
	20.615000	-2.662244
	20.620000	-2.594553
	20.625000	-2.662244
	20.630000	-2.736381
	20.635000	-2.668690
	20.640000	-2.594553
	20.645000	-2.665467
	20.650000	-2.733158
	20.655000	-2.665467
	20.660000	-2.597777
	20.665000	-2.665467
	20.670000	-2.736381
	20.675000	-2.671914
	20.680000	-2.591330
	20.685000	-2.665467
	20.690000	-2.733158
	20.695000	-2.659020
	20.700000	-2.588106
	20.705000	-2.662244
	20.710000	-2.729934
	20.715000	-2.655797
	20.720000	-2.588106
	20.725000	-2.655797
	20.730000	-2.726711
	20.735000	-2.659020
	20.740000	-2.584883
	20.745000	-2.652574
	20.750000	-2.723488
	20.755000	-2.659020
	20.760000	-2.581660
	20.765000	-2.642904
	20.770000	-2.720264
	20.775000	-2.652574
	20.780000	-2.584883
	20.785000	-2.646127
	20.790000	-2.726711
	20.795000	-2.649350
	20.800000	-2.571990
	20.805000	-2.646127
	20.810000	-2.713817
	20.815000	-2.652574
	20.820000	-2.575213
	20.825000	-2.642904
	20.830000	-2.713817
	20.835000	-2.642904
	20.840000	-2.571990
	20.845000	-2.636457
	20.850000	-2.713817
	20.855000	-2.636457
	20.860000	-2.568766
	20.865000	-2.636457
	20.870000	-2.707371
	20.875000	-2.636457
	20.880000	-2.565543
	20.885000	-2.633233
	20.890000	-2.707371
	20.895000	-2.636457
	20.900000	-2.565543
	20.905000	-2.633233
	20.910000	-2.707371
	20.915000	-2.630010
	20.920000	-2.565543
	20.925000	-2.633233
	20.930000	-2.707371
	20.935000	-2.633233
	20.940000	-2.568766
	20.945000	-2.630010
	20.950000	-2.707371
	20.955000	-2.636457
	20.960000	-2.568766
	20.965000	-2.636457
	20.970000	-2.704147
	20.975000	-2.636457
	20.980000	-2.565543
	20.985000	-2.630010
	20.990000	-2.707371
	20.995000	-2.639680
	21.000000	-2.562320
	21.005000	-2.636457
	21.010000	-2.710594
	21.015000	-2.639680
	21.020000	-2.571990
	21.025000	-2.636457
	21.030000	-2.704147
	21.035000	-2.639680
	21.040000	-2.565543
	21.045000	-2.636457
	21.050000	-2.717041
	21.055000	-2.642904
	21.060000	-2.568766
	21.065000	-2.639680
	21.070000	-2.717041
	21.075000	-2.646127
	21.080000	-2.575213
	21.085000	-2.633233
	21.090000	-2.713817
	21.095000	-2.642904
	21.100000	-2.575213
	21.105000	-2.646127
	21.110000	-2.713817
	21.115000	-2.639680
	21.120000	-2.571990
	21.125000	-2.642904
	21.130000	-2.710594
	21.135000	-2.649350
	21.140000	-2.571990
	21.145000	-2.636457
	21.150000	-2.707371
	21.155000	-2.642904
	21.160000	-2.568766
	21.165000	-2.633233
	21.170000	-2.707371
	21.175000	-2.649350
	21.180000	-2.575213
	21.185000	-2.639680
	21.190000	-2.717041
	21.195000	-2.639680
	21.200000	-2.568766
	21.205000	-2.642904
	21.210000	-2.713817
	21.215000	-2.649350
	21.220000	-2.571990
	21.225000	-2.639680
	21.230000	-2.713817
	21.235000	-2.642904
	21.240000	-2.575213
	21.245000	-2.633233
	21.250000	-2.710594
	21.255000	-2.646127
	21.260000	-2.571990
	21.265000	-2.639680
	21.270000	-2.710594
	21.275000	-2.646127
	21.280000	-2.578436
	21.285000	-2.642904
	21.290000	-2.707371
	21.295000	-2.652574
	21.300000	-2.571990
	21.305000	-2.639680
	21.310000	-2.720264
	21.315000	-2.642904
	21.320000	-2.571990
	21.325000	-2.642904
	21.330000	-2.717041
	21.335000	-2.649350
	21.340000	-2.575213
	21.345000	-2.646127
	21.350000	-2.713817
	21.355000	-2.649350
	21.360000	-2.581660
	21.365000	-2.642904
	21.370000	-2.717041
	21.375000	-2.659020
	21.380000	-2.578436
	21.385000	-2.646127
	21.390000	-2.720264
	21.395000	-2.652574
	21.400000	-2.584883
	21.405000	-2.649350
	21.410000	-2.717041
	21.415000	-2.662244
	21.420000	-2.584883
	21.425000	-2.649350
	21.430000	-2.729934
	21.435000	-2.659020
	21.440000	-2.597777
	21.445000	-2.659020
	21.450000	-2.739604
	21.455000	-2.671914
	21.460000	-2.597777
	21.465000	-2.662244
	21.470000	-2.736381
	21.475000	-2.675137
	21.480000	-2.604223
	21.485000	-2.668690
	21.490000	-2.746051
	21.495000	-2.671914
	21.500000	-2.607447
	21.505000	-2.671914
	21.510000	-2.746051
	21.515000	-2.681584
	21.520000	-2.607447
	21.525000	-2.681584
	21.530000	-2.749274
	21.535000	-2.684807
	21.540000	-2.610670
	21.545000	-2.675137
	21.550000	-2.752498
	21.555000	-2.681584
	21.560000	-2.613893
	21.565000	-2.681584
	21.570000	-2.752498
	21.575000	-2.694477
	21.580000	-2.617117
	21.585000	-2.671914
	21.590000	-2.755721
	21.595000	-2.684807
	21.600000	-2.610670
	21.605000	-2.675137
	21.610000	-2.746051
	21.615000	-2.678361
	21.620000	-2.591330
	21.625000	-2.655797
	21.630000	-2.726711
	21.635000	-2.659020
	21.640000	-2.578436
	21.645000	-2.636457
	21.650000	-2.710594
	21.655000	-2.639680
	21.660000	-2.559096
	21.665000	-2.620340
	21.670000	-2.694477
	21.675000	-2.623563
	21.680000	-2.552650
	21.685000	-2.610670
	21.690000	-2.675137
	21.695000	-2.613893
	21.700000	-2.539756
	21.705000	-2.594553
	21.710000	-2.671914
	21.715000	-2.597777
	21.720000	-2.520416
	21.725000	-2.581660
	21.730000	-2.662244
	21.735000	-2.591330
	21.740000	-2.517193
	21.745000	-2.581660
	21.750000	-2.646127
	21.755000	-2.584883
	21.760000	-2.513969
	21.765000	-2.578436
	21.770000	-2.646127
	21.775000	-2.578436
	21.780000	-2.510746
	21.785000	-2.568766
	21.790000	-2.636457
	21.795000	-2.575213
	21.800000	-2.501076
	21.805000	-2.565543
	21.810000	-2.636457
	21.815000	-2.581660
	21.820000	-2.501076
	21.825000	-2.562320
	21.830000	-2.639680
	21.835000	-2.581660
	21.840000	-2.510746
	21.845000	-2.575213
	21.850000	-2.646127
	21.855000	-2.591330
	21.860000	-2.517193
	21.865000	-2.581660
	21.870000	-2.655797
	21.875000	-2.591330
	21.880000	-2.530086
	21.885000	-2.588106
	21.890000	-2.668690
	21.895000	-2.607447
	21.900000	-2.533309
	21.905000	-2.601000
	21.910000	-2.678361
	21.915000	-2.613893
	21.920000	-2.542979
	21.925000	-2.607447
	21.930000	-2.688031
	21.935000	-2.620340
	21.940000	-2.555873
	21.945000	-2.617117
	21.950000	-2.694477
	21.955000	-2.633233
	21.960000	-2.565543
	21.965000	-2.623563
	21.970000	-2.694477
	21.975000	-2.633233
	21.980000	-2.568766
	21.985000	-2.636457
	21.990000	-2.704147
	21.995000	-2.649350
	22.000000	-2.571990
	22.005000	-2.639680
	22.010000	-2.710594
	22.015000	-2.659020
	22.020000	-2.575213
	22.025000	-2.646127
	22.030000	-2.723488
	22.035000	-2.655797
	22.040000	-2.591330
	22.045000	-2.655797
	22.050000	-2.726711
	22.055000	-2.671914
	22.060000	-2.597777
	22.065000	-2.662244
	22.070000	-2.742828
	22.075000	-2.684807
	22.080000	-2.610670
	22.085000	-2.681584
	22.090000	-2.755721
	22.095000	-2.697701
	22.100000	-2.620340
	22.105000	-2.694477
	22.110000	-2.775061
	22.115000	-2.713817
	22.120000	-2.639680
	22.125000	-2.700924
	22.130000	-2.781508
	22.135000	-2.723488
	22.140000	-2.646127
	22.145000	-2.704147
	22.150000	-2.781508
	22.155000	-2.717041
	22.160000	-2.636457
	22.165000	-2.694477
	22.170000	-2.775061
	22.175000	-2.710594
	22.180000	-2.620340
	22.185000	-2.688031
	22.190000	-2.765391
	22.195000	-2.697701
	22.200000	-2.620340
	22.205000	-2.681584
	22.210000	-2.755721
	22.215000	-2.688031
	22.220000	-2.613893
	22.225000	-2.668690
	22.230000	-2.746051
	22.235000	-2.688031
	22.240000	-2.601000
	22.245000	-2.665467
	22.250000	-2.742828
	22.255000	-2.678361
	22.260000	-2.597777
	22.265000	-2.659020
	22.270000	-2.736381
	22.275000	-2.675137
	22.280000	-2.597777
	22.285000	-2.646127
	22.290000	-2.736381
	22.295000	-2.668690
	22.300000	-2.594553
	22.305000	-2.649350
	22.310000	-2.723488
	22.315000	-2.668690
	22.320000	-2.591330
	22.325000	-2.652574
	22.330000	-2.733158
	22.335000	-2.668690
	22.340000	-2.594553
	22.345000	-2.655797
	22.350000	-2.736381
	22.355000	-2.675137
	22.360000	-2.604223
	22.365000	-2.659020
	22.370000	-2.742828
	22.375000	-2.681584
	22.380000	-2.604223
	22.385000	-2.668690
	22.390000	-2.749274
	22.395000	-2.684807
	22.400000	-2.610670
	22.405000	-2.671914
	22.410000	-2.755721
	22.415000	-2.691254
	22.420000	-2.620340
	22.425000	-2.681584
	22.430000	-2.755721
	22.435000	-2.697701
	22.440000	-2.626787
	22.445000	-2.688031
	22.450000	-2.765391
	22.455000	-2.700924
	22.460000	-2.633233
	22.465000	-2.691254
	22.470000	-2.768615
	22.475000	-2.710594
	22.480000	-2.630010
	22.485000	-2.688031
	22.490000	-2.775061
	22.495000	-2.707371
	22.500000	-2.636457
	22.505000	-2.694477
	22.510000	-2.775061
	22.515000	-2.713817
	22.520000	-2.642904
	22.525000	-2.700924
	22.530000	-2.781508
	22.535000	-2.720264
	22.540000	-2.642904
	22.545000	-2.700924
	22.550000	-2.781508
	22.555000	-2.723488
	22.560000	-2.649350
	22.565000	-2.700924
	22.570000	-2.784731
	22.575000	-2.720264
	22.580000	-2.649350
	22.585000	-2.704147
	22.590000	-2.787955
	22.595000	-2.726711
	22.600000	-2.655797
	22.605000	-2.710594
	22.610000	-2.787955
	22.615000	-2.729934
	22.620000	-2.649350
	22.625000	-2.707371
	22.630000	-2.787955
	22.635000	-2.723488
	22.640000	-2.649350
	22.645000	-2.713817
	22.650000	-2.794401
	22.655000	-2.726711
	22.660000	-2.652574
	22.665000	-2.717041
	22.670000	-2.800848
	22.675000	-2.733158
	22.680000	-2.655797
	22.685000	-2.713817
	22.690000	-2.797625
	22.695000	-2.742828
	22.700000	-2.652574
	22.705000	-2.720264
	22.710000	-2.794401
	22.715000	-2.739604
	22.720000	-2.652574
	22.725000	-2.720264
	22.730000	-2.797625
	22.735000	-2.733158
	22.740000	-2.665467
	22.745000	-2.726711
	22.750000	-2.800848
	22.755000	-2.736381
	22.760000	-2.662244
	22.765000	-2.720264
	22.770000	-2.800848
	22.775000	-2.739604
	22.780000	-2.662244
	22.785000	-2.720264
	22.790000	-2.804072
	22.795000	-2.746051
	22.800000	-2.665467
	22.805000	-2.723488
	22.810000	-2.800848
	22.815000	-2.742828
	22.820000	-2.665467
	22.825000	-2.726711
	22.830000	-2.804072
	22.835000	-2.742828
	22.840000	-2.662244
	22.845000	-2.723488
	22.850000	-2.804072
	22.855000	-2.739604
	22.860000	-2.665467
	22.865000	-2.717041
	22.870000	-2.804072
	22.875000	-2.742828
	22.880000	-2.665467
	22.885000	-2.720264
	22.890000	-2.794401
	22.895000	-2.746051
	22.900000	-2.662244
	22.905000	-2.717041
	22.910000	-2.797625
	22.915000	-2.733158
	22.920000	-2.655797
	22.925000	-2.713817
	22.930000	-2.797625
	22.935000	-2.736381
	22.940000	-2.659020
	22.945000	-2.717041
	22.950000	-2.800848
	22.955000	-2.739604
	22.960000	-2.662244
	22.965000	-2.717041
	22.970000	-2.797625
	22.975000	-2.733158
	22.980000	-2.655797
	22.985000	-2.717041
	22.990000	-2.797625
	22.995000	-2.733158
	23.000000	-2.659020
	23.005000	-2.710594
	23.010000	-2.794401
	23.015000	-2.736381
	23.020000	-2.655797
	23.025000	-2.713817
	23.030000	-2.791178
	23.035000	-2.733158
	23.040000	-2.659020
	23.045000	-2.713817
	23.050000	-2.800848
	23.055000	-2.736381
	23.060000	-2.655797
	23.065000	-2.717041
	23.070000	-2.791178
	23.075000	-2.733158
	23.080000	-2.662244
	23.085000	-2.713817
	23.090000	-2.800848
	23.095000	-2.742828
	23.100000	-2.659020
	23.105000	-2.713817
	23.110000	-2.797625
	23.115000	-2.739604
	23.120000	-2.655797
	23.125000	-2.713817
	23.130000	-2.800848
	23.135000	-2.733158
	23.140000	-2.659020
	23.145000	-2.713817
	23.150000	-2.794401
	23.155000	-2.746051
	23.160000	-2.655797
	23.165000	-2.717041
	23.170000	-2.804072
	23.175000	-2.742828
	23.180000	-2.655797
	23.185000	-2.713817
	23.190000	-2.800848
	23.195000	-2.736381
	23.200000	-2.662244
	23.205000	-2.713817
	23.210000	-2.791178
	23.215000	-2.742828
	23.220000	-2.655797
	23.225000	-2.717041
	23.230000	-2.787955
	23.235000	-2.739604
	23.240000	-2.655797
	23.245000	-2.713817
	23.250000	-2.797625
	23.255000	-2.736381
	23.260000	-2.652574
	23.265000	-2.704147
	23.270000	-2.797625
	23.275000	-2.739604
	23.280000	-2.659020
	23.285000	-2.707371
	23.290000	-2.794401
	23.295000	-2.736381
	23.300000	-2.659020
	23.305000	-2.707371
	23.310000	-2.787955
	23.315000	-2.729934
	23.320000	-2.649350
	23.325000	-2.710594
	23.330000	-2.787955
	23.335000	-2.733158
	23.340000	-2.649350
	23.345000	-2.700924
	23.350000	-2.784731
	23.355000	-2.733158
	23.360000	-2.646127
	23.365000	-2.707371
	23.370000	-2.784731
	23.375000	-2.726711
	23.380000	-2.642904
	23.385000	-2.697701
	23.390000	-2.781508
	23.395000	-2.726711
	23.400000	-2.639680
	23.405000	-2.697701
	23.410000	-2.778285
	23.415000	-2.729934
	23.420000	-2.639680
	23.425000	-2.697701
	23.430000	-2.784731
	23.435000	-2.720264
	23.440000	-2.639680
	23.445000	-2.694477
	23.450000	-2.781508
	23.455000	-2.713817
	23.460000	-2.642904
	23.465000	-2.697701
	23.470000	-2.775061
	23.475000	-2.720264
	23.480000	-2.636457
	23.485000	-2.694477
	23.490000	-2.775061
	23.495000	-2.713817
	23.500000	-2.636457
	23.505000	-2.688031
	23.510000	-2.775061
	23.515000	-2.713817
	23.520000	-2.630010
	23.525000	-2.684807
	23.530000	-2.768615
	23.535000	-2.713817
	23.540000	-2.623563
	23.545000	-2.688031
	23.550000	-2.768615
	23.555000	-2.713817
	23.560000	-2.630010
	23.565000	-2.681584
	23.570000	-2.765391
	23.575000	-2.704147
	23.580000	-2.617117
	23.585000	-2.675137
	23.590000	-2.755721
	23.595000	-2.707371
	23.600000	-2.623563
	23.605000	-2.668690
	23.610000	-2.752498
	23.615000	-2.694477
	23.620000	-2.613893
	23.625000	-2.668690
	23.630000	-2.752498
	23.635000	-2.700924
	23.640000	-2.613893
	23.645000	-2.671914
	23.650000	-2.749274
	23.655000	-2.704147
	23.660000	-2.617117
	23.665000	-2.668690
	23.670000	-2.755721
	23.675000	-2.694477
	23.680000	-2.610670
	23.685000	-2.665467
	23.690000	-2.752498
	23.695000	-2.697701
	23.700000	-2.617117
	23.705000	-2.665467
	23.710000	-2.755721
	23.715000	-2.691254
	23.720000	-2.610670
	23.725000	-2.671914
	23.730000	-2.752498
	23.735000	-2.691254
	23.740000	-2.610670
	23.745000	-2.665467
	23.750000	-2.755721
	23.755000	-2.694477
	23.760000	-2.610670
	23.765000	-2.665467
	23.770000	-2.742828
	23.775000	-2.691254
	23.780000	-2.610670
	23.785000	-2.662244
	23.790000	-2.752498
	23.795000	-2.691254
	23.800000	-2.610670
	23.805000	-2.665467
	23.810000	-2.746051
	23.815000	-2.691254
	23.820000	-2.607447
	23.825000	-2.659020
	23.830000	-2.746051
	23.835000	-2.691254
	23.840000	-2.607447
	23.845000	-2.659020
	23.850000	-2.746051
	23.855000	-2.694477
	23.860000	-2.607447
	23.865000	-2.662244
	23.870000	-2.749274
	23.875000	-2.688031
	23.880000	-2.604223
	23.885000	-2.662244
	23.890000	-2.749274
	23.895000	-2.688031
	23.900000	-2.610670
	23.905000	-2.655797
	23.910000	-2.746051
	23.915000	-2.697701
	23.920000	-2.607447
	23.925000	-2.665467
	23.930000	-2.746051
	23.935000	-2.697701
	23.940000	-2.617117
	23.945000	-2.668690
	23.950000	-2.752498
	23.955000	-2.694477
	23.960000	-2.607447
	23.965000	-2.662244
	23.970000	-2.746051
	23.975000	-2.691254
	23.980000	-2.607447
	23.985000	-2.662244
	23.990000	-2.746051
	23.995000	-2.697701
	24.000000	-2.610670
	24.005000	-2.665467
	24.010000	-2.746051
	24.015000	-2.691254
	24.020000	-2.613893
	24.025000	-2.665467
	24.030000	-2.752498
	24.035000	-2.691254
	24.040000	-2.607447
	24.045000	-2.662244
	24.050000	-2.746051
	24.055000	-2.691254
	24.060000	-2.613893
	24.065000	-2.665467
	24.070000	-2.746051
	24.075000	-2.697701
	24.080000	-2.613893
	24.085000	-2.662244
	24.090000	-2.746051
	24.095000	-2.691254
	24.100000	-2.613893
	24.105000	-2.662244
	24.110000	-2.742828
	24.115000	-2.691254
	24.120000	-2.613893
	24.125000	-2.662244
	24.130000	-2.749274
	24.135000	-2.684807
	24.140000	-2.604223
	24.145000	-2.659020
	24.150000	-2.746051
	24.155000	-2.694477
	24.160000	-2.610670
	24.165000	-2.662244
	24.170000	-2.746051
	24.175000	-2.694477
	24.180000	-2.610670
	24.185000	-2.662244
	24.190000	-2.749274
	24.195000	-2.691254
	24.200000	-2.610670
	24.205000	-2.668690
	24.210000	-2.742828
	24.215000	-2.694477
	24.220000	-2.610670
	24.225000	-2.655797
	24.230000	-2.749274
	24.235000	-2.694477
	24.240000	-2.613893
	24.245000	-2.662244
	24.250000	-2.746051
	24.255000	-2.700924
	24.260000	-2.610670
	24.265000	-2.668690
	24.270000	-2.755721
	24.275000	-2.694477
	24.280000	-2.610670
	24.285000	-2.659020
	24.290000	-2.749274
	24.295000	-2.694477
	24.300000	-2.613893
	24.305000	-2.671914
	24.310000	-2.749274
	24.315000	-2.700924
	24.320000	-2.613893
	24.325000	-2.665467
	24.330000	-2.755721
	24.335000	-2.700924
	24.340000	-2.610670
	24.345000	-2.665467
	24.350000	-2.755721
	24.355000	-2.700924
	24.360000	-2.623563
	24.365000	-2.665467
	24.370000	-2.755721
	24.375000	-2.704147
	24.380000	-2.613893
	24.385000	-2.675137
	24.390000	-2.758944
	24.395000	-2.700924
	24.400000	-2.626787
	24.405000	-2.671914
	24.410000	-2.758944
	24.415000	-2.707371
	24.420000	-2.623563
	24.425000	-2.678361
	24.430000	-2.758944
	24.435000	-2.710594
	24.440000	-2.626787
	24.445000	-2.671914
	24.450000	-2.758944
	24.455000	-2.713817
	24.460000	-2.620340
	24.465000	-2.678361
	24.470000	-2.768615
	24.475000	-2.704147
	24.480000	-2.626787
	24.485000	-2.675137
	24.490000	-2.765391
	24.495000	-2.704147
	24.500000	-2.623563
	24.505000	-2.675137
	24.510000	-2.765391
	24.515000	-2.707371
	24.520000	-2.623563
	24.525000	-2.665467
	24.530000	-2.762168
	24.535000	-2.707371
	24.540000	-2.620340
	24.545000	-2.668690
	24.550000	-2.755721
	24.555000	-2.704147
	24.560000	-2.617117
	24.565000	-2.668690
	24.570000	-2.758944
	24.575000	-2.700924
	24.580000	-2.610670
	24.585000	-2.662244
	24.590000	-2.739604
	24.595000	-2.688031
	24.600000	-2.591330
	24.605000	-2.636457
	24.610000	-2.717041
	24.615000	-2.668690
	24.620000	-2.578436
	24.625000	-2.620340
	24.630000	-2.700924
	24.635000	-2.636457
	24.640000	-2.546203
	24.645000	-2.601000
	24.650000	-2.684807
	24.655000	-2.626787
	24.660000	-2.542979
	24.665000	-2.584883
	24.670000	-2.668690
	24.675000	-2.610670
	24.680000	-2.530086
	24.685000	-2.575213
	24.690000	-2.652574
	24.695000	-2.604223
	24.700000	-2.513969
	24.705000	-2.562320
	24.710000	-2.646127
	24.715000	-2.588106
	24.720000	-2.507522
	24.725000	-2.555873
	24.730000	-2.639680
	24.735000	-2.578436
	24.740000	-2.507522
	24.745000	-2.549426
	24.750000	-2.630010
	24.755000	-2.578436
	24.760000	-2.501076
	24.765000	-2.549426
	24.770000	-2.633233
	24.775000	-2.575213
	24.780000	-2.501076
	24.785000	-2.546203
	24.790000	-2.633233
	24.795000	-2.584883
	24.800000	-2.491406
	24.805000	-2.549426
	24.810000	-2.633233
	24.815000	-2.588106
	24.820000	-2.504299
	24.825000	-2.555873
	24.830000	-2.642904
	24.835000	-2.594553
	24.840000	-2.510746
	24.845000	-2.562320
	24.850000	-2.652574
	24.855000	-2.601000
	24.860000	-2.520416
	24.865000	-2.575213
	24.870000	-2.665467
	24.875000	-2.620340
	24.880000	-2.539756
	24.885000	-2.591330
	24.890000	-2.681584
	24.895000	-2.630010
	24.900000	-2.549426
	24.905000	-2.597777
	24.910000	-2.694477
	24.915000	-2.642904
	24.920000	-2.571990
	24.925000	-2.626787
	24.930000	-2.704147
	24.935000	-2.665467
	24.940000	-2.581660
	24.945000	-2.636457
	24.950000	-2.720264
	24.955000	-2.681584
	24.960000	-2.604223
	24.965000	-2.655797
	24.970000	-2.746051
	24.975000	-2.688031
	24.980000	-2.610670
	24.985000	-2.668690
	24.990000	-2.758944
	24.995000	-2.707371
	25.000000	-2.623563
	25.005000	-2.678361
	25.010000	-2.768615
	25.015000	-2.720264
	25.020000	-2.639680
	25.025000	-2.684807
	25.030000	-2.775061
	25.035000	-2.720264
	25.040000	-2.639680
	25.045000	-2.688031
	25.050000	-2.775061
	25.055000	-2.720264
	25.060000	-2.636457
	25.065000	-2.694477
	25.070000	-2.778285
	25.075000	-2.726711
	25.080000	-2.636457
	25.085000	-2.688031
	25.090000	-2.771838
	25.095000	-2.713817
	25.100000	-2.626787
	25.105000	-2.678361
	25.110000	-2.762168
	25.115000	-2.700924
	25.120000	-2.623563
	25.125000	-2.662244
	25.130000	-2.746051
	25.135000	-2.694477
	25.140000	-2.613893
	25.145000	-2.655797
	25.150000	-2.736381
	25.155000	-2.678361
	25.160000	-2.597777
	25.165000	-2.642904
	25.170000	-2.723488
	25.175000	-2.668690
	25.180000	-2.578436
	25.185000	-2.623563
	25.190000	-2.707371
	25.195000	-2.655797
	25.200000	-2.575213
	25.205000	-2.617117
	25.210000	-2.697701
	25.215000	-2.649350
	25.220000	-2.568766
	25.225000	-2.610670
	25.230000	-2.697701
	25.235000	-2.646127
	25.240000	-2.559096
	25.245000	-2.610670
	25.250000	-2.697701
	25.255000	-2.649350
	25.260000	-2.568766
	25.265000	-2.613893
	25.270000	-2.704147
	25.275000	-2.655797
	25.280000	-2.575213
	25.285000	-2.617117
	25.290000	-2.710594
	25.295000	-2.655797
	25.300000	-2.581660
	25.305000	-2.630010
	25.310000	-2.713817
	25.315000	-2.668690
	25.320000	-2.588106
	25.325000	-2.636457
	25.330000	-2.726711
	25.335000	-2.675137
	25.340000	-2.601000
	25.345000	-2.652574
	25.350000	-2.739604
	25.355000	-2.694477
	25.360000	-2.620340
	25.365000	-2.662244
	25.370000	-2.752498
	25.375000	-2.704147
	25.380000	-2.626787
	25.385000	-2.675137
	25.390000	-2.755721
	25.395000	-2.710594
	25.400000	-2.636457
	25.405000	-2.678361
	25.410000	-2.771838
	25.415000	-2.723488
	25.420000	-2.646127
	25.425000	-2.691254
	25.430000	-2.775061
	25.435000	-2.729934
	25.440000	-2.646127
	25.445000	-2.694477
	25.450000	-2.778285
	25.455000	-2.736381
	25.460000	-2.646127
	25.465000	-2.694477
	25.470000	-2.791178
	25.475000	-2.739604
	25.480000	-2.659020
	25.485000	-2.713817
	25.490000	-2.787955
	25.495000	-2.742828
	25.500000	-2.662244
	25.505000	-2.704147
	25.510000	-2.797625
	25.515000	-2.749274
	25.520000	-2.655797
	25.525000	-2.710594
	25.530000	-2.797625
	25.535000	-2.749274
	25.540000	-2.662244
	25.545000	-2.710594
	25.550000	-2.804072
	25.555000	-2.749274
	25.560000	-2.665467
	25.565000	-2.710594
	25.570000	-2.800848
	25.575000	-2.752498
	25.580000	-2.665467
	25.585000	-2.713817
	25.590000	-2.800848
	25.595000	-2.752498
	25.600000	-2.671914
	25.605000	-2.720264
	25.610000	-2.804072
	25.615000	-2.758944
	25.620000	-2.668690
	25.625000	-2.720264
	25.630000	-2.800848
	25.635000	-2.752498
	25.640000	-2.671914
	25.645000	-2.717041
	25.650000	-2.804072
	25.655000	-2.758944
	25.660000	-2.675137
	25.665000	-2.720264
	25.670000	-2.813742
	25.675000	-2.762168
	25.680000	-2.665467
	25.685000	-2.717041
	25.690000	-2.804072
	25.695000	-2.758944
	25.700000	-2.671914
	25.705000	-2.713817
	25.710000	-2.804072
	25.715000	-2.752498
	25.720000	-2.668690
	25.725000	-2.717041
	25.730000	-2.804072
	25.735000	-2.755721
	25.740000	-2.671914
	25.745000	-2.717041
	25.750000	-2.804072
	25.755000	-2.752498
	25.760000	-2.671914
	25.765000	-2.713817
	25.770000	-2.800848
	25.775000	-2.752498
	25.780000	-2.662244
	25.785000	-2.710594
	25.790000	-2.804072
	25.795000	-2.749274
	25.800000	-2.668690
	25.805000	-2.710594
	25.810000	-2.800848
	25.815000	-2.752498
	25.820000	-2.665467
	25.825000	-2.713817
	25.830000	-2.804072
	25.835000	-2.749274
	25.840000	-2.662244
	25.845000	-2.717041
	25.850000	-2.797625
	25.855000	-2.752498
	25.860000	-2.662244
	25.865000	-2.707371
	25.870000	-2.800848
	25.875000	-2.749274
	25.880000	-2.659020
	25.885000	-2.710594
	25.890000	-2.797625
	25.895000	-2.749274
	25.900000	-2.662244
	25.905000	-2.707371
	25.910000	-2.800848
	25.915000	-2.749274
	25.920000	-2.665467
	25.925000	-2.710594
	25.930000	-2.800848
	25.935000	-2.746051
	25.940000	-2.662244
	25.945000	-2.707371
	25.950000	-2.797625
	25.955000	-2.749274
	25.960000	-2.662244
	25.965000	-2.707371
	25.970000	-2.797625
	25.975000	-2.752498
	25.980000	-2.662244
	25.985000	-2.710594
	25.990000	-2.797625
	25.995000	-2.752498
	26.000000	-2.665467
	26.005000	-2.707371
	26.010000	-2.800848
	26.015000	-2.749274
	26.020000	-2.665467
	26.025000	-2.713817
	26.030000	-2.797625
	26.035000	-2.752498
	26.040000	-2.662244
	26.045000	-2.713817
	26.050000	-2.804072
	26.055000	-2.755721
	26.060000	-2.659020
	26.065000	-2.707371
	26.070000	-2.794401
	26.075000	-2.752498
	26.080000	-2.662244
	26.085000	-2.710594
	26.090000	-2.800848
	26.095000	-2.749274
	26.100000	-2.665467
	26.105000	-2.700924
	26.110000	-2.794401
	26.115000	-2.746051
	26.120000	-2.655797
	26.125000	-2.704147
	26.130000	-2.797625
	26.135000	-2.742828
	26.140000	-2.659020
	26.145000	-2.704147
	26.150000	-2.794401
	26.155000	-2.749274
	26.160000	-2.665467
	26.165000	-2.707371
	26.170000	-2.791178
	26.175000	-2.746051
	26.180000	-2.649350
	26.185000	-2.707371
	26.190000	-2.787955
	26.195000	-2.742828
	26.200000	-2.659020
	26.205000	-2.700924
	26.210000	-2.787955
	26.215000	-2.739604
	26.220000	-2.655797
	26.225000	-2.694477
	26.230000	-2.787955
	26.235000	-2.736381
	26.240000	-2.649350
	26.245000	-2.697701
	26.250000	-2.787955
	26.255000	-2.736381
	26.260000	-2.646127
	26.265000	-2.694477
	26.270000	-2.784731
	26.275000	-2.736381
	26.280000	-2.649350
	26.285000	-2.691254
	26.290000	-2.784731
	26.295000	-2.736381
	26.300000	-2.646127
	26.305000	-2.691254
	26.310000	-2.781508
	26.315000	-2.736381
	26.320000	-2.642904
	26.325000	-2.694477
	26.330000	-2.778285
	26.335000	-2.729934
	26.340000	-2.646127
	26.345000	-2.684807
	26.350000	-2.778285
	26.355000	-2.726711
	26.360000	-2.636457
	26.365000	-2.691254
	26.370000	-2.775061
	26.375000	-2.726711
	26.380000	-2.636457
	26.385000	-2.681584
	26.390000	-2.768615
	26.395000	-2.720264
	26.400000	-2.630010
	26.405000	-2.684807
	26.410000	-2.771838
	26.415000	-2.723488
	26.420000	-2.636457
	26.425000	-2.684807
	26.430000	-2.771838
	26.435000	-2.723488
	26.440000	-2.636457
	26.445000	-2.688031
	26.450000	-2.768615
	26.455000	-2.729934
	26.460000	-2.649350
	26.465000	-2.684807
	26.470000	-2.781508
	26.475000	-2.733158
	26.480000	-2.649350
	26.485000	-2.691254
	26.490000	-2.787955
	26.495000	-2.742828
	26.500000	-2.652574
	26.505000	-2.704147
	26.510000	-2.794401
	26.515000	-2.752498
	26.520000	-2.659020
	26.525000	-2.707371
	26.530000	-2.791178
	26.535000	-2.749274
	26.540000	-2.659020
	26.545000	-2.710594
	26.550000	-2.794401
	26.555000	-2.742828
	26.560000	-2.659020
	26.565000	-2.707371
	26.570000	-2.800848
	26.575000	-2.755721
	26.580000	-2.662244
	26.585000	-2.707371
	26.590000	-2.794401
	26.595000	-2.752498
	26.600000	-2.668690
	26.605000	-2.704147
	26.610000	-2.797625
	26.615000	-2.752498
	26.620000	-2.659020
	26.625000	-2.704147
	26.630000	-2.797625
	26.635000	-2.752498
	26.640000	-2.662244
	26.645000	-2.707371
	26.650000	-2.804072
	26.655000	-2.749274
	26.660000	-2.662244
	26.665000	-2.700924
	26.670000	-2.797625
	26.675000	-2.752498
	26.680000	-2.659020
	26.685000	-2.710594
	26.690000	-2.800848
	26.695000	-2.746051
	26.700000	-2.665467
	26.705000	-2.700924
	26.710000	-2.794401
	26.715000	-2.752498
	26.720000	-2.662244
	26.725000	-2.700924
	26.730000	-2.797625
	26.735000	-2.746051
	26.740000	-2.652574
	26.745000	-2.700924
	26.750000	-2.797625
	26.755000	-2.749274
	26.760000	-2.652574
	26.765000	-2.700924
	26.770000	-2.791178
	26.775000	-2.746051
	26.780000	-2.662244
	26.785000	-2.707371
	26.790000	-2.794401
	26.795000	-2.742828
	26.800000	-2.655797
	26.805000	-2.704147
	26.810000	-2.797625
	26.815000	-2.752498
	26.820000	-2.655797
	26.825000	-2.694477
	26.830000	-2.797625
	26.835000	-2.749274
	26.840000	-2.655797
	26.845000	-2.697701
	26.850000	-2.791178
	26.855000	-2.752498
	26.860000	-2.655797
	26.865000	-2.694477
	26.870000	-2.787955
	26.875000	-2.746051
	26.880000	-2.652574
	26.885000	-2.700924
	26.890000	-2.794401
	26.895000	-2.739604
	26.900000	-2.655797
	26.905000	-2.697701
	26.910000	-2.784731
	26.915000	-2.739604
	26.920000	-2.649350
	26.925000	-2.694477
	26.930000	-2.781508
	26.935000	-2.729934
	26.940000	-2.642904
	26.945000	-2.688031
	26.950000	-2.778285
	26.955000	-2.736381
	26.960000	-2.642904
	26.965000	-2.691254
	26.970000	-2.771838
	26.975000	-2.733158
	26.980000	-2.639680
	26.985000	-2.675137
	26.990000	-2.771838
	26.995000	-2.733158
	27.000000	-2.633233
	27.005000	-2.671914
	27.010000	-2.765391
	27.015000	-2.726711
	27.020000	-2.633233
	27.025000	-2.671914
	27.030000	-2.768615
	27.035000	-2.713817
	27.040000	-2.630010
	27.045000	-2.678361
	27.050000	-2.755721
	27.055000	-2.720264
	27.060000	-2.620340
	27.065000	-2.668690
	27.070000	-2.755721
	27.075000	-2.717041
	27.080000	-2.620340
	27.085000	-2.665467
	27.090000	-2.755721
	27.095000	-2.713817
	27.100000	-2.617117
	27.105000	-2.665467
	27.110000	-2.758944
	27.115000	-2.713817
	27.120000	-2.620340
	27.125000	-2.665467
	27.130000	-2.749274
	27.135000	-2.707371
	27.140000	-2.623563
	27.145000	-2.662244
	27.150000	-2.758944
	27.155000	-2.704147
	27.160000	-2.623563
	27.165000	-2.662244
	27.170000	-2.749274
	27.175000	-2.707371
	27.180000	-2.607447
	27.185000	-2.659020
	27.190000	-2.752498
	27.195000	-2.717041
	27.200000	-2.613893
	27.205000	-2.659020
	27.210000	-2.755721
	27.215000	-2.710594
	27.220000	-2.623563
	27.225000	-2.665467
	27.230000	-2.752498
	27.235000	-2.710594
	27.240000	-2.617117
	27.245000	-2.665467
	27.250000	-2.755721
	27.255000	-2.710594
	27.260000	-2.620340
	27.265000	-2.665467
	27.270000	-2.752498
	27.275000	-2.710594
	27.280000	-2.623563
	27.285000	-2.662244
	27.290000	-2.752498
	27.295000	-2.710594
	27.300000	-2.623563
	27.305000	-2.665467
	27.310000	-2.749274
	27.315000	-2.713817
	27.320000	-2.620340
	27.325000	-2.668690
	27.330000	-2.758944
	27.335000	-2.713817
	27.340000	-2.617117
	27.345000	-2.662244
	27.350000	-2.749274
	27.355000	-2.710594
	27.360000	-2.620340
	27.365000	-2.662244
	27.370000	-2.755721
	27.375000	-2.707371
	27.380000	-2.617117
	27.385000	-2.662244
	27.390000	-2.758944
	27.395000	-2.704147
	27.400000	-2.620340
	27.405000	-2.662244
	27.410000	-2.752498
	27.415000	-2.704147
	27.420000	-2.617117
	27.425000	-2.662244
	27.430000	-2.752498
	27.435000	-2.707371
	27.440000	-2.617117
	27.445000	-2.655797
	27.450000	-2.746051
	27.455000	-2.704147
	27.460000	-2.610670
	27.465000	-2.652574
	27.470000	-2.739604
	27.475000	-2.697701
	27.480000	-2.601000
	27.485000	-2.646127
	27.490000	-2.726711
	27.495000	-2.681584
	27.500000	-2.584883
	27.505000	-2.630010
	27.510000	-2.720264
	27.515000	-2.662244
	27.520000	-2.571990
	27.525000	-2.617117
	27.530000	-2.697701
	27.535000	-2.655797
	27.540000	-2.552650
	27.545000	-2.597777
	27.550000	-2.681584
	27.555000	-2.639680
	27.560000	-2.549426
	27.565000	-2.588106
	27.570000	-2.675137
	27.575000	-2.633233
	27.580000	-2.546203
	27.585000	-2.578436
	27.590000	-2.659020
	27.595000	-2.620340
	27.600000	-2.533309
	27.605000	-2.568766
	27.610000	-2.649350
	27.615000	-2.610670
	27.620000	-2.520416
	27.625000	-2.555873
	27.630000	-2.639680
	27.635000	-2.591330
	27.640000	-2.513969
	27.645000	-2.549426
	27.650000	-2.630010
	27.655000	-2.584883
	27.660000	-2.494629
	27.665000	-2.542979
	27.670000	-2.623563
	27.675000	-2.578436
	27.680000	-2.494629
	27.685000	-2.530086
	27.690000	-2.617117
	27.695000	-2.578436
	27.700000	-2.488182
	27.705000	-2.526863
	27.710000	-2.613893
	27.715000	-2.575213
	27.720000	-2.494629
	27.725000	-2.530086
	27.730000	-2.617117
	27.735000	-2.571990
	27.740000	-2.488182
	27.745000	-2.536533
	27.750000	-2.623563
	27.755000	-2.578436
	27.760000	-2.494629
	27.765000	-2.526863
	27.770000	-2.630010
	27.775000	-2.588106
	27.780000	-2.497852
	27.785000	-2.539756
	27.790000	-2.630010
	27.795000	-2.594553
	27.800000	-2.504299
	27.805000	-2.549426
	27.810000	-2.636457
	27.815000	-2.604223
	27.820000	-2.513969
	27.825000	-2.559096
	27.830000	-2.655797
	27.835000	-2.613893
	27.840000	-2.526863
	27.845000	-2.571990
	27.850000	-2.655797
	27.855000	-2.626787
	27.860000	-2.539756
	27.865000	-2.584883
	27.870000	-2.675137
	27.875000	-2.642904
	27.880000	-2.559096
	27.885000	-2.604223
	27.890000	-2.694477
	27.895000	-2.655797
	27.900000	-2.571990
	27.905000	-2.613893
	27.910000	-2.707371
	27.915000	-2.668690
	27.920000	-2.584883
	27.925000	-2.626787
	27.930000	-2.723488
	27.935000	-2.681584
	27.940000	-2.601000
	27.945000	-2.642904
	27.950000	-2.736381
	27.955000	-2.697701
	27.960000	-2.613893
	27.965000	-2.665467
	27.970000	-2.758944
	27.975000	-2.723488
	27.980000	-2.639680
	27.985000	-2.688031
	27.990000	-2.784731
	27.995000	-2.746051
	28.000000	-2.659020
	28.005000	-2.707371
	28.010000	-2.800848
	28.015000	-2.758944
	28.020000	-2.665467
	28.025000	-2.700924
	28.030000	-2.791178
	28.035000	-2.752498
	28.040000	-2.659020
	28.045000	-2.700924
	28.050000	-2.784731
	28.055000	-2.733158
	28.060000	-2.646127
	28.065000	-2.688031
	28.070000	-2.775061
	28.075000	-2.733158
	28.080000	-2.636457
	28.085000	-2.665467
	28.090000	-2.755721
	28.095000	-2.710594
	28.100000	-2.613893
	28.105000	-2.649350
	28.110000	-2.742828
	28.115000	-2.694477
	28.120000	-2.597777
	28.125000	-2.633233
	28.130000	-2.729934
	28.135000	-2.675137
	28.140000	-2.588106
	28.145000	-2.630010
	28.150000	-2.713817
	28.155000	-2.665467
	28.160000	-2.584883
	28.165000	-2.617117
	28.170000	-2.707371
	28.175000	-2.659020
	28.180000	-2.575213
	28.185000	-2.617117
	28.190000	-2.707371
	28.195000	-2.665467
	28.200000	-2.578436
	28.205000	-2.620340
	28.210000	-2.700924
	28.215000	-2.659020
	28.220000	-2.578436
	28.225000	-2.617117
	28.230000	-2.710594
	28.235000	-2.668690
	28.240000	-2.584883
	28.245000	-2.630010
	28.250000	-2.720264
	28.255000	-2.681584
	28.260000	-2.594553
	28.265000	-2.639680
	28.270000	-2.736381
	28.275000	-2.691254
	28.280000	-2.604223
	28.285000	-2.646127
	28.290000	-2.739604
	28.295000	-2.704147
	28.300000	-2.623563
	28.305000	-2.665467
	28.310000	-2.762168
	28.315000	-2.720264
	28.320000	-2.630010
	28.325000	-2.668690
	28.330000	-2.771838
	28.335000	-2.723488
	28.340000	-2.639680
	28.345000	-2.678361
	28.350000	-2.778285
	28.355000	-2.733158
	28.360000	-2.642904
	28.365000	-2.684807
	28.370000	-2.778285
	28.375000	-2.733158
	28.380000	-2.646127
	28.385000	-2.678361
	28.390000	-2.781508
	28.395000	-2.733158
	28.400000	-2.646127
	28.405000	-2.684807
	28.410000	-2.781508
	28.415000	-2.733158
	28.420000	-2.649350
	28.425000	-2.684807
	28.430000	-2.775061
	28.435000	-2.733158
	28.440000	-2.646127
	28.445000	-2.688031
	28.450000	-2.771838
	28.455000	-2.736381
	28.460000	-2.636457
	28.465000	-2.684807
	28.470000	-2.775061
	28.475000	-2.736381
	28.480000	-2.642904
	28.485000	-2.688031
	28.490000	-2.771838
	28.495000	-2.736381
	28.500000	-2.649350
	28.505000	-2.684807
	28.510000	-2.771838
	28.515000	-2.733158
	28.520000	-2.642904
	28.525000	-2.688031
	28.530000	-2.781508
	28.535000	-2.742828
	28.540000	-2.652574
	28.545000	-2.691254
	28.550000	-2.775061
	28.555000	-2.742828
	28.560000	-2.646127
	28.565000	-2.691254
	28.570000	-2.784731
	28.575000	-2.752498
	28.580000	-2.655797
	28.585000	-2.697701
	28.590000	-2.784731
	28.595000	-2.746051
	28.600000	-2.659020
	28.605000	-2.691254
	28.610000	-2.781508
	28.615000	-2.742828
	28.620000	-2.655797
	28.625000	-2.691254
	28.630000	-2.787955
	28.635000	-2.736381
	28.640000	-2.646127
	28.645000	-2.691254
	28.650000	-2.778285
	28.655000	-2.733158
	28.660000	-2.646127
	28.665000	-2.694477
	28.670000	-2.775061
	28.675000	-2.729934
	28.680000	-2.642904
	28.685000	-2.681584
	28.690000	-2.775061
	28.695000	-2.739604
	28.700000	-2.642904
	28.705000	-2.681584
	28.710000	-2.775061
	28.715000	-2.736381
	28.720000	-2.646127
	28.725000	-2.681584
	28.730000	-2.778285
	28.735000	-2.729934
	28.740000	-2.639680
	28.745000	-2.681584
	28.750000	-2.771838
	28.755000	-2.729934
	28.760000	-2.633233
	28.765000	-2.681584
	28.770000	-2.771838
	28.775000	-2.733158
	28.780000	-2.639680
	28.785000	-2.678361
	28.790000	-2.765391
	28.795000	-2.720264
	28.800000	-2.630010
	28.805000	-2.671914
	28.810000	-2.768615
	28.815000	-2.726711
	28.820000	-2.633233
	28.825000	-2.671914
	28.830000	-2.765391
	28.835000	-2.720264
	28.840000	-2.630010
	28.845000	-2.665467
	28.850000	-2.758944
	28.855000	-2.723488
	28.860000	-2.626787
	28.865000	-2.668690
	28.870000	-2.765391
	28.875000	-2.713817
	28.880000	-2.633233
	28.885000	-2.668690
	28.890000	-2.758944
	28.895000	-2.717041
	28.900000	-2.630010
	28.905000	-2.668690
	28.910000	-2.762168
	28.915000	-2.720264
	28.920000	-2.630010
	28.925000	-2.659020
	28.930000	-2.758944
	28.935000	-2.717041
	28.940000	-2.626787
	28.945000	-2.668690
	28.950000	-2.762168
	28.955000	-2.710594
	28.960000	-2.623563
	28.965000	-2.668690
	28.970000	-2.762168
	28.975000	-2.710594
	28.980000	-2.626787
	28.985000	-2.668690
	28.990000	-2.762168
	28.995000	-2.713817
	29.000000	-2.626787
	29.005000	-2.665467
	29.010000	-2.755721
	29.015000	-2.717041
	29.020000	-2.630010
	29.025000	-2.665467
	29.030000	-2.758944
	29.035000	-2.720264
	29.040000	-2.626787
	29.045000	-2.659020
	29.050000	-2.762168
	29.055000	-2.717041
	29.060000	-2.623563
	29.065000	-2.665467
	29.070000	-2.758944
	29.075000	-2.713817
	29.080000	-2.623563
	29.085000	-2.665467
	29.090000	-2.758944
	29.095000	-2.713817
	29.100000	-2.623563
	29.105000	-2.665467
	29.110000	-2.758944
	29.115000	-2.713817
	29.120000	-2.623563
	29.125000	-2.665467
	29.130000	-2.755721
	29.135000	-2.717041
	29.140000	-2.623563
	29.145000	-2.662244
	29.150000	-2.752498
	29.155000	-2.717041
	29.160000	-2.623563
	29.165000	-2.662244
	29.170000	-2.752498
	29.175000	-2.713817
	29.180000	-2.620340
	29.185000	-2.665467
	29.190000	-2.752498
	29.195000	-2.717041
	29.200000	-2.626787
	29.205000	-2.662244
	29.210000	-2.758944
	29.215000	-2.720264
	29.220000	-2.620340
	29.225000	-2.662244
	29.230000	-2.758944
	29.235000	-2.713817
	29.240000	-2.620340
	29.245000	-2.652574
	29.250000	-2.752498
	29.255000	-2.710594
	29.260000	-2.617117
	29.265000	-2.665467
	29.270000	-2.749274
	29.275000	-2.710594
	29.280000	-2.617117
	29.285000	-2.659020
	29.290000	-2.749274
	29.295000	-2.710594
	29.300000	-2.620340
	29.305000	-2.659020
	29.310000	-2.746051
	29.315000	-2.710594
	29.320000	-2.620340
	29.325000	-2.659020
	29.330000	-2.749274
	29.335000	-2.710594
	29.340000	-2.620340
	29.345000	-2.655797
	29.350000	-2.749274
	29.355000	-2.710594
	29.360000	-2.610670
	29.365000	-2.659020
	29.370000	-2.742828
	29.375000	-2.713817
	29.380000	-2.617117
	29.385000	-2.655797
	29.390000	-2.749274
	29.395000	-2.707371
	29.400000	-2.613893
	29.405000	-2.659020
	29.410000	-2.755721
	29.415000	-2.710594
	29.420000	-2.617117
	29.425000	-2.659020
	29.430000	-2.755721
	29.435000	-2.713817
	29.440000	-2.620340
	29.445000	-2.665467
	29.450000	-2.752498
	29.455000	-2.713817
	29.460000	-2.623563
	29.465000	-2.665467
	29.470000	-2.758944
	29.475000	-2.717041
	29.480000	-2.620340
	29.485000	-2.662244
	29.490000	-2.758944
	29.495000	-2.717041
	29.500000	-2.617117
	29.505000	-2.665467
	29.510000	-2.755721
	29.515000	-2.717041
	29.520000	-2.623563
	29.525000	-2.665467
	29.530000	-2.755721
	29.535000	-2.717041
	29.540000	-2.630010
	29.545000	-2.662244
	29.550000	-2.755721
	29.555000	-2.710594
	29.560000	-2.620340
	29.565000	-2.652574
	29.570000	-2.749274
	29.575000	-2.704147
	29.580000	-2.610670
	29.585000	-2.649350
	29.590000	-2.739604
	29.595000	-2.704147
	29.600000	-2.610670
	29.605000	-2.646127
	29.610000	-2.742828
	29.615000	-2.697701
	29.620000	-2.610670
	29.625000	-2.646127
	29.630000	-2.736381
	29.635000	-2.694477
	29.640000	-2.597777
	29.645000	-2.642904
	29.650000	-2.739604
	29.655000	-2.694477
	29.660000	-2.604223
	29.665000	-2.642904
	29.670000	-2.729934
	29.675000	-2.697701
	29.680000	-2.604223
	29.685000	-2.639680
	29.690000	-2.733158
	29.695000	-2.694477
	29.700000	-2.601000
	29.705000	-2.642904
	29.710000	-2.726711
	29.715000	-2.691254
	29.720000	-2.597777
	29.725000	-2.630010
	29.730000	-2.729934
	29.735000	-2.684807
	29.740000	-2.601000
	29.745000	-2.636457
	29.750000	-2.726711
	29.755000	-2.688031
	29.760000	-2.601000
	29.765000	-2.630010
	29.770000	-2.733158
	29.775000	-2.688031
	29.780000	-2.594553
	29.785000	-2.636457
	29.790000	-2.729934
	29.795000	-2.688031
	29.800000	-2.594553
	29.805000	-2.630010
	29.810000	-2.726711
	29.815000	-2.691254
	29.820000	-2.594553
	29.825000	-2.633233
	29.830000	-2.726711
	29.835000	-2.681584
	29.840000	-2.597777
	29.845000	-2.630010
	29.850000	-2.726711
	29.855000	-2.684807
	29.860000	-2.591330
	29.865000	-2.639680
	29.870000	-2.726711
	29.875000	-2.681584
	29.880000	-2.594553
	29.885000	-2.630010
	29.890000	-2.729934
	29.895000	-2.684807
	29.900000	-2.594553
	29.905000	-2.642904
	29.910000	-2.723488
	29.915000	-2.691254
	29.920000	-2.597777
	29.925000	-2.633233
	29.930000	-2.729934
	29.935000	-2.688031
	29.940000	-2.594553
	29.945000	-2.636457
	29.950000	-2.733158
	29.955000	-2.691254
	29.960000	-2.597777
	29.965000	-2.642904
	29.970000	-2.729934
	29.975000	-2.688031
	29.980000	-2.597777
	29.985000	-2.636457
	29.990000	-2.729934
	29.995000	-2.688031
	30.000000	-2.604223
	30.005000	-2.636457
	30.010000	-2.733158
	30.015000	-2.694477
	30.020000	-2.597777
	30.025000	-2.636457
	30.030000	-2.733158
	30.035000	-2.694477
	30.040000	-2.604223
	30.045000	-2.646127
	30.050000	-2.733158
	30.055000	-2.694477
	30.060000	-2.607447
	30.065000	-2.646127
	30.070000	-2.736381
	30.075000	-2.700924
	30.080000	-2.610670
	30.085000	-2.649350
	30.090000	-2.742828
	30.095000	-2.700924
	30.100000	-2.617117
	30.105000	-2.659020
	30.110000	-2.749274
	30.115000	-2.710594
	30.120000	-2.620340
	30.125000	-2.659020
	30.130000	-2.749274
	30.135000	-2.713817
	30.140000	-2.617117
	30.145000	-2.659020
	30.150000	-2.755721
	30.155000	-2.717041
	30.160000	-2.626787
	30.165000	-2.665467
	30.170000	-2.765391
	30.175000	-2.723488
	30.180000	-2.630010
	30.185000	-2.678361
	30.190000	-2.765391
	30.195000	-2.726711
	30.200000	-2.633233
	30.205000	-2.668690
	30.210000	-2.768615
	30.215000	-2.726711
	30.220000	-2.633233
	30.225000	-2.678361
	30.230000	-2.768615
	30.235000	-2.729934
	30.240000	-2.630010
	30.245000	-2.675137
	30.250000	-2.765391
	30.255000	-2.726711
	30.260000	-2.630010
	30.265000	-2.675137
	30.270000	-2.762168
	30.275000	-2.723488
	30.280000	-2.630010
	30.285000	-2.668690
	30.290000	-2.765391
	30.295000	-2.726711
	30.300000	-2.633233
	30.305000	-2.671914
	30.310000	-2.762168
	30.315000	-2.723488
	30.320000	-2.630010
	30.325000	-2.662244
	30.330000	-2.762168
	30.335000	-2.723488
	30.340000	-2.626787
	30.345000	-2.665467
	30.350000	-2.758944
	30.355000	-2.713817
	30.360000	-2.623563
	30.365000	-2.662244
	30.370000	-2.746051
	30.375000	-2.707371
	30.380000	-2.610670
	30.385000	-2.649350
	30.390000	-2.733158
	30.395000	-2.684807
	30.400000	-2.591330
	30.405000	-2.620340
	30.410000	-2.707371
	30.415000	-2.668690
	30.420000	-2.578436
	30.425000	-2.617117
	30.430000	-2.700924
	30.435000	-2.652574
	30.440000	-2.571990
	30.445000	-2.601000
	30.450000	-2.694477
	30.455000	-2.639680
	30.460000	-2.552650
	30.465000	-2.597777
	30.470000	-2.681584
	30.475000	-2.636457
	30.480000	-2.549426
	30.485000	-2.588106
	30.490000	-2.671914
	30.495000	-2.620340
	30.500000	-2.539756
	30.505000	-2.571990
	30.510000	-2.665467
	30.515000	-2.620340
	30.520000	-2.526863
	30.525000	-2.565543
	30.530000	-2.662244
	30.535000	-2.613893
	30.540000	-2.523639
	30.545000	-2.565543
	30.550000	-2.655797
	30.555000	-2.617117
	30.560000	-2.526863
	30.565000	-2.565543
	30.570000	-2.655797
	30.575000	-2.613893
	30.580000	-2.520416
	30.585000	-2.565543
	30.590000	-2.655797
	30.595000	-2.607447
	30.600000	-2.530086
	30.605000	-2.571990
	30.610000	-2.649350
	30.615000	-2.610670
	30.620000	-2.533309
	30.625000	-2.568766
	30.630000	-2.665467
	30.635000	-2.623563
	30.640000	-2.542979
	30.645000	-2.578436
	30.650000	-2.675137
	30.655000	-2.630010
	30.660000	-2.552650
	30.665000	-2.591330
	30.670000	-2.678361
	30.675000	-2.649350
	30.680000	-2.549426
	30.685000	-2.597777
	30.690000	-2.697701
	30.695000	-2.652574
	30.700000	-2.571990
	30.705000	-2.607447
	30.710000	-2.697701
	30.715000	-2.665467
	30.720000	-2.581660
	30.725000	-2.620340
	30.730000	-2.713817
	30.735000	-2.671914
	30.740000	-2.581660
	30.745000	-2.630010
	30.750000	-2.720264
	30.755000	-2.678361
	30.760000	-2.597777
	30.765000	-2.633233
	30.770000	-2.723488
	30.775000	-2.691254
	30.780000	-2.597777
	30.785000	-2.636457
	30.790000	-2.736381
	30.795000	-2.700924
	30.800000	-2.607447
	30.805000	-2.652574
	30.810000	-2.739604
	30.815000	-2.704147
	30.820000	-2.617117
	30.825000	-2.659020
	30.830000	-2.755721
	30.835000	-2.713817
	30.840000	-2.626787
	30.845000	-2.665467
	30.850000	-2.762168
	30.855000	-2.723488
	30.860000	-2.636457
	30.865000	-2.681584
	30.870000	-2.775061
	30.875000	-2.733158
	30.880000	-2.639680
	30.885000	-2.684807
	30.890000	-2.775061
	30.895000	-2.733158
	30.900000	-2.642904
	30.905000	-2.688031
	30.910000	-2.775061
	30.915000	-2.729934
	30.920000	-2.636457
	30.925000	-2.678361
	30.930000	-2.768615
	30.935000	-2.720264
	30.940000	-2.633233
	30.945000	-2.668690
	30.950000	-2.755721
	30.955000	-2.717041
	30.960000	-2.617117
	30.965000	-2.655797
	30.970000	-2.739604
	30.975000	-2.697701
	30.980000	-2.607447
	30.985000	-2.639680
	30.990000	-2.733158
	30.995000	-2.691254
	31.000000	-2.594553
	31.005000	-2.639680
	31.010000	-2.726711
	31.015000	-2.681584
	31.020000	-2.588106
	31.025000	-2.633233
	31.030000	-2.720264
	31.035000	-2.681584
	31.040000	-2.588106
	31.045000	-2.626787
	31.050000	-2.710594
	31.055000	-2.675137
	31.060000	-2.588106
	31.065000	-2.623563
	31.070000	-2.720264
	31.075000	-2.675137
	31.080000	-2.594553
	31.085000	-2.626787
	31.090000	-2.720264
	31.095000	-2.675137
	31.100000	-2.594553
	31.105000	-2.636457
	31.110000	-2.723488
	31.115000	-2.684807
	31.120000	-2.601000
	31.125000	-2.633233
	31.130000	-2.729934
	31.135000	-2.691254
	31.140000	-2.597777
	31.145000	-2.649350
	31.150000	-2.739604
	31.155000	-2.691254
	31.160000	-2.610670
	31.165000	-2.652574
	31.170000	-2.746051
	31.175000	-2.707371
	31.180000	-2.617117
	31.185000	-2.659020
	31.190000	-2.755721
	31.195000	-2.717041
	31.200000	-2.623563
	31.205000	-2.668690
	31.210000	-2.755721
	31.215000	-2.717041
	31.220000	-2.633233
	31.225000	-2.675137
	31.230000	-2.768615
	31.235000	-2.729934
	31.240000	-2.642904
	31.245000	-2.688031
	31.250000	-2.778285
	31.255000	-2.736381
	31.260000	-2.646127
	31.265000	-2.694477
	31.270000	-2.781508
	31.275000	-2.746051
	31.280000	-2.655797
	31.285000	-2.694477
	31.290000	-2.787955
	31.295000	-2.746051
	31.300000	-2.662244
	31.305000	-2.700924
	31.310000	-2.794401
	31.315000	-2.752498
	31.320000	-2.668690
	31.325000	-2.707371
	31.330000	-2.794401
	31.335000	-2.752498
	31.340000	-2.671914
	31.345000	-2.707371
	31.350000	-2.794401
	31.355000	-2.755721
	31.360000	-2.665467
	31.365000	-2.710594
	31.370000	-2.794401
	31.375000	-2.755721
	31.380000	-2.665467
	31.385000	-2.707371
	31.390000	-2.797625
	31.395000	-2.762168
	31.400000	-2.665467
	31.405000	-2.707371
	31.410000	-2.794401
	31.415000	-2.758944
	31.420000	-2.668690
	31.425000	-2.700924
	31.430000	-2.800848
	31.435000	-2.758944
	31.440000	-2.662244
	31.445000	-2.704147
	31.450000	-2.794401
	31.455000	-2.749274
	31.460000	-2.662244
	31.465000	-2.707371
	31.470000	-2.784731
	31.475000	-2.755721
	31.480000	-2.662244
	31.485000	-2.707371
	31.490000	-2.791178
	31.495000	-2.749274
	31.500000	-2.671914
	31.505000	-2.704147
	31.510000	-2.791178
	31.515000	-2.758944
	31.520000	-2.659020
	31.525000	-2.700924
	31.530000	-2.800848
	31.535000	-2.749274
	31.540000	-2.662244
	31.545000	-2.704147
	31.550000	-2.794401
	31.555000	-2.752498
	31.560000	-2.665467
	31.565000	-2.697701
	31.570000	-2.787955
	31.575000	-2.752498
	31.580000	-2.659020
	31.585000	-2.707371
	31.590000	-2.794401
	31.595000	-2.742828
	31.600000	-2.659020
	31.605000	-2.700924
	31.610000	-2.784731
	31.615000	-2.742828
	31.620000	-2.659020
	31.625000	-2.700924
	31.630000	-2.787955
	31.635000	-2.746051
	31.640000	-2.655797
	31.645000	-2.697701
	31.650000	-2.787955
	31.655000	-2.746051
	31.660000	-2.649350
	31.665000	-2.694477
	31.670000	-2.784731
	31.675000	-2.742828
	31.680000	-2.655797
	31.685000	-2.697701
	31.690000	-2.784731
	31.695000	-2.742828
	31.700000	-2.659020
	31.705000	-2.700924
	31.710000	-2.787955
	31.715000	-2.749274
	31.720000	-2.655797
	31.725000	-2.697701
	31.730000	-2.794401
	31.735000	-2.749274
	31.740000	-2.655797
	31.745000	-2.697701
	31.750000	-2.784731
	31.755000	-2.746051
	31.760000	-2.662244
	31.765000	-2.700924
	31.770000	-2.791178
	31.775000	-2.746051
	31.780000	-2.655797
	31.785000	-2.700924
	31.790000	-2.794401
	31.795000	-2.746051
	31.800000	-2.659020
	31.805000	-2.704147
	31.810000	-2.794401
	31.815000	-2.752498
	31.820000	-2.655797
	31.825000	-2.700924
	31.830000	-2.794401
	31.835000	-2.752498
	31.840000	-2.655797
	31.845000	-2.707371
	31.850000	-2.794401
	31.855000	-2.749274
	31.860000	-2.652574
	31.865000	-2.707371
	31.870000	-2.797625
	31.875000	-2.742828
	31.880000	-2.659020
	31.885000	-2.707371
	31.890000	-2.797625
	31.895000	-2.752498
	31.900000	-2.662244
	31.905000	-2.700924
	31.910000	-2.794401
	31.915000	-2.746051
	31.920000	-2.659020
	31.925000	-2.700924
	31.930000	-2.794401
	31.935000	-2.752498
	31.940000	-2.655797
	31.945000	-2.704147
	31.950000	-2.800848
	31.955000	-2.749274
	31.960000	-2.662244
	31.965000	-2.710594
	31.970000	-2.797625
	31.975000	-2.752498
	31.980000	-2.662244
	31.985000	-2.710594
	31.990000	-2.800848
	31.995000	-2.749274
	32.000000	-2.659020
	32.005000	-2.707371
	32.010000	-2.800848
	32.015000	-2.758944
	32.020000	-2.659020
	32.025000	-2.710594
	32.030000	-2.794401
	32.035000	-2.752498
	32.040000	-2.668690
	32.045000	-2.707371
	32.050000	-2.794401
	32.055000	-2.746051
	32.060000	-2.662244
	32.065000	-2.707371
	32.070000	-2.794401
	32.075000	-2.749274
	32.080000	-2.655797
	32.085000	-2.707371
	32.090000	-2.797625
	32.095000	-2.746051
	32.100000	-2.659020
	32.105000	-2.707371
	32.110000	-2.797625
	32.115000	-2.752498
	32.120000	-2.662244
	32.125000	-2.707371
	32.130000	-2.797625
	32.135000	-2.749274
	32.140000	-2.655797
	32.145000	-2.700924
	32.150000	-2.794401
	32.155000	-2.749274
	32.160000	-2.659020
	32.165000	-2.707371
	32.170000	-2.797625
	32.175000	-2.752498
	32.180000	-2.655797
	32.185000	-2.704147
	32.190000	-2.791178
	32.195000	-2.752498
	32.200000	-2.665467
	32.205000	-2.704147
	32.210000	-2.794401
	32.215000	-2.749274
	32.220000	-2.655797
	32.225000	-2.704147
	32.230000	-2.794401
	32.235000	-2.752498
	32.240000	-2.662244
	32.245000	-2.707371
	32.250000	-2.800848
	32.255000	-2.755721
	32.260000	-2.659020
	32.265000	-2.707371
	32.270000	-2.797625
	32.275000	-2.749274
	32.280000	-2.659020
	32.285000	-2.700924
	32.290000	-2.797625
	32.295000	-2.752498
	32.300000	-2.655797
	32.305000	-2.704147
	32.310000	-2.791178
	32.315000	-2.752498
	32.320000	-2.655797
	32.325000	-2.704147
	32.330000	-2.794401
	32.335000	-2.749274
	32.340000	-2.662244
	32.345000	-2.704147
	32.350000	-2.797625
	32.355000	-2.746051
	32.360000	-2.659020
	32.365000	-2.704147
	32.370000	-2.791178
	32.375000	-2.752498
	32.380000	-2.652574
	32.385000	-2.700924
	32.390000	-2.794401
	32.395000	-2.749274
	32.400000	-2.655797
	32.405000	-2.707371
	32.410000	-2.787955
	32.415000	-2.746051
	32.420000	-2.659020
	32.425000	-2.704147
	32.430000	-2.791178
	32.435000	-2.746051
	32.440000	-2.659020
	32.445000	-2.700924
	32.450000	-2.784731
	32.455000	-2.736381
	32.460000	-2.649350
	32.465000	-2.697701
	32.470000	-2.784731
	32.475000	-2.742828
	32.480000	-2.649350
	32.485000	-2.694477
	32.490000	-2.784731
	32.495000	-2.733158
	32.500000	-2.649350
	32.505000	-2.691254
	32.510000	-2.784731
	32.515000	-2.739604
	32.520000	-2.649350
	32.525000	-2.691254
	32.530000	-2.778285
	32.535000	-2.739604
	32.540000	-2.642904
	32.545000	-2.691254
	32.550000	-2.775061
	32.555000	-2.733158
	32.560000	-2.649350
	32.565000	-2.691254
	32.570000	-2.781508
	32.575000	-2.736381
	32.580000	-2.646127
	32.585000	-2.691254
	32.590000	-2.778285
	32.595000	-2.736381
	32.600000	-2.639680
	32.605000	-2.684807
	32.610000	-2.781508
	32.615000	-2.736381
	32.620000	-2.646127
	32.625000	-2.691254
	32.630000	-2.784731
	32.635000	-2.729934
	32.640000	-2.642904
	32.645000	-2.691254
	32.650000	-2.781508
	32.655000	-2.733158
	32.660000	-2.642904
	32.665000	-2.691254
	32.670000	-2.778285
	32.675000	-2.733158
	32.680000	-2.639680
	32.685000	-2.694477
	32.690000	-2.781508
	32.695000	-2.736381
	32.700000	-2.642904
	32.705000	-2.691254
	32.710000	-2.784731
	32.715000	-2.729934
	32.720000	-2.642904
	32.725000	-2.691254
	32.730000	-2.775061
	32.735000	-2.726711
	32.740000	-2.636457
	32.745000	-2.688031
	32.750000	-2.778285
	32.755000	-2.726711
	32.760000	-2.639680
	32.765000	-2.688031
	32.770000	-2.778285
	32.775000	-2.729934
	32.780000	-2.642904
	32.785000	-2.691254
	32.790000	-2.775061
	32.795000	-2.726711
	32.800000	-2.639680
	32.805000	-2.684807
	32.810000	-2.771838
	32.815000	-2.717041
	32.820000	-2.639680
	32.825000	-2.684807
	32.830000	-2.775061
	32.835000	-2.720264
	32.840000	-2.636457
	32.845000	-2.681584
	32.850000	-2.768615
	32.855000	-2.720264
	32.860000	-2.639680
	32.865000	-2.684807
	32.870000	-2.768615
	32.875000	-2.726711
	32.880000	-2.633233
	32.885000	-2.678361
	32.890000	-2.768615
	32.895000	-2.723488
	32.900000	-2.633233
	32.905000	-2.681584
	32.910000	-2.771838
	32.915000	-2.717041
	32.920000	-2.630010
	32.925000	-2.688031
	32.930000	-2.771838
	32.935000	-2.723488
	32.940000	-2.633233
	32.945000	-2.684807
	32.950000	-2.771838
	32.955000	-2.717041
	32.960000	-2.636457
	32.965000	-2.684807
	32.970000	-2.771838
	32.975000	-2.723488
	32.980000	-2.636457
	32.985000	-2.678361
	32.990000	-2.765391
	32.995000	-2.720264
	33.000000	-2.630010
	33.005000	-2.675137
	33.010000	-2.762168
	33.015000	-2.713817
	33.020000	-2.626787
	33.025000	-2.675137
	33.030000	-2.762168
	33.035000	-2.717041
	33.040000	-2.630010
	33.045000	-2.675137
	33.050000	-2.765391
	33.055000	-2.710594
	33.060000	-2.630010
	33.065000	-2.675137
	33.070000	-2.762168
	33.075000	-2.707371
	33.080000	-2.630010
	33.085000	-2.675137
	33.090000	-2.762168
	33.095000	-2.717041
	33.100000	-2.626787
	33.105000	-2.675137
	33.110000	-2.762168
	33.115000	-2.720264
	33.120000	-2.630010
	33.125000	-2.678361
	33.130000	-2.768615
	33.135000	-2.717041
	33.140000	-2.633233
	33.145000	-2.684807
	33.150000	-2.768615
	33.155000	-2.723488
	33.160000	-2.633233
	33.165000	-2.681584
	33.170000	-2.765391
	33.175000	-2.720264
	33.180000	-2.636457
	33.185000	-2.681584
	33.190000	-2.775061
	33.195000	-2.720264
	33.200000	-2.633233
	33.205000	-2.681584
	33.210000	-2.768615
	33.215000	-2.723488
	33.220000	-2.633233
	33.225000	-2.678361
	33.230000	-2.771838
	33.235000	-2.723488
	33.240000	-2.633233
	33.245000	-2.688031
	33.250000	-2.778285
	33.255000	-2.723488
	33.260000	-2.639680
	33.265000	-2.691254
	33.270000	-2.781508
	33.275000	-2.723488
	33.280000	-2.639680
	33.285000	-2.697701
	33.290000	-2.775061
	33.295000	-2.720264
	33.300000	-2.630010
	33.305000	-2.684807
	33.310000	-2.775061
	33.315000	-2.726711
	33.320000	-2.630010
	33.325000	-2.681584
	33.330000	-2.768615
	33.335000	-2.710594
	33.340000	-2.623563
	33.345000	-2.671914
	33.350000	-2.758944
	33.355000	-2.704147
	33.360000	-2.613893
	33.365000	-2.662244
	33.370000	-2.742828
	33.375000	-2.691254
	33.380000	-2.604223
	33.385000	-2.646127
	33.390000	-2.733158
	33.395000	-2.675137
	33.400000	-2.588106
	33.405000	-2.639680
	33.410000	-2.713817
	33.415000	-2.668690
	33.420000	-2.575213
	33.425000	-2.617117
	33.430000	-2.707371
	33.435000	-2.655797
	33.440000	-2.568766
	33.445000	-2.617117
	33.450000	-2.694477
	33.455000	-2.639680
	33.460000	-2.555873
	33.465000	-2.601000
	33.470000	-2.688031
	33.475000	-2.626787
	33.480000	-2.546203
	33.485000	-2.591330
	33.490000	-2.675137
	33.495000	-2.626787
	33.500000	-2.539756
	33.505000	-2.588106
	33.510000	-2.665467
	33.515000	-2.617117
	33.520000	-2.533309
	33.525000	-2.581660
	33.530000	-2.662244
	33.535000	-2.607447
	33.540000	-2.526863
	33.545000	-2.575213
	33.550000	-2.655797
	33.555000	-2.613893
	33.560000	-2.530086
	33.565000	-2.578436
	33.570000	-2.655797
	33.575000	-2.607447
	33.580000	-2.526863
	33.585000	-2.575213
	33.590000	-2.662244
	33.595000	-2.617117
	33.600000	-2.530086
	33.605000	-2.581660
	33.610000	-2.665467
	33.615000	-2.617117
	33.620000	-2.542979
	33.625000	-2.597777
	33.630000	-2.675137
	33.635000	-2.626787
	33.640000	-2.549426
	33.645000	-2.604223
	33.650000	-2.691254
	33.655000	-2.636457
	33.660000	-2.559096
	33.665000	-2.610670
	33.670000	-2.697701
	33.675000	-2.652574
	33.680000	-2.571990
	33.685000	-2.623563
	33.690000	-2.713817
	33.695000	-2.655797
	33.700000	-2.581660
	33.705000	-2.633233
	33.710000	-2.717041
	33.715000	-2.668690
	33.720000	-2.588106
	33.725000	-2.646127
	33.730000	-2.726711
	33.735000	-2.678361
	33.740000	-2.594553
	33.745000	-2.649350
	33.750000	-2.736381
	33.755000	-2.684807
	33.760000	-2.607447
	33.765000	-2.668690
	33.770000	-2.749274
	33.775000	-2.697701
	33.780000	-2.623563
	33.785000	-2.678361
	33.790000	-2.768615
	33.795000	-2.720264
	33.800000	-2.642904
	33.805000	-2.704147
	33.810000	-2.787955
	33.815000	-2.742828
	33.820000	-2.665467
	33.825000	-2.713817
	33.830000	-2.794401
	33.835000	-2.739604
	33.840000	-2.665467
	33.845000	-2.713817
	33.850000	-2.797625
	33.855000	-2.749274
	33.860000	-2.665467
	33.865000	-2.717041
	33.870000	-2.804072
	33.875000	-2.749274
	33.880000	-2.662244
	33.885000	-2.717041
	33.890000	-2.797625
	33.895000	-2.746051
	33.900000	-2.652574
	33.905000	-2.713817
	33.910000	-2.787955
	33.915000	-2.733158
	33.920000	-2.652574
	33.925000	-2.697701
	33.930000	-2.784731
	33.935000	-2.729934
	33.940000	-2.642904
	33.945000	-2.684807
	33.950000	-2.765391
	33.955000	-2.707371
	33.960000	-2.623563
	33.965000	-2.678361
	33.970000	-2.749274
	33.975000	-2.694477
	33.980000	-2.610670
	33.985000	-2.655797
	33.990000	-2.736381
	33.995000	-2.681584
	34.000000	-2.597777
	34.005000	-2.646127
	34.010000	-2.736381
	34.015000	-2.671914
	34.020000	-2.594553
	34.025000	-2.649350
	34.030000	-2.729934
	34.035000	-2.675137
	34.040000	-2.594553
	34.045000	-2.652574
	34.050000	-2.736381
	34.055000	-2.684807
	34.060000	-2.601000
	34.065000	-2.662244
	34.070000	-2.739604
	34.075000	-2.688031
	34.080000	-2.601000
	34.085000	-2.665467
	34.090000	-2.742828
	34.095000	-2.694477
	34.100000	-2.607447
	34.105000	-2.665467
	34.110000	-2.746051
	34.115000	-2.697701
	34.120000	-2.610670
	34.125000	-2.668690
	34.130000	-2.755721
	34.135000	-2.688031
	34.140000	-2.617117
	34.145000	-2.671914
	34.150000	-2.755721
	34.155000	-2.704147
	34.160000	-2.620340
	34.165000	-2.675137
	34.170000	-2.762168
	34.175000	-2.707371
	34.180000	-2.623563
	34.185000	-2.684807
	34.190000	-2.762168
	34.195000	-2.713817
	34.200000	-2.630010
	34.205000	-2.688031
	34.210000	-2.765391
	34.215000	-2.713817
	34.220000	-2.633233
	34.225000	-2.684807
	34.230000	-2.771838
	34.235000	-2.713817
	34.240000	-2.639680
	34.245000	-2.691254
	34.250000	-2.768615
	34.255000	-2.713817
	34.260000	-2.633233
	34.265000	-2.700924
	34.270000	-2.778285
	34.275000	-2.723488
	34.280000	-2.642904
	34.285000	-2.691254
	34.290000	-2.781508
	34.295000	-2.726711
	34.300000	-2.646127
	34.305000	-2.697701
	34.310000	-2.781508
	34.315000	-2.726711
	34.320000	-2.649350
	34.325000	-2.707371
	34.330000	-2.781508
	34.335000	-2.733158
	34.340000	-2.649350
	34.345000	-2.704147
	34.350000	-2.784731
	34.355000	-2.729934
	34.360000	-2.649350
	34.365000	-2.704147
	34.370000	-2.791178
	34.375000	-2.726711
	34.380000	-2.652574
	34.385000	-2.704147
	34.390000	-2.791178
	34.395000	-2.729934
	34.400000	-2.652574
	34.405000	-2.697701
	34.410000	-2.791178
	34.415000	-2.726711
	34.420000	-2.649350
	34.425000	-2.704147
	34.430000	-2.787955
	34.435000	-2.733158
	34.440000	-2.649350
	34.445000	-2.700924
	34.450000	-2.787955
	34.455000	-2.733158
	34.460000	-2.646127
	34.465000	-2.697701
	34.470000	-2.787955
	34.475000	-2.723488
	34.480000	-2.642904
	34.485000	-2.700924
	34.490000	-2.781508
	34.495000	-2.720264
	34.500000	-2.642904
	34.505000	-2.700924
	34.510000	-2.781508
	34.515000	-2.717041
	34.520000	-2.636457
	34.525000	-2.691254
	34.530000	-2.778285
	34.535000	-2.720264
	34.540000	-2.636457
	34.545000	-2.694477
	34.550000	-2.768615
	34.555000	-2.710594
	34.560000	-2.630010
	34.565000	-2.681584
	34.570000	-2.765391
	34.575000	-2.710594
	34.580000	-2.623563
	34.585000	-2.681584
	34.590000	-2.758944
	34.595000	-2.700924
	34.600000	-2.620340
	34.605000	-2.675137
	34.610000	-2.752498
	34.615000	-2.697701
	34.620000	-2.617117
	34.625000	-2.678361
	34.630000	-2.749274
	34.635000	-2.697701
	34.640000	-2.617117
	34.645000	-2.675137
	34.650000	-2.755721
	34.655000	-2.691254
	34.660000	-2.617117
	34.665000	-2.668690
	34.670000	-2.749274
	34.675000	-2.691254
	34.680000	-2.613893
	34.685000	-2.671914
	34.690000	-2.755721
	34.695000	-2.691254
	34.700000	-2.617117
	34.705000	-2.668690
	34.710000	-2.758944
	34.715000	-2.694477
	34.720000	-2.613893
	34.725000	-2.675137
	34.730000	-2.749274
	34.735000	-2.691254
	34.740000	-2.613893
	34.745000	-2.668690
	34.750000	-2.752498
	34.755000	-2.697701
	34.760000	-2.613893
	34.765000	-2.678361
	34.770000	-2.755721
	34.775000	-2.691254
	34.780000	-2.610670
	34.785000	-2.675137
	34.790000	-2.762168
	34.795000	-2.700924
	34.800000	-2.617117
	34.805000	-2.675137
	34.810000	-2.758944
	34.815000	-2.697701
	34.820000	-2.617117
	34.825000	-2.668690
	34.830000	-2.755721
	34.835000	-2.700924
	34.840000	-2.620340
	34.845000	-2.675137
	34.850000	-2.755721
	34.855000	-2.700924
	34.860000	-2.617117
	34.865000	-2.678361
	34.870000	-2.762168
	34.875000	-2.697701
	34.880000	-2.623563
	34.885000	-2.684807
	34.890000	-2.765391
	34.895000	-2.700924
	34.900000	-2.623563
	34.905000	-2.681584
	34.910000	-2.762168
	34.915000	-2.697701
	34.920000	-2.617117
	34.925000	-2.681584
	34.930000	-2.765391
	34.935000	-2.700924
	34.940000	-2.620340
	34.945000	-2.684807
	34.950000	-2.758944
	34.955000	-2.700924
	34.960000	-2.613893
	34.965000	-2.678361
	34.970000	-2.758944
	34.975000	-2.694477
	34.980000	-2.617117
	34.985000	-2.684807
	34.990000	-2.765391
	34.995000	-2.704147
	35.000000	-2.617117
	35.005000	-2.681584
	35.010000	-2.758944
	35.015000	-2.700924
	35.020000	-2.617117
	35.025000	-2.678361
	35.030000	-2.758944
	35.035000	-2.691254
	35.040000	-2.617117
	35.045000	-2.684807
	35.050000	-2.762168
	35.055000	-2.694477
	35.060000	-2.613893
	35.065000	-2.675137
	35.070000	-2.758944
	35.075000	-2.704147
	35.080000	-2.613893
	35.085000	-2.678361
	35.090000	-2.762168
	35.095000	-2.694477
	35.100000	-2.613893
	35.105000	-2.675137
	35.110000	-2.758944
	35.115000	-2.694477
	35.120000	-2.617117
	35.125000	-2.678361
	35.130000	-2.758944
	35.135000	-2.697701
	35.140000	-2.617117
	35.145000	-2.675137
	35.150000	-2.755721
	35.155000	-2.694477
	35.160000	-2.620340
	35.165000	-2.681584
	35.170000	-2.755721
	35.175000	-2.697701
	35.180000	-2.610670
	35.185000	-2.671914
	35.190000	-2.762168
	35.195000	-2.700924
	35.200000	-2.613893
	35.205000	-2.678361
	35.210000	-2.758944
	35.215000	-2.691254
	35.220000	-2.626787
	35.225000	-2.678361
	35.230000	-2.762168
	35.235000	-2.697701
	35.240000	-2.617117
	35.245000	-2.671914
	35.250000	-2.762168
	35.255000	-2.694477
	35.260000	-2.620340
	35.265000	-2.678361
	35.270000	-2.758944
	35.275000	-2.694477
	35.280000	-2.613893
	35.285000	-2.675137
	35.290000	-2.762168
	35.295000	-2.697701
	35.300000	-2.620340
	35.305000	-2.681584
	35.310000	-2.762168
	35.315000	-2.694477
	35.320000	-2.617117
	35.325000	-2.681584
	35.330000	-2.752498
	35.335000	-2.700924
	35.340000	-2.617117
	35.345000	-2.681584
	35.350000	-2.752498
	35.355000	-2.691254
	35.360000	-2.613893
	35.365000	-2.671914
	35.370000	-2.755721
	35.375000	-2.694477
	35.380000	-2.613893
	35.385000	-2.668690
	35.390000	-2.755721
	35.395000	-2.688031
	35.400000	-2.613893
	35.405000	-2.675137
	35.410000	-2.749274
	35.415000	-2.688031
	35.420000	-2.610670
	35.425000	-2.675137
	35.430000	-2.749274
	35.435000	-2.688031
	35.440000	-2.613893
	35.445000	-2.678361
	35.450000	-2.752498
	35.455000	-2.688031
	35.460000	-2.607447
	35.465000	-2.678361
	35.470000	-2.752498
	35.475000	-2.691254
	35.480000	-2.617117
	35.485000	-2.681584
	35.490000	-2.752498
	35.495000	-2.691254
	35.500000	-2.613893
	35.505000	-2.675137
	35.510000	-2.758944
	35.515000	-2.688031
	35.520000	-2.610670
	35.525000	-2.681584
	35.530000	-2.758944
	35.535000	-2.688031
	35.540000	-2.617117
	35.545000	-2.684807
	35.550000	-2.765391
	35.555000	-2.694477
	35.560000	-2.610670
	35.565000	-2.681584
	35.570000	-2.762168
	35.575000	-2.700924
	35.580000	-2.617117
	35.585000	-2.681584
	35.590000	-2.765391
	35.595000	-2.704147
	35.600000	-2.623563
	35.605000	-2.684807
	35.610000	-2.758944
	35.615000	-2.697701
	35.620000	-2.623563
	35.625000	-2.688031
	35.630000	-2.765391
	35.635000	-2.707371
	35.640000	-2.620340
	35.645000	-2.691254
	35.650000	-2.768615
	35.655000	-2.707371
	35.660000	-2.623563
	35.665000	-2.688031
	35.670000	-2.765391
	35.675000	-2.704147
	35.680000	-2.620340
	35.685000	-2.694477
	35.690000	-2.762168
	35.695000	-2.704147
	35.700000	-2.620340
	35.705000	-2.684807
	35.710000	-2.762168
	35.715000	-2.697701
	35.720000	-2.620340
	35.725000	-2.684807
	35.730000	-2.762168
	35.735000	-2.697701
	35.740000	-2.623563
	35.745000	-2.688031
	35.750000	-2.765391
	35.755000	-2.697701
	35.760000	-2.626787
	35.765000	-2.688031
	35.770000	-2.762168
	35.775000	-2.694477
	35.780000	-2.617117
	35.785000	-2.694477
	35.790000	-2.768615
	35.795000	-2.697701
	35.800000	-2.620340
	35.805000	-2.691254
	35.810000	-2.765391
	35.815000	-2.694477
	35.820000	-2.617117
	35.825000	-2.691254
	35.830000	-2.765391
	35.835000	-2.697701
	35.840000	-2.623563
	35.845000	-2.688031
	35.850000	-2.768615
	35.855000	-2.691254
	35.860000	-2.623563
	35.865000	-2.684807
	35.870000	-2.758944
	35.875000	-2.694477
	35.880000	-2.617117
	35.885000	-2.688031
	35.890000	-2.755721
	35.895000	-2.691254
	35.900000	-2.610670
	35.905000	-2.681584
	35.910000	-2.758944
	35.915000	-2.691254
	35.920000	-2.617117
	35.925000	-2.681584
	35.930000	-2.755721
	35.935000	-2.691254
	35.940000	-2.617117
	35.945000	-2.688031
	35.950000	-2.762168
	35.955000	-2.688031
	35.960000	-2.617117
	35.965000	-2.684807
	35.970000	-2.758944
	35.975000	-2.691254
	35.980000	-2.620340
	35.985000	-2.684807
	35.990000	-2.762168
	35.995000	-2.700924
	36.000000	-2.623563
	36.005000	-2.688031
	36.010000	-2.768615
	36.015000	-2.694477
	36.020000	-2.626787
	36.025000	-2.691254
	36.030000	-2.762168
	36.035000	-2.697701
	36.040000	-2.623563
	36.045000	-2.691254
	36.050000	-2.762168
	36.055000	-2.694477
	36.060000	-2.626787
	36.065000	-2.694477
	36.070000	-2.765391
	36.075000	-2.691254
	36.080000	-2.617117
	36.085000	-2.688031
	36.090000	-2.762168
	36.095000	-2.694477
	36.100000	-2.623563
	36.105000	-2.684807
	36.110000	-2.755721
	36.115000	-2.691254
	36.120000	-2.617117
	36.125000	-2.678361
	36.130000	-2.752498
	36.135000	-2.681584
	36.140000	-2.607447
	36.145000	-2.671914
	36.150000	-2.739604
	36.155000	-2.671914
	36.160000	-2.584883
	36.165000	-2.649350
	36.170000	-2.720264
	36.175000	-2.649350
	36.180000	-2.568766
	36.185000	-2.633233
	36.190000	-2.697701
	36.195000	-2.633233
	36.200000	-2.555873
	36.205000	-2.620340
	36.210000	-2.691254
	36.215000	-2.613893
	36.220000	-2.530086
	36.225000	-2.601000
	36.230000	-2.668690
	36.235000	-2.597777
	36.240000	-2.526863
	36.245000	-2.591330
	36.250000	-2.659020
	36.255000	-2.584883
	36.260000	-2.513969
	36.265000	-2.584883
	36.270000	-2.649350
	36.275000	-2.581660
	36.280000	-2.507522
	36.285000	-2.571990
	36.290000	-2.642904
	36.295000	-2.575213
	36.300000	-2.497852
	36.305000	-2.562320
	36.310000	-2.636457
	36.315000	-2.568766
	36.320000	-2.501076
	36.325000	-2.562320
	36.330000	-2.626787
	36.335000	-2.565543
	36.340000	-2.488182
	36.345000	-2.555873
	36.350000	-2.623563
	36.355000	-2.559096
	36.360000	-2.488182
	36.365000	-2.552650
	36.370000	-2.626787
	36.375000	-2.552650
	36.380000	-2.484959
	36.385000	-2.552650
	36.390000	-2.623563
	36.395000	-2.562320
	36.400000	-2.488182
	36.405000	-2.555873
	36.410000	-2.630010
	36.415000	-2.555873
	36.420000	-2.497852
	36.425000	-2.562320
	36.430000	-2.639680
	36.435000	-2.568766
	36.440000	-2.504299
	36.445000	-2.571990
	36.450000	-2.639680
	36.455000	-2.575213
	36.460000	-2.513969
	36.465000	-2.588106
	36.470000	-2.652574
	36.475000	-2.584883
	36.480000	-2.520416
	36.485000	-2.591330
	36.490000	-2.659020
	36.495000	-2.601000
	36.500000	-2.533309
	36.505000	-2.604223
	36.510000	-2.675137
	36.515000	-2.604223
	36.520000	-2.542979
	36.525000	-2.617117
	36.530000	-2.688031
	36.535000	-2.626787
	36.540000	-2.555873
	36.545000	-2.633233
	36.550000	-2.704147
	36.555000	-2.642904
	36.560000	-2.581660
	36.565000	-2.652574
	36.570000	-2.729934
	36.575000	-2.662244
	36.580000	-2.594553
	36.585000	-2.671914
	36.590000	-2.749274
	36.595000	-2.675137
	36.600000	-2.617117
	36.605000	-2.688031
	36.610000	-2.758944
	36.615000	-2.691254
	36.620000	-2.626787
	36.625000	-2.697701
	36.630000	-2.762168
	36.635000	-2.697701
	36.640000	-2.633233
	36.645000	-2.694477
	36.650000	-2.762168
	36.655000	-2.694477
	36.660000	-2.623563
	36.665000	-2.691254
	36.670000	-2.762168
	36.675000	-2.688031
	36.680000	-2.613893
	36.685000	-2.684807
	36.690000	-2.752498
	36.695000	-2.684807
	36.700000	-2.610670
	36.705000	-2.671914
	36.710000	-2.746051
	36.715000	-2.668690
	36.720000	-2.594553
	36.725000	-2.652574
	36.730000	-2.720264
	36.735000	-2.642904
	36.740000	-2.571990
	36.745000	-2.639680
	36.750000	-2.707371
	36.755000	-2.630010
	36.760000	-2.562320
	36.765000	-2.630010
	36.770000	-2.694477
	36.775000	-2.623563
	36.780000	-2.552650
	36.785000	-2.617117
	36.790000	-2.688031
	36.795000	-2.620340
	36.800000	-2.549426
	36.805000	-2.617117
	36.810000	-2.684807
	36.815000	-2.617117
	36.820000	-2.546203
	36.825000	-2.620340
	36.830000	-2.681584
	36.835000	-2.610670
	36.840000	-2.539756
	36.845000	-2.617117
	36.850000	-2.681584
	36.855000	-2.613893
	36.860000	-2.549426
	36.865000	-2.620340
	36.870000	-2.694477
	36.875000	-2.617117
	36.880000	-2.559096
	36.885000	-2.623563
	36.890000	-2.691254
	36.895000	-2.623563
	36.900000	-2.559096
	36.905000	-2.626787
	36.910000	-2.688031
	36.915000	-2.630010
	36.920000	-2.559096
	36.925000	-2.630010
	36.930000	-2.697701
	36.935000	-2.630010
	36.940000	-2.565543
	36.945000	-2.630010
	36.950000	-2.704147
	36.955000	-2.633233
	36.960000	-2.568766
	36.965000	-2.642904
	36.970000	-2.713817
	36.975000	-2.642904
	36.980000	-2.578436
	36.985000	-2.649350
	36.990000	-2.720264
	36.995000	-2.649350
	37.000000	-2.591330
	37.005000	-2.655797
	37.010000	-2.726711
	37.015000	-2.662244
	37.020000	-2.591330
	37.025000	-2.662244
	37.030000	-2.733158
	37.035000	-2.665467
	37.040000	-2.597777
	37.045000	-2.678361
	37.050000	-2.736381
	37.055000	-2.675137
	37.060000	-2.617117
	37.065000	-2.694477
	37.070000	-2.762168
	37.075000	-2.688031
	37.080000	-2.630010
	37.085000	-2.700924
	37.090000	-2.768615
	37.095000	-2.704147
	37.100000	-2.639680
	37.105000	-2.713817
	37.110000	-2.778285
	37.115000	-2.707371
	37.120000	-2.649350
	37.125000	-2.713817
	37.130000	-2.781508
	37.135000	-2.707371
	37.140000	-2.649350
	37.145000	-2.723488
	37.150000	-2.794401
	37.155000	-2.717041
	37.160000	-2.649350
	37.165000	-2.720264
	37.170000	-2.794401
	37.175000	-2.713817
	37.180000	-2.659020
	37.185000	-2.729934
	37.190000	-2.794401
	37.195000	-2.723488
	37.200000	-2.662244
	37.205000	-2.726711
	37.210000	-2.791178
	37.215000	-2.720264
	37.220000	-2.659020
	37.225000	-2.733158
	37.230000	-2.800848
	37.235000	-2.726711
	37.240000	-2.659020
	37.245000	-2.736381
	37.250000	-2.800848
	37.255000	-2.729934
	37.260000	-2.662244
	37.265000	-2.736381
	37.270000	-2.797625
	37.275000	-2.726711
	37.280000	-2.662244
	37.285000	-2.733158
	37.290000	-2.800848
	37.295000	-2.729934
	37.300000	-2.662244
	37.305000	-2.736381
	37.310000	-2.800848
	37.315000	-2.726711
	37.320000	-2.662244
	37.325000	-2.736381
	37.330000	-2.797625
	37.335000	-2.726711
	37.340000	-2.665467
	37.345000	-2.739604
	37.350000	-2.804072
	37.355000	-2.729934
	37.360000	-2.665467
	37.365000	-2.736381
	37.370000	-2.800848
	37.375000	-2.729934
	37.380000	-2.662244
	37.385000	-2.733158
	37.390000	-2.797625
	37.395000	-2.723488
	37.400000	-2.662244
	37.405000	-2.739604
	37.410000	-2.807295
	37.415000	-2.726711
	37.420000	-2.659020
	37.425000	-2.742828
	37.430000	-2.804072
	37.435000	-2.723488
	37.440000	-2.665467
	37.445000	-2.742828
	37.450000	-2.807295
	37.455000	-2.726711
	37.460000	-2.668690
	37.465000	-2.742828
	37.470000	-2.804072
	37.475000	-2.733158
	37.480000	-2.665467
	37.485000	-2.746051
	37.490000	-2.804072
	37.495000	-2.729934
	37.500000	-2.668690
	37.505000	-2.742828
	37.510000	-2.804072
	37.515000	-2.729934
	37.520000	-2.668690
	37.525000	-2.742828
	37.530000	-2.800848
	37.535000	-2.726711
	37.540000	-2.668690
	37.545000	-2.746051
	37.550000	-2.807295
	37.555000	-2.720264
	37.560000	-2.662244
	37.565000	-2.736381
	37.570000	-2.804072
	37.575000	-2.729934
	37.580000	-2.665467
	37.585000	-2.739604
	37.590000	-2.800848
	37.595000	-2.726711
	37.600000	-2.668690
	37.605000	-2.742828
	37.610000	-2.804072
	37.615000	-2.729934
	37.620000	-2.668690
	37.625000	-2.742828
	37.630000	-2.813742
	37.635000	-2.733158
	37.640000	-2.675137
	37.645000	-2.752498
	37.650000	-2.813742
	37.655000	-2.746051
	37.660000	-2.681584
	37.665000	-2.758944
	37.670000	-2.823412
	37.675000	-2.746051
	37.680000	-2.688031
	37.685000	-2.758944
	37.690000	-2.826635
	37.695000	-2.746051
	37.700000	-2.684807
	37.705000	-2.771838
	37.710000	-2.829858
	37.715000	-2.758944
	37.720000	-2.691254
	37.725000	-2.775061
	37.730000	-2.829858
	37.735000	-2.755721
	37.740000	-2.691254
	37.745000	-2.775061
	37.750000	-2.836305
	37.755000	-2.755721
	37.760000	-2.700924
	37.765000	-2.775061
	37.770000	-2.836305
	37.775000	-2.762168
	37.780000	-2.697701
	37.785000	-2.778285
	37.790000	-2.836305
	37.795000	-2.762168
	37.800000	-2.697701
	37.805000	-2.775061
	37.810000	-2.839528
	37.815000	-2.762168
	37.820000	-2.694477
	37.825000	-2.784731
	37.830000	-2.836305
