2024/7/11 	 17:40:51 
 This file comes from Vt only measurement 	 1.000000E-1 
 Voltage Sensitivity 	 0.000000E+0 
 Sampling rate 	 200 
 Number of samples per channel 	 -1 
 No filter from Labview 	 	 	 
 	 
 ***End_of_Header*** 
 	 Time 	  Voltage 	 Filtered Voltage 	 
	0.000000	-0.344649
	0.005000	-0.296298
	0.010000	-0.235054
	0.015000	-0.273735
	0.020000	-0.334979
	0.025000	-0.296298
	0.030000	-0.225384
	0.035000	-0.267288
	0.040000	-0.334979
	0.045000	-0.293075
	0.050000	-0.228608
	0.055000	-0.264065
	0.060000	-0.341425
	0.065000	-0.289852
	0.070000	-0.222161
	0.075000	-0.267288
	0.080000	-0.334979
	0.085000	-0.293075
	0.090000	-0.218938
	0.095000	-0.260841
	0.100000	-0.331755
	0.105000	-0.289852
	0.110000	-0.225384
	0.115000	-0.260841
	0.120000	-0.328532
	0.125000	-0.283405
	0.130000	-0.222161
	0.135000	-0.260841
	0.140000	-0.334979
	0.145000	-0.293075
	0.150000	-0.225384
	0.155000	-0.267288
	0.160000	-0.328532
	0.165000	-0.289852
	0.170000	-0.228608
	0.175000	-0.270511
	0.180000	-0.334979
	0.185000	-0.293075
	0.190000	-0.228608
	0.195000	-0.267288
	0.200000	-0.338202
	0.205000	-0.296298
	0.210000	-0.228608
	0.215000	-0.270511
	0.220000	-0.341425
	0.225000	-0.286628
	0.230000	-0.228608
	0.235000	-0.270511
	0.240000	-0.328532
	0.245000	-0.289852
	0.250000	-0.225384
	0.255000	-0.270511
	0.260000	-0.331755
	0.265000	-0.289852
	0.270000	-0.218938
	0.275000	-0.270511
	0.280000	-0.331755
	0.285000	-0.289852
	0.290000	-0.215714
	0.295000	-0.264065
	0.300000	-0.331755
	0.305000	-0.283405
	0.310000	-0.215714
	0.315000	-0.267288
	0.320000	-0.331755
	0.325000	-0.286628
	0.330000	-0.218938
	0.335000	-0.257618
	0.340000	-0.318862
	0.345000	-0.280181
	0.350000	-0.209268
	0.355000	-0.251171
	0.360000	-0.315638
	0.365000	-0.267288
	0.370000	-0.209268
	0.375000	-0.244725
	0.380000	-0.309192
	0.385000	-0.260841
	0.390000	-0.193151
	0.395000	-0.231831
	0.400000	-0.299522
	0.405000	-0.251171
	0.410000	-0.183481
	0.415000	-0.231831
	0.420000	-0.296298
	0.425000	-0.251171
	0.430000	-0.180257
	0.435000	-0.225384
	0.440000	-0.293075
	0.445000	-0.238278
	0.450000	-0.177034
	0.455000	-0.225384
	0.460000	-0.286628
	0.465000	-0.241501
	0.470000	-0.177034
	0.475000	-0.222161
	0.480000	-0.283405
	0.485000	-0.235054
	0.490000	-0.173811
	0.495000	-0.215714
	0.500000	-0.283405
	0.505000	-0.231831
	0.510000	-0.170587
	0.515000	-0.209268
	0.520000	-0.280181
	0.525000	-0.238278
	0.530000	-0.173811
	0.535000	-0.222161
	0.540000	-0.283405
	0.545000	-0.238278
	0.550000	-0.173811
	0.555000	-0.218938
	0.560000	-0.283405
	0.565000	-0.238278
	0.570000	-0.173811
	0.575000	-0.218938
	0.580000	-0.283405
	0.585000	-0.238278
	0.590000	-0.170587
	0.595000	-0.212491
	0.600000	-0.286628
	0.605000	-0.235054
	0.610000	-0.167364
	0.615000	-0.215714
	0.620000	-0.273735
	0.625000	-0.235054
	0.630000	-0.170587
	0.635000	-0.212491
	0.640000	-0.276958
	0.645000	-0.228608
	0.650000	-0.164141
	0.655000	-0.209268
	0.660000	-0.276958
	0.665000	-0.228608
	0.670000	-0.164141
	0.675000	-0.202821
	0.680000	-0.270511
	0.685000	-0.225384
	0.690000	-0.154470
	0.695000	-0.193151
	0.700000	-0.260841
	0.705000	-0.209268
	0.710000	-0.144800
	0.715000	-0.186704
	0.720000	-0.251171
	0.725000	-0.202821
	0.730000	-0.141577
	0.735000	-0.186704
	0.740000	-0.244725
	0.745000	-0.199597
	0.750000	-0.135130
	0.755000	-0.183481
	0.760000	-0.241501
	0.765000	-0.196374
	0.770000	-0.131907
	0.775000	-0.177034
	0.780000	-0.241501
	0.785000	-0.193151
	0.790000	-0.131907
	0.795000	-0.170587
	0.800000	-0.251171
	0.805000	-0.193151
	0.810000	-0.125460
	0.815000	-0.170587
	0.820000	-0.241501
	0.825000	-0.196374
	0.830000	-0.131907
	0.835000	-0.180257
	0.840000	-0.241501
	0.845000	-0.199597
	0.850000	-0.135130
	0.855000	-0.170587
	0.860000	-0.241501
	0.865000	-0.199597
	0.870000	-0.135130
	0.875000	-0.183481
	0.880000	-0.247948
	0.885000	-0.199597
	0.890000	-0.131907
	0.895000	-0.183481
	0.900000	-0.244725
	0.905000	-0.199597
	0.910000	-0.138354
	0.915000	-0.177034
	0.920000	-0.241501
	0.925000	-0.193151
	0.930000	-0.128684
	0.935000	-0.177034
	0.940000	-0.238278
	0.945000	-0.186704
	0.950000	-0.119014
	0.955000	-0.160917
	0.960000	-0.225384
	0.965000	-0.177034
	0.970000	-0.122237
	0.975000	-0.154470
	0.980000	-0.218938
	0.985000	-0.170587
	0.990000	-0.109343
	0.995000	-0.151247
	1.000000	-0.212491
	1.005000	-0.160917
	1.010000	-0.102897
	1.015000	-0.151247
	1.020000	-0.212491
	1.025000	-0.164141
	1.030000	-0.102897
	1.035000	-0.148024
	1.040000	-0.206044
	1.045000	-0.167364
	1.050000	-0.109343
	1.055000	-0.148024
	1.060000	-0.215714
	1.065000	-0.167364
	1.070000	-0.102897
	1.075000	-0.157694
	1.080000	-0.222161
	1.085000	-0.170587
	1.090000	-0.109343
	1.095000	-0.154470
	1.100000	-0.222161
	1.105000	-0.173811
	1.110000	-0.106120
	1.115000	-0.164141
	1.120000	-0.222161
	1.125000	-0.173811
	1.130000	-0.112567
	1.135000	-0.157694
	1.140000	-0.231831
	1.145000	-0.180257
	1.150000	-0.112567
	1.155000	-0.167364
	1.160000	-0.228608
	1.165000	-0.180257
	1.170000	-0.112567
	1.175000	-0.160917
	1.180000	-0.225384
	1.185000	-0.180257
	1.190000	-0.115790
	1.195000	-0.170587
	1.200000	-0.228608
	1.205000	-0.180257
	1.210000	-0.119014
	1.215000	-0.160917
	1.220000	-0.222161
	1.225000	-0.183481
	1.230000	-0.122237
	1.235000	-0.170587
	1.240000	-0.228608
	1.245000	-0.180257
	1.250000	-0.115790
	1.255000	-0.157694
	1.260000	-0.225384
	1.265000	-0.170587
	1.270000	-0.115790
	1.275000	-0.157694
	1.280000	-0.215714
	1.285000	-0.177034
	1.290000	-0.112567
	1.295000	-0.151247
	1.300000	-0.225384
	1.305000	-0.167364
	1.310000	-0.099673
	1.315000	-0.151247
	1.320000	-0.215714
	1.325000	-0.170587
	1.330000	-0.099673
	1.335000	-0.151247
	1.340000	-0.212491
	1.345000	-0.167364
	1.350000	-0.093227
	1.355000	-0.157694
	1.360000	-0.206044
	1.365000	-0.160917
	1.370000	-0.096450
	1.375000	-0.141577
	1.380000	-0.206044
	1.385000	-0.157694
	1.390000	-0.093227
	1.395000	-0.141577
	1.400000	-0.206044
	1.405000	-0.160917
	1.410000	-0.096450
	1.415000	-0.141577
	1.420000	-0.202821
	1.425000	-0.157694
	1.430000	-0.090003
	1.435000	-0.138354
	1.440000	-0.202821
	1.445000	-0.157694
	1.450000	-0.086780
	1.455000	-0.135130
	1.460000	-0.199597
	1.465000	-0.154470
	1.470000	-0.096450
	1.475000	-0.125460
	1.480000	-0.199597
	1.485000	-0.144800
	1.490000	-0.086780
	1.495000	-0.131907
	1.500000	-0.193151
	1.505000	-0.144800
	1.510000	-0.073886
	1.515000	-0.125460
	1.520000	-0.189927
	1.525000	-0.141577
	1.530000	-0.073886
	1.535000	-0.122237
	1.540000	-0.193151
	1.545000	-0.131907
	1.550000	-0.073886
	1.555000	-0.119014
	1.560000	-0.183481
	1.565000	-0.131907
	1.570000	-0.070663
	1.575000	-0.112567
	1.580000	-0.183481
	1.585000	-0.128684
	1.590000	-0.064216
	1.595000	-0.109343
	1.600000	-0.173811
	1.605000	-0.122237
	1.610000	-0.060993
	1.615000	-0.109343
	1.620000	-0.177034
	1.625000	-0.122237
	1.630000	-0.064216
	1.635000	-0.106120
	1.640000	-0.170587
	1.645000	-0.122237
	1.650000	-0.057770
	1.655000	-0.096450
	1.660000	-0.167364
	1.665000	-0.119014
	1.670000	-0.054546
	1.675000	-0.099673
	1.680000	-0.160917
	1.685000	-0.115790
	1.690000	-0.054546
	1.695000	-0.096450
	1.700000	-0.164141
	1.705000	-0.115790
	1.710000	-0.048100
	1.715000	-0.096450
	1.720000	-0.160917
	1.725000	-0.112567
	1.730000	-0.051323
	1.735000	-0.090003
	1.740000	-0.157694
	1.745000	-0.109343
	1.750000	-0.044876
	1.755000	-0.099673
	1.760000	-0.154470
	1.765000	-0.109343
	1.770000	-0.044876
	1.775000	-0.096450
	1.780000	-0.157694
	1.785000	-0.099673
	1.790000	-0.041653
	1.795000	-0.090003
	1.800000	-0.151247
	1.805000	-0.102897
	1.810000	-0.038430
	1.815000	-0.080333
	1.820000	-0.154470
	1.825000	-0.099673
	1.830000	-0.038430
	1.835000	-0.086780
	1.840000	-0.144800
	1.845000	-0.099673
	1.850000	-0.038430
	1.855000	-0.080333
	1.860000	-0.148024
	1.865000	-0.093227
	1.870000	-0.028759
	1.875000	-0.080333
	1.880000	-0.135130
	1.885000	-0.086780
	1.890000	-0.025536
	1.895000	-0.073886
	1.900000	-0.138354
	1.905000	-0.083557
	1.910000	-0.022313
	1.915000	-0.070663
	1.920000	-0.128684
	1.925000	-0.080333
	1.930000	-0.009419
	1.935000	-0.057770
	1.940000	-0.119014
	1.945000	-0.073886
	1.950000	-0.006196
	1.955000	-0.054546
	1.960000	-0.115790
	1.965000	-0.064216
	1.970000	0.003474
	1.975000	-0.051323
	1.980000	-0.102897
	1.985000	-0.064216
	1.990000	0.000251
	1.995000	-0.035206
	2.000000	-0.106120
	2.005000	-0.057770
	2.010000	0.003474
	2.015000	-0.038430
	2.020000	-0.099673
	2.025000	-0.048100
	2.030000	0.009921
	2.035000	-0.035206
	2.040000	-0.099673
	2.045000	-0.051323
	2.050000	0.016368
	2.055000	-0.035206
	2.060000	-0.099673
	2.065000	-0.041653
	2.070000	0.016368
	2.075000	-0.031983
	2.080000	-0.093227
	2.085000	-0.038430
	2.090000	0.013144
	2.095000	-0.031983
	2.100000	-0.096450
	2.105000	-0.041653
	2.110000	0.013144
	2.115000	-0.028759
	2.120000	-0.093227
	2.125000	-0.041653
	2.130000	0.019591
	2.135000	-0.025536
	2.140000	-0.090003
	2.145000	-0.041653
	2.150000	0.026038
	2.155000	-0.031983
	2.160000	-0.086780
	2.165000	-0.041653
	2.170000	0.026038
	2.175000	-0.028759
	2.180000	-0.083557
	2.185000	-0.035206
	2.190000	0.022814
	2.195000	-0.019089
	2.200000	-0.083557
	2.205000	-0.035206
	2.210000	0.032484
	2.215000	-0.022313
	2.220000	-0.080333
	2.225000	-0.041653
	2.230000	0.026038
	2.235000	-0.019089
	2.240000	-0.080333
	2.245000	-0.035206
	2.250000	0.026038
	2.255000	-0.019089
	2.260000	-0.080333
	2.265000	-0.031983
	2.270000	0.029261
	2.275000	-0.025536
	2.280000	-0.080333
	2.285000	-0.035206
	2.290000	0.026038
	2.295000	-0.015866
	2.300000	-0.083557
	2.305000	-0.028759
	2.310000	0.029261
	2.315000	-0.022313
	2.320000	-0.083557
	2.325000	-0.031983
	2.330000	0.029261
	2.335000	-0.012643
	2.340000	-0.077110
	2.345000	-0.025536
	2.350000	0.035708
	2.355000	-0.009419
	2.360000	-0.067440
	2.365000	-0.015866
	2.370000	0.051825
	2.375000	0.013144
	2.380000	-0.044876
	2.385000	0.003474
	2.390000	0.077611
	2.395000	0.038931
	2.400000	-0.022313
	2.405000	0.042154
	2.410000	0.109845
	2.415000	0.067941
	2.420000	0.019591
	2.425000	0.074388
	2.430000	0.145302
	2.435000	0.096952
	2.440000	0.045378
	2.445000	0.103398
	2.450000	0.167865
	2.455000	0.122738
	2.460000	0.071165
	2.465000	0.129185
	2.470000	0.196876
	2.475000	0.154972
	2.480000	0.109845
	2.485000	0.161419
	2.490000	0.232333
	2.495000	0.187206
	2.500000	0.135632
	2.505000	0.190429
	2.510000	0.261343
	2.515000	0.219439
	2.520000	0.167865
	2.525000	0.219439
	2.530000	0.280683
	2.535000	0.242003
	2.540000	0.190429
	2.545000	0.242003
	2.550000	0.303247
	2.555000	0.261343
	2.560000	0.200099
	2.565000	0.251673
	2.570000	0.312917
	2.575000	0.267790
	2.580000	0.212992
	2.585000	0.258119
	2.590000	0.319363
	2.595000	0.267790
	2.600000	0.212992
	2.605000	0.261343
	2.610000	0.325810
	2.615000	0.274236
	2.620000	0.212992
	2.625000	0.261343
	2.630000	0.329033
	2.635000	0.277460
	2.640000	0.219439
	2.645000	0.261343
	2.650000	0.329033
	2.655000	0.277460
	2.660000	0.222663
	2.665000	0.274236
	2.670000	0.335480
	2.675000	0.287130
	2.680000	0.229109
	2.685000	0.280683
	2.690000	0.341927
	2.695000	0.296800
	2.700000	0.245226
	2.705000	0.293576
	2.710000	0.358044
	2.715000	0.306470
	2.720000	0.254896
	2.725000	0.300023
	2.730000	0.364490
	2.735000	0.316140
	2.740000	0.264566
	2.745000	0.300023
	2.750000	0.367714
	2.755000	0.322587
	2.760000	0.264566
	2.765000	0.312917
	2.770000	0.370937
	2.775000	0.325810
	2.780000	0.274236
	2.785000	0.319363
	2.790000	0.367714
	2.795000	0.325810
	2.800000	0.271013
	2.805000	0.316140
	2.810000	0.380607
	2.815000	0.335480
	2.820000	0.274236
	2.825000	0.309693
	2.830000	0.380607
	2.835000	0.322587
	2.840000	0.274236
	2.845000	0.322587
	2.850000	0.370937
	2.855000	0.325810
	2.860000	0.271013
	2.865000	0.316140
	2.870000	0.374160
	2.875000	0.322587
	2.880000	0.267790
	2.885000	0.306470
	2.890000	0.367714
	2.895000	0.309693
	2.900000	0.258119
	2.905000	0.293576
	2.910000	0.345150
	2.915000	0.296800
	2.920000	0.229109
	2.925000	0.267790
	2.930000	0.322587
	2.935000	0.271013
	2.940000	0.206546
	2.945000	0.245226
	2.950000	0.287130
	2.955000	0.232333
	2.960000	0.164642
	2.965000	0.203322
	2.970000	0.245226
	2.975000	0.193652
	2.980000	0.129185
	2.985000	0.164642
	2.990000	0.212992
	2.995000	0.158195
	3.000000	0.090505
	3.005000	0.135632
	3.010000	0.183982
	3.015000	0.129185
	3.020000	0.064718
	3.025000	0.109845
	3.030000	0.158195
	3.035000	0.109845
	3.040000	0.048601
	3.045000	0.093728
	3.050000	0.148525
	3.055000	0.096952
	3.060000	0.045378
	3.065000	0.084058
	3.070000	0.138855
	3.075000	0.100175
	3.080000	0.042154
	3.085000	0.084058
	3.090000	0.148525
	3.095000	0.096952
	3.100000	0.048601
	3.105000	0.096952
	3.110000	0.161419
	3.115000	0.116292
	3.120000	0.061495
	3.125000	0.109845
	3.130000	0.177536
	3.135000	0.132408
	3.140000	0.074388
	3.145000	0.129185
	3.150000	0.193652
	3.155000	0.148525
	3.160000	0.090505
	3.165000	0.148525
	3.170000	0.206546
	3.175000	0.167865
	3.180000	0.106622
	3.185000	0.167865
	3.190000	0.225886
	3.195000	0.174312
	3.200000	0.122738
	3.205000	0.167865
	3.210000	0.229109
	3.215000	0.180759
	3.220000	0.125962
	3.225000	0.167865
	3.230000	0.229109
	3.235000	0.180759
	3.240000	0.116292
	3.245000	0.167865
	3.250000	0.219439
	3.255000	0.167865
	3.260000	0.109845
	3.265000	0.154972
	3.270000	0.209769
	3.275000	0.148525
	3.280000	0.090505
	3.285000	0.132408
	3.290000	0.183982
	3.295000	0.135632
	3.300000	0.071165
	3.305000	0.113068
	3.310000	0.154972
	3.315000	0.113068
	3.320000	0.048601
	3.325000	0.090505
	3.330000	0.145302
	3.335000	0.093728
	3.340000	0.038931
	3.345000	0.077611
	3.350000	0.129185
	3.355000	0.077611
	3.360000	0.016368
	3.365000	0.064718
	3.370000	0.122738
	3.375000	0.067941
	3.380000	0.006697
	3.385000	0.051825
	3.390000	0.106622
	3.395000	0.055048
	3.400000	-0.006196
	3.405000	0.042154
	3.410000	0.100175
	3.415000	0.051825
	3.420000	-0.006196
	3.425000	0.035708
	3.430000	0.093728
	3.435000	0.038931
	3.440000	-0.019089
	3.445000	0.022814
	3.450000	0.084058
	3.455000	0.038931
	3.460000	-0.022313
	3.465000	0.026038
	3.470000	0.080835
	3.475000	0.029261
	3.480000	-0.025536
	3.485000	0.019591
	3.490000	0.077611
	3.495000	0.032484
	3.500000	-0.028759
	3.505000	0.016368
	3.510000	0.074388
	3.515000	0.026038
	3.520000	-0.038430
	3.525000	0.019591
	3.530000	0.071165
	3.535000	0.029261
	3.540000	-0.031983
	3.545000	0.019591
	3.550000	0.077611
	3.555000	0.022814
	3.560000	-0.035206
	3.565000	0.013144
	3.570000	0.067941
	3.575000	0.016368
	3.580000	-0.035206
	3.585000	0.013144
	3.590000	0.064718
	3.595000	0.019591
	3.600000	-0.044876
	3.605000	0.006697
	3.610000	0.058271
	3.615000	0.019591
	3.620000	-0.041653
	3.625000	0.006697
	3.630000	0.061495
	3.635000	0.013144
	3.640000	-0.044876
	3.645000	0.006697
	3.650000	0.061495
	3.655000	0.016368
	3.660000	-0.041653
	3.665000	0.006697
	3.670000	0.058271
	3.675000	0.016368
	3.680000	-0.044876
	3.685000	0.000251
	3.690000	0.061495
	3.695000	0.006697
	3.700000	-0.048100
	3.705000	0.000251
	3.710000	0.058271
	3.715000	0.013144
	3.720000	-0.051323
	3.725000	-0.002973
	3.730000	0.061495
	3.735000	0.013144
	3.740000	-0.048100
	3.745000	0.000251
	3.750000	0.061495
	3.755000	0.009921
	3.760000	-0.044876
	3.765000	0.003474
	3.770000	0.061495
	3.775000	0.009921
	3.780000	-0.044876
	3.785000	0.000251
	3.790000	0.071165
	3.795000	0.016368
	3.800000	-0.041653
	3.805000	0.006697
	3.810000	0.064718
	3.815000	0.019591
	3.820000	-0.044876
	3.825000	0.006697
	3.830000	0.064718
	3.835000	0.019591
	3.840000	-0.038430
	3.845000	0.009921
	3.850000	0.067941
	3.855000	0.026038
	3.860000	-0.048100
	3.865000	0.009921
	3.870000	0.074388
	3.875000	0.026038
	3.880000	-0.038430
	3.885000	0.013144
	3.890000	0.074388
	3.895000	0.026038
	3.900000	-0.031983
	3.905000	0.019591
	3.910000	0.087281
	3.915000	0.032484
	3.920000	-0.031983
	3.925000	0.022814
	3.930000	0.084058
	3.935000	0.029261
	3.940000	-0.028759
	3.945000	0.026038
	3.950000	0.080835
	3.955000	0.038931
	3.960000	-0.022313
	3.965000	0.026038
	3.970000	0.080835
	3.975000	0.038931
	3.980000	-0.025536
	3.985000	0.029261
	3.990000	0.087281
	3.995000	0.038931
	4.000000	-0.019089
	4.005000	0.029261
	4.010000	0.090505
	4.015000	0.048601
	4.020000	-0.015866
	4.025000	0.035708
	4.030000	0.090505
	4.035000	0.045378
	4.040000	-0.012643
	4.045000	0.032484
	4.050000	0.090505
	4.055000	0.042154
	4.060000	-0.012643
	4.065000	0.035708
	4.070000	0.100175
	4.075000	0.051825
	4.080000	-0.009419
	4.085000	0.042154
	4.090000	0.096952
	4.095000	0.048601
	4.100000	-0.009419
	4.105000	0.035708
	4.110000	0.093728
	4.115000	0.051825
	4.120000	-0.012643
	4.125000	0.045378
	4.130000	0.103398
	4.135000	0.045378
	4.140000	-0.006196
	4.145000	0.045378
	4.150000	0.096952
	4.155000	0.045378
	4.160000	-0.009419
	4.165000	0.042154
	4.170000	0.103398
	4.175000	0.051825
	4.180000	-0.009419
	4.185000	0.038931
	4.190000	0.106622
	4.195000	0.048601
	4.200000	-0.006196
	4.205000	0.038931
	4.210000	0.103398
	4.215000	0.055048
	4.220000	-0.006196
	4.225000	0.045378
	4.230000	0.106622
	4.235000	0.051825
	4.240000	-0.002973
	4.245000	0.038931
	4.250000	0.106622
	4.255000	0.051825
	4.260000	0.003474
	4.265000	0.048601
	4.270000	0.103398
	4.275000	0.051825
	4.280000	0.000251
	4.285000	0.048601
	4.290000	0.106622
	4.295000	0.055048
	4.300000	0.000251
	4.305000	0.051825
	4.310000	0.109845
	4.315000	0.058271
	4.320000	0.000251
	4.325000	0.051825
	4.330000	0.106622
	4.335000	0.061495
	4.340000	0.000251
	4.345000	0.051825
	4.350000	0.106622
	4.355000	0.055048
	4.360000	0.003474
	4.365000	0.051825
	4.370000	0.113068
	4.375000	0.064718
	4.380000	0.003474
	4.385000	0.051825
	4.390000	0.119515
	4.395000	0.067941
	4.400000	0.003474
	4.405000	0.055048
	4.410000	0.103398
	4.415000	0.064718
	4.420000	0.006697
	4.425000	0.055048
	4.430000	0.113068
	4.435000	0.064718
	4.440000	0.006697
	4.445000	0.051825
	4.450000	0.109845
	4.455000	0.067941
	4.460000	0.009921
	4.465000	0.058271
	4.470000	0.113068
	4.475000	0.061495
	4.480000	0.006697
	4.485000	0.055048
	4.490000	0.113068
	4.495000	0.061495
	4.500000	0.006697
	4.505000	0.058271
	4.510000	0.113068
	4.515000	0.064718
	4.520000	0.006697
	4.525000	0.061495
	4.530000	0.116292
	4.535000	0.071165
	4.540000	0.013144
	4.545000	0.055048
	4.550000	0.119515
	4.555000	0.064718
	4.560000	0.013144
	4.565000	0.058271
	4.570000	0.116292
	4.575000	0.071165
	4.580000	0.013144
	4.585000	0.058271
	4.590000	0.116292
	4.595000	0.071165
	4.600000	0.013144
	4.605000	0.064718
	4.610000	0.119515
	4.615000	0.071165
	4.620000	0.003474
	4.625000	0.064718
	4.630000	0.125962
	4.635000	0.077611
	4.640000	0.016368
	4.645000	0.071165
	4.650000	0.122738
	4.655000	0.074388
	4.660000	0.019591
	4.665000	0.067941
	4.670000	0.125962
	4.675000	0.080835
	4.680000	0.019591
	4.685000	0.067941
	4.690000	0.129185
	4.695000	0.080835
	4.700000	0.026038
	4.705000	0.077611
	4.710000	0.129185
	4.715000	0.077611
	4.720000	0.026038
	4.725000	0.071165
	4.730000	0.132408
	4.735000	0.077611
	4.740000	0.022814
	4.745000	0.077611
	4.750000	0.129185
	4.755000	0.084058
	4.760000	0.022814
	4.765000	0.077611
	4.770000	0.138855
	4.775000	0.090505
	4.780000	0.026038
	4.785000	0.074388
	4.790000	0.138855
	4.795000	0.084058
	4.800000	0.029261
	4.805000	0.077611
	4.810000	0.138855
	4.815000	0.084058
	4.820000	0.026038
	4.825000	0.077611
	4.830000	0.142079
	4.835000	0.087281
	4.840000	0.026038
	4.845000	0.084058
	4.850000	0.135632
	4.855000	0.087281
	4.860000	0.026038
	4.865000	0.074388
	4.870000	0.145302
	4.875000	0.084058
	4.880000	0.026038
	4.885000	0.077611
	4.890000	0.142079
	4.895000	0.084058
	4.900000	0.032484
	4.905000	0.077611
	4.910000	0.142079
	4.915000	0.087281
	4.920000	0.032484
	4.925000	0.077611
	4.930000	0.138855
	4.935000	0.084058
	4.940000	0.026038
	4.945000	0.077611
	4.950000	0.138855
	4.955000	0.084058
	4.960000	0.032484
	4.965000	0.084058
	4.970000	0.142079
	4.975000	0.090505
	4.980000	0.032484
	4.985000	0.087281
	4.990000	0.148525
	4.995000	0.093728
	5.000000	0.035708
	5.005000	0.090505
	5.010000	0.148525
	5.015000	0.103398
	5.020000	0.048601
	5.025000	0.090505
	5.030000	0.154972
	5.035000	0.106622
	5.040000	0.045378
	5.045000	0.096952
	5.050000	0.154972
	5.055000	0.106622
	5.060000	0.048601
	5.065000	0.100175
	5.070000	0.158195
	5.075000	0.109845
	5.080000	0.042154
	5.085000	0.100175
	5.090000	0.161419
	5.095000	0.113068
	5.100000	0.055048
	5.105000	0.100175
	5.110000	0.158195
	5.115000	0.103398
	5.120000	0.055048
	5.125000	0.096952
	5.130000	0.161419
	5.135000	0.109845
	5.140000	0.051825
	5.145000	0.103398
	5.150000	0.161419
	5.155000	0.109845
	5.160000	0.051825
	5.165000	0.113068
	5.170000	0.167865
	5.175000	0.116292
	5.180000	0.055048
	5.185000	0.116292
	5.190000	0.174312
	5.195000	0.129185
	5.200000	0.064718
	5.205000	0.122738
	5.210000	0.190429
	5.215000	0.145302
	5.220000	0.096952
	5.225000	0.154972
	5.230000	0.212992
	5.235000	0.180759
	5.240000	0.129185
	5.245000	0.187206
	5.250000	0.251673
	5.255000	0.209769
	5.260000	0.151749
	5.265000	0.209769
	5.270000	0.271013
	5.275000	0.235556
	5.280000	0.171089
	5.285000	0.235556
	5.290000	0.300023
	5.295000	0.251673
	5.300000	0.196876
	5.305000	0.254896
	5.310000	0.322587
	5.315000	0.274236
	5.320000	0.225886
	5.325000	0.277460
	5.330000	0.341927
	5.335000	0.303247
	5.340000	0.248449
	5.345000	0.296800
	5.350000	0.361267
	5.355000	0.316140
	5.360000	0.264566
	5.365000	0.312917
	5.370000	0.380607
	5.375000	0.332257
	5.380000	0.280683
	5.385000	0.329033
	5.390000	0.393501
	5.395000	0.341927
	5.400000	0.293576
	5.405000	0.341927
	5.410000	0.406394
	5.415000	0.354820
	5.420000	0.303247
	5.425000	0.354820
	5.430000	0.419287
	5.435000	0.374160
	5.440000	0.312917
	5.445000	0.367714
	5.450000	0.435404
	5.455000	0.383830
	5.460000	0.332257
	5.465000	0.380607
	5.470000	0.445074
	5.475000	0.403171
	5.480000	0.341927
	5.485000	0.396724
	5.490000	0.454744
	5.495000	0.412841
	5.500000	0.351597
	5.505000	0.403171
	5.510000	0.464414
	5.515000	0.422511
	5.520000	0.361267
	5.525000	0.412841
	5.530000	0.477308
	5.535000	0.432181
	5.540000	0.374160
	5.545000	0.422511
	5.550000	0.483755
	5.555000	0.438628
	5.560000	0.390277
	5.565000	0.441851
	5.570000	0.490201
	5.575000	0.445074
	5.580000	0.387054
	5.585000	0.445074
	5.590000	0.499871
	5.595000	0.448298
	5.600000	0.396724
	5.605000	0.451521
	5.610000	0.499871
	5.615000	0.457968
	5.620000	0.399947
	5.625000	0.445074
	5.630000	0.503095
	5.635000	0.451521
	5.640000	0.403171
	5.645000	0.445074
	5.650000	0.506318
	5.655000	0.451521
	5.660000	0.399947
	5.665000	0.445074
	5.670000	0.503095
	5.675000	0.454744
	5.680000	0.399947
	5.685000	0.448298
	5.690000	0.496648
	5.695000	0.448298
	5.700000	0.403171
	5.705000	0.441851
	5.710000	0.490201
	5.715000	0.454744
	5.720000	0.390277
	5.725000	0.438628
	5.730000	0.483755
	5.735000	0.441851
	5.740000	0.383830
	5.745000	0.432181
	5.750000	0.477308
	5.755000	0.428957
	5.760000	0.374160
	5.765000	0.422511
	5.770000	0.467638
	5.775000	0.416064
	5.780000	0.354820
	5.785000	0.396724
	5.790000	0.454744
	5.795000	0.409617
	5.800000	0.341927
	5.805000	0.390277
	5.810000	0.435404
	5.815000	0.383830
	5.820000	0.322587
	5.825000	0.358044
	5.830000	0.409617
	5.835000	0.348374
	5.840000	0.287130
	5.845000	0.329033
	5.850000	0.367714
	5.855000	0.319363
	5.860000	0.251673
	5.865000	0.287130
	5.870000	0.332257
	5.875000	0.280683
	5.880000	0.216216
	5.885000	0.258119
	5.890000	0.296800
	5.895000	0.248449
	5.900000	0.190429
	5.905000	0.229109
	5.910000	0.274236
	5.915000	0.222663
	5.920000	0.167865
	5.925000	0.206546
	5.930000	0.258119
	5.935000	0.206546
	5.940000	0.138855
	5.945000	0.183982
	5.950000	0.232333
	5.955000	0.180759
	5.960000	0.122738
	5.965000	0.167865
	5.970000	0.222663
	5.975000	0.174312
	5.980000	0.109845
	5.985000	0.154972
	5.990000	0.216216
	5.995000	0.164642
	6.000000	0.103398
	6.005000	0.154972
	6.010000	0.209769
	6.015000	0.158195
	6.020000	0.096952
	6.025000	0.148525
	6.030000	0.203322
	6.035000	0.151749
	6.040000	0.096952
	6.045000	0.142079
	6.050000	0.200099
	6.055000	0.151749
	6.060000	0.096952
	6.065000	0.138855
	6.070000	0.200099
	6.075000	0.145302
	6.080000	0.084058
	6.085000	0.135632
	6.090000	0.193652
	6.095000	0.151749
	6.100000	0.090505
	6.105000	0.135632
	6.110000	0.190429
	6.115000	0.142079
	6.120000	0.087281
	6.125000	0.138855
	6.130000	0.196876
	6.135000	0.142079
	6.140000	0.090505
	6.145000	0.135632
	6.150000	0.190429
	6.155000	0.145302
	6.160000	0.084058
	6.165000	0.132408
	6.170000	0.190429
	6.175000	0.142079
	6.180000	0.080835
	6.185000	0.132408
	6.190000	0.193652
	6.195000	0.142079
	6.200000	0.074388
	6.205000	0.125962
	6.210000	0.183982
	6.215000	0.132408
	6.220000	0.077611
	6.225000	0.119515
	6.230000	0.183982
	6.235000	0.135632
	6.240000	0.071165
	6.245000	0.119515
	6.250000	0.180759
	6.255000	0.132408
	6.260000	0.067941
	6.265000	0.116292
	6.270000	0.171089
	6.275000	0.125962
	6.280000	0.067941
	6.285000	0.122738
	6.290000	0.180759
	6.295000	0.129185
	6.300000	0.071165
	6.305000	0.116292
	6.310000	0.174312
	6.315000	0.122738
	6.320000	0.067941
	6.325000	0.116292
	6.330000	0.177536
	6.335000	0.125962
	6.340000	0.067941
	6.345000	0.119515
	6.350000	0.180759
	6.355000	0.135632
	6.360000	0.058271
	6.365000	0.122738
	6.370000	0.174312
	6.375000	0.129185
	6.380000	0.058271
	6.385000	0.109845
	6.390000	0.171089
	6.395000	0.122738
	6.400000	0.064718
	6.405000	0.106622
	6.410000	0.177536
	6.415000	0.116292
	6.420000	0.067941
	6.425000	0.113068
	6.430000	0.167865
	6.435000	0.119515
	6.440000	0.064718
	6.445000	0.116292
	6.450000	0.171089
	6.455000	0.119515
	6.460000	0.064718
	6.465000	0.113068
	6.470000	0.171089
	6.475000	0.122738
	6.480000	0.067941
	6.485000	0.109845
	6.490000	0.171089
	6.495000	0.122738
	6.500000	0.061495
	6.505000	0.109845
	6.510000	0.167865
	6.515000	0.125962
	6.520000	0.061495
	6.525000	0.116292
	6.530000	0.174312
	6.535000	0.116292
	6.540000	0.061495
	6.545000	0.106622
	6.550000	0.171089
	6.555000	0.122738
	6.560000	0.061495
	6.565000	0.113068
	6.570000	0.167865
	6.575000	0.119515
	6.580000	0.058271
	6.585000	0.116292
	6.590000	0.164642
	6.595000	0.122738
	6.600000	0.058271
	6.605000	0.113068
	6.610000	0.167865
	6.615000	0.125962
	6.620000	0.061495
	6.625000	0.106622
	6.630000	0.171089
	6.635000	0.113068
	6.640000	0.064718
	6.645000	0.109845
	6.650000	0.164642
	6.655000	0.122738
	6.660000	0.064718
	6.665000	0.113068
	6.670000	0.167865
	6.675000	0.122738
	6.680000	0.058271
	6.685000	0.103398
	6.690000	0.171089
	6.695000	0.122738
	6.700000	0.061495
	6.705000	0.113068
	6.710000	0.174312
	6.715000	0.122738
	6.720000	0.064718
	6.725000	0.113068
	6.730000	0.167865
	6.735000	0.122738
	6.740000	0.058271
	6.745000	0.109845
	6.750000	0.167865
	6.755000	0.125962
	6.760000	0.064718
	6.765000	0.109845
	6.770000	0.167865
	6.775000	0.122738
	6.780000	0.064718
	6.785000	0.109845
	6.790000	0.171089
	6.795000	0.122738
	6.800000	0.064718
	6.805000	0.109845
	6.810000	0.171089
	6.815000	0.129185
	6.820000	0.058271
	6.825000	0.106622
	6.830000	0.167865
	6.835000	0.119515
	6.840000	0.064718
	6.845000	0.109845
	6.850000	0.171089
	6.855000	0.119515
	6.860000	0.061495
	6.865000	0.113068
	6.870000	0.167865
	6.875000	0.125962
	6.880000	0.061495
	6.885000	0.109845
	6.890000	0.174312
	6.895000	0.125962
	6.900000	0.061495
	6.905000	0.109845
	6.910000	0.171089
	6.915000	0.129185
	6.920000	0.061495
	6.925000	0.113068
	6.930000	0.171089
	6.935000	0.129185
	6.940000	0.067941
	6.945000	0.113068
	6.950000	0.177536
	6.955000	0.125962
	6.960000	0.071165
	6.965000	0.122738
	6.970000	0.177536
	6.975000	0.132408
	6.980000	0.064718
	6.985000	0.116292
	6.990000	0.174312
	6.995000	0.132408
	7.000000	0.067941
	7.005000	0.113068
	7.010000	0.174312
	7.015000	0.129185
	7.020000	0.067941
	7.025000	0.119515
	7.030000	0.174312
	7.035000	0.129185
	7.040000	0.071165
	7.045000	0.116292
	7.050000	0.180759
	7.055000	0.129185
	7.060000	0.064718
	7.065000	0.119515
	7.070000	0.177536
	7.075000	0.132408
	7.080000	0.067941
	7.085000	0.119515
	7.090000	0.177536
	7.095000	0.129185
	7.100000	0.067941
	7.105000	0.116292
	7.110000	0.174312
	7.115000	0.129185
	7.120000	0.071165
	7.125000	0.116292
	7.130000	0.177536
	7.135000	0.122738
	7.140000	0.071165
	7.145000	0.119515
	7.150000	0.180759
	7.155000	0.135632
	7.160000	0.071165
	7.165000	0.122738
	7.170000	0.180759
	7.175000	0.132408
	7.180000	0.077611
	7.185000	0.119515
	7.190000	0.183982
	7.195000	0.129185
	7.200000	0.071165
	7.205000	0.116292
	7.210000	0.177536
	7.215000	0.129185
	7.220000	0.074388
	7.225000	0.119515
	7.230000	0.180759
	7.235000	0.129185
	7.240000	0.071165
	7.245000	0.122738
	7.250000	0.180759
	7.255000	0.135632
	7.260000	0.071165
	7.265000	0.129185
	7.270000	0.183982
	7.275000	0.138855
	7.280000	0.077611
	7.285000	0.122738
	7.290000	0.183982
	7.295000	0.132408
	7.300000	0.074388
	7.305000	0.125962
	7.310000	0.183982
	7.315000	0.135632
	7.320000	0.074388
	7.325000	0.122738
	7.330000	0.183982
	7.335000	0.142079
	7.340000	0.077611
	7.345000	0.125962
	7.350000	0.190429
	7.355000	0.138855
	7.360000	0.074388
	7.365000	0.122738
	7.370000	0.183982
	7.375000	0.142079
	7.380000	0.080835
	7.385000	0.129185
	7.390000	0.187206
	7.395000	0.138855
	7.400000	0.071165
	7.405000	0.132408
	7.410000	0.183982
	7.415000	0.142079
	7.420000	0.080835
	7.425000	0.125962
	7.430000	0.190429
	7.435000	0.142079
	7.440000	0.080835
	7.445000	0.125962
	7.450000	0.187206
	7.455000	0.138855
	7.460000	0.080835
	7.465000	0.132408
	7.470000	0.187206
	7.475000	0.142079
	7.480000	0.080835
	7.485000	0.125962
	7.490000	0.187206
	7.495000	0.145302
	7.500000	0.077611
	7.505000	0.125962
	7.510000	0.183982
	7.515000	0.142079
	7.520000	0.080835
	7.525000	0.119515
	7.530000	0.187206
	7.535000	0.142079
	7.540000	0.077611
	7.545000	0.125962
	7.550000	0.187206
	7.555000	0.142079
	7.560000	0.087281
	7.565000	0.132408
	7.570000	0.193652
	7.575000	0.145302
	7.580000	0.080835
	7.585000	0.129185
	7.590000	0.187206
	7.595000	0.145302
	7.600000	0.084058
	7.605000	0.129185
	7.610000	0.193652
	7.615000	0.145302
	7.620000	0.084058
	7.625000	0.125962
	7.630000	0.196876
	7.635000	0.142079
	7.640000	0.084058
	7.645000	0.129185
	7.650000	0.193652
	7.655000	0.148525
	7.660000	0.087281
	7.665000	0.129185
	7.670000	0.193652
	7.675000	0.142079
	7.680000	0.084058
	7.685000	0.135632
	7.690000	0.193652
	7.695000	0.145302
	7.700000	0.084058
	7.705000	0.132408
	7.710000	0.196876
	7.715000	0.148525
	7.720000	0.080835
	7.725000	0.129185
	7.730000	0.190429
	7.735000	0.148525
	7.740000	0.087281
	7.745000	0.132408
	7.750000	0.193652
	7.755000	0.148525
	7.760000	0.087281
	7.765000	0.138855
	7.770000	0.196876
	7.775000	0.154972
	7.780000	0.087281
	7.785000	0.129185
	7.790000	0.200099
	7.795000	0.145302
	7.800000	0.087281
	7.805000	0.135632
	7.810000	0.193652
	7.815000	0.145302
	7.820000	0.087281
	7.825000	0.132408
	7.830000	0.200099
	7.835000	0.151749
	7.840000	0.087281
	7.845000	0.132408
	7.850000	0.196876
	7.855000	0.145302
	7.860000	0.093728
	7.865000	0.129185
	7.870000	0.190429
	7.875000	0.145302
	7.880000	0.087281
	7.885000	0.132408
	7.890000	0.193652
	7.895000	0.145302
	7.900000	0.087281
	7.905000	0.122738
	7.910000	0.190429
	7.915000	0.145302
	7.920000	0.084058
	7.925000	0.125962
	7.930000	0.190429
	7.935000	0.148525
	7.940000	0.080835
	7.945000	0.125962
	7.950000	0.193652
	7.955000	0.135632
	7.960000	0.080835
	7.965000	0.125962
	7.970000	0.183982
	7.975000	0.142079
	7.980000	0.077611
	7.985000	0.135632
	7.990000	0.190429
	7.995000	0.138855
	8.000000	0.074388
	8.005000	0.119515
	8.010000	0.193652
	8.015000	0.135632
	8.020000	0.074388
	8.025000	0.125962
	8.030000	0.183982
	8.035000	0.138855
	8.040000	0.071165
	8.045000	0.119515
	8.050000	0.180759
	8.055000	0.132408
	8.060000	0.071165
	8.065000	0.122738
	8.070000	0.183982
	8.075000	0.135632
	8.080000	0.077611
	8.085000	0.122738
	8.090000	0.180759
	8.095000	0.132408
	8.100000	0.071165
	8.105000	0.119515
	8.110000	0.180759
	8.115000	0.135632
	8.120000	0.074388
	8.125000	0.119515
	8.130000	0.187206
	8.135000	0.138855
	8.140000	0.064718
	8.145000	0.122738
	8.150000	0.183982
	8.155000	0.135632
	8.160000	0.074388
	8.165000	0.122738
	8.170000	0.187206
	8.175000	0.142079
	8.180000	0.077611
	8.185000	0.129185
	8.190000	0.183982
	8.195000	0.135632
	8.200000	0.077611
	8.205000	0.122738
	8.210000	0.187206
	8.215000	0.142079
	8.220000	0.080835
	8.225000	0.122738
	8.230000	0.193652
	8.235000	0.142079
	8.240000	0.084058
	8.245000	0.129185
	8.250000	0.190429
	8.255000	0.142079
	8.260000	0.084058
	8.265000	0.135632
	8.270000	0.190429
	8.275000	0.145302
	8.280000	0.084058
	8.285000	0.122738
	8.290000	0.190429
	8.295000	0.151749
	8.300000	0.087281
	8.305000	0.132408
	8.310000	0.193652
	8.315000	0.148525
	8.320000	0.084058
	8.325000	0.132408
	8.330000	0.196876
	8.335000	0.154972
	8.340000	0.087281
	8.345000	0.129185
	8.350000	0.193652
	8.355000	0.148525
	8.360000	0.084058
	8.365000	0.135632
	8.370000	0.193652
	8.375000	0.154972
	8.380000	0.084058
	8.385000	0.122738
	8.390000	0.193652
	8.395000	0.145302
	8.400000	0.084058
	8.405000	0.129185
	8.410000	0.190429
	8.415000	0.142079
	8.420000	0.084058
	8.425000	0.129185
	8.430000	0.190429
	8.435000	0.142079
	8.440000	0.084058
	8.445000	0.129185
	8.450000	0.190429
	8.455000	0.154972
	8.460000	0.090505
	8.465000	0.138855
	8.470000	0.212992
	8.475000	0.174312
	8.480000	0.119515
	8.485000	0.177536
	8.490000	0.254896
	8.495000	0.219439
	8.500000	0.161419
	8.505000	0.222663
	8.510000	0.296800
	8.515000	0.264566
	8.520000	0.212992
	8.525000	0.267790
	8.530000	0.338703
	8.535000	0.300023
	8.540000	0.245226
	8.545000	0.303247
	8.550000	0.370937
	8.555000	0.332257
	8.560000	0.280683
	8.565000	0.332257
	8.570000	0.396724
	8.575000	0.358044
	8.580000	0.293576
	8.585000	0.345150
	8.590000	0.409617
	8.595000	0.370937
	8.600000	0.306470
	8.605000	0.354820
	8.610000	0.419287
	8.615000	0.377384
	8.620000	0.306470
	8.625000	0.361267
	8.630000	0.419287
	8.635000	0.374160
	8.640000	0.316140
	8.645000	0.354820
	8.650000	0.412841
	8.655000	0.374160
	8.660000	0.309693
	8.665000	0.348374
	8.670000	0.406394
	8.675000	0.361267
	8.680000	0.290353
	8.685000	0.335480
	8.690000	0.387054
	8.695000	0.335480
	8.700000	0.271013
	8.705000	0.300023
	8.710000	0.358044
	8.715000	0.319363
	8.720000	0.245226
	8.725000	0.277460
	8.730000	0.329033
	8.735000	0.283906
	8.740000	0.209769
	8.745000	0.248449
	8.750000	0.303247
	8.755000	0.251673
	8.760000	0.180759
	8.765000	0.212992
	8.770000	0.277460
	8.775000	0.229109
	8.780000	0.164642
	8.785000	0.206546
	8.790000	0.267790
	8.795000	0.222663
	8.800000	0.158195
	8.805000	0.206546
	8.810000	0.271013
	8.815000	0.232333
	8.820000	0.164642
	8.825000	0.219439
	8.830000	0.283906
	8.835000	0.245226
	8.840000	0.190429
	8.845000	0.235556
	8.850000	0.300023
	8.855000	0.261343
	8.860000	0.206546
	8.865000	0.254896
	8.870000	0.312917
	8.875000	0.271013
	8.880000	0.216216
	8.885000	0.264566
	8.890000	0.325810
	8.895000	0.280683
	8.900000	0.229109
	8.905000	0.261343
	8.910000	0.329033
	8.915000	0.283906
	8.920000	0.225886
	8.925000	0.261343
	8.930000	0.332257
	8.935000	0.280683
	8.940000	0.222663
	8.945000	0.258119
	8.950000	0.329033
	8.955000	0.277460
	8.960000	0.216216
	8.965000	0.254896
	8.970000	0.319363
	8.975000	0.274236
	8.980000	0.206546
	8.985000	0.248449
	8.990000	0.306470
	8.995000	0.261343
	9.000000	0.193652
	9.005000	0.232333
	9.010000	0.287130
	9.015000	0.254896
	9.020000	0.183982
	9.025000	0.222663
	9.030000	0.277460
	9.035000	0.232333
	9.040000	0.167865
	9.045000	0.209769
	9.050000	0.267790
	9.055000	0.219439
	9.060000	0.151749
	9.065000	0.193652
	9.070000	0.254896
	9.075000	0.212992
	9.080000	0.142079
	9.085000	0.180759
	9.090000	0.235556
	9.095000	0.190429
	9.100000	0.125962
	9.105000	0.171089
	9.110000	0.222663
	9.115000	0.183982
	9.120000	0.122738
	9.125000	0.154972
	9.130000	0.219439
	9.135000	0.180759
	9.140000	0.113068
	9.145000	0.151749
	9.150000	0.212992
	9.155000	0.164642
	9.160000	0.100175
	9.165000	0.138855
	9.170000	0.209769
	9.175000	0.161419
	9.180000	0.090505
	9.185000	0.142079
	9.190000	0.196876
	9.195000	0.154972
	9.200000	0.090505
	9.205000	0.132408
	9.210000	0.193652
	9.215000	0.145302
	9.220000	0.084058
	9.225000	0.122738
	9.230000	0.187206
	9.235000	0.142079
	9.240000	0.077611
	9.245000	0.122738
	9.250000	0.180759
	9.255000	0.138855
	9.260000	0.077611
	9.265000	0.119515
	9.270000	0.177536
	9.275000	0.142079
	9.280000	0.067941
	9.285000	0.116292
	9.290000	0.174312
	9.295000	0.142079
	9.300000	0.067941
	9.305000	0.109845
	9.310000	0.174312
	9.315000	0.132408
	9.320000	0.071165
	9.325000	0.109845
	9.330000	0.167865
	9.335000	0.129185
	9.340000	0.067941
	9.345000	0.100175
	9.350000	0.171089
	9.355000	0.122738
	9.360000	0.064718
	9.365000	0.103398
	9.370000	0.167865
	9.375000	0.125962
	9.380000	0.055048
	9.385000	0.100175
	9.390000	0.158195
	9.395000	0.119515
	9.400000	0.048601
	9.405000	0.096952
	9.410000	0.158195
	9.415000	0.116292
	9.420000	0.048601
	9.425000	0.090505
	9.430000	0.151749
	9.435000	0.113068
	9.440000	0.048601
	9.445000	0.087281
	9.450000	0.158195
	9.455000	0.113068
	9.460000	0.045378
	9.465000	0.084058
	9.470000	0.151749
	9.475000	0.109845
	9.480000	0.045378
	9.485000	0.090505
	9.490000	0.145302
	9.495000	0.109845
	9.500000	0.042154
	9.505000	0.080835
	9.510000	0.142079
	9.515000	0.103398
	9.520000	0.035708
	9.525000	0.084058
	9.530000	0.145302
	9.535000	0.100175
	9.540000	0.042154
	9.545000	0.080835
	9.550000	0.148525
	9.555000	0.100175
	9.560000	0.038931
	9.565000	0.080835
	9.570000	0.151749
	9.575000	0.103398
	9.580000	0.035708
	9.585000	0.077611
	9.590000	0.145302
	9.595000	0.100175
	9.600000	0.045378
	9.605000	0.084058
	9.610000	0.138855
	9.615000	0.100175
	9.620000	0.042154
	9.625000	0.071165
	9.630000	0.145302
	9.635000	0.103398
	9.640000	0.042154
	9.645000	0.074388
	9.650000	0.151749
	9.655000	0.096952
	9.660000	0.032484
	9.665000	0.080835
	9.670000	0.145302
	9.675000	0.093728
	9.680000	0.042154
	9.685000	0.080835
	9.690000	0.145302
	9.695000	0.109845
	9.700000	0.042154
	9.705000	0.084058
	9.710000	0.142079
	9.715000	0.106622
	9.720000	0.042154
	9.725000	0.080835
	9.730000	0.142079
	9.735000	0.103398
	9.740000	0.038931
	9.745000	0.084058
	9.750000	0.145302
	9.755000	0.103398
	9.760000	0.038931
	9.765000	0.084058
	9.770000	0.151749
	9.775000	0.109845
	9.780000	0.048601
	9.785000	0.084058
	9.790000	0.148525
	9.795000	0.106622
	9.800000	0.042154
	9.805000	0.087281
	9.810000	0.154972
	9.815000	0.109845
	9.820000	0.045378
	9.825000	0.084058
	9.830000	0.154972
	9.835000	0.109845
	9.840000	0.045378
	9.845000	0.080835
	9.850000	0.151749
	9.855000	0.109845
	9.860000	0.048601
	9.865000	0.090505
	9.870000	0.161419
	9.875000	0.113068
	9.880000	0.051825
	9.885000	0.093728
	9.890000	0.158195
	9.895000	0.113068
	9.900000	0.051825
	9.905000	0.093728
	9.910000	0.158195
	9.915000	0.116292
	9.920000	0.055048
	9.925000	0.087281
	9.930000	0.158195
	9.935000	0.116292
	9.940000	0.051825
	9.945000	0.090505
	9.950000	0.158195
	9.955000	0.116292
	9.960000	0.055048
	9.965000	0.093728
	9.970000	0.161419
	9.975000	0.119515
	9.980000	0.051825
	9.985000	0.096952
	9.990000	0.158195
	9.995000	0.122738
	10.000000	0.051825
	10.005000	0.100175
	10.010000	0.164642
	10.015000	0.119515
	10.020000	0.058271
	10.025000	0.096952
	10.030000	0.164642
	10.035000	0.119515
	10.040000	0.055048
	10.045000	0.106622
	10.050000	0.171089
	10.055000	0.125962
	10.060000	0.061495
	10.065000	0.093728
	10.070000	0.167865
	10.075000	0.132408
	10.080000	0.058271
	10.085000	0.103398
	10.090000	0.167865
	10.095000	0.129185
	10.100000	0.061495
	10.105000	0.103398
	10.110000	0.167865
	10.115000	0.122738
	10.120000	0.064718
	10.125000	0.109845
	10.130000	0.174312
	10.135000	0.132408
	10.140000	0.061495
	10.145000	0.100175
	10.150000	0.167865
	10.155000	0.129185
	10.160000	0.064718
	10.165000	0.103398
	10.170000	0.174312
	10.175000	0.129185
	10.180000	0.064718
	10.185000	0.106622
	10.190000	0.171089
	10.195000	0.132408
	10.200000	0.061495
	10.205000	0.100175
	10.210000	0.171089
	10.215000	0.138855
	10.220000	0.064718
	10.225000	0.106622
	10.230000	0.174312
	10.235000	0.129185
	10.240000	0.061495
	10.245000	0.109845
	10.250000	0.171089
	10.255000	0.129185
	10.260000	0.067941
	10.265000	0.106622
	10.270000	0.171089
	10.275000	0.132408
	10.280000	0.064718
	10.285000	0.096952
	10.290000	0.164642
	10.295000	0.132408
	10.300000	0.071165
	10.305000	0.103398
	10.310000	0.174312
	10.315000	0.132408
	10.320000	0.061495
	10.325000	0.103398
	10.330000	0.174312
	10.335000	0.138855
	10.340000	0.064718
	10.345000	0.103398
	10.350000	0.167865
	10.355000	0.135632
	10.360000	0.071165
	10.365000	0.106622
	10.370000	0.174312
	10.375000	0.138855
	10.380000	0.064718
	10.385000	0.106622
	10.390000	0.174312
	10.395000	0.138855
	10.400000	0.061495
	10.405000	0.109845
	10.410000	0.177536
	10.415000	0.138855
	10.420000	0.067941
	10.425000	0.109845
	10.430000	0.177536
	10.435000	0.138855
	10.440000	0.074388
	10.445000	0.109845
	10.450000	0.174312
	10.455000	0.138855
	10.460000	0.067941
	10.465000	0.113068
	10.470000	0.174312
	10.475000	0.132408
	10.480000	0.067941
	10.485000	0.113068
	10.490000	0.177536
	10.495000	0.132408
	10.500000	0.074388
	10.505000	0.116292
	10.510000	0.174312
	10.515000	0.135632
	10.520000	0.071165
	10.525000	0.103398
	10.530000	0.177536
	10.535000	0.138855
	10.540000	0.074388
	10.545000	0.109845
	10.550000	0.177536
	10.555000	0.138855
	10.560000	0.071165
	10.565000	0.109845
	10.570000	0.180759
	10.575000	0.138855
	10.580000	0.074388
	10.585000	0.113068
	10.590000	0.177536
	10.595000	0.138855
	10.600000	0.074388
	10.605000	0.116292
	10.610000	0.174312
	10.615000	0.135632
	10.620000	0.067941
	10.625000	0.109845
	10.630000	0.177536
	10.635000	0.138855
	10.640000	0.074388
	10.645000	0.106622
	10.650000	0.177536
	10.655000	0.138855
	10.660000	0.071165
	10.665000	0.109845
	10.670000	0.174312
	10.675000	0.142079
	10.680000	0.074388
	10.685000	0.113068
	10.690000	0.183982
	10.695000	0.138855
	10.700000	0.074388
	10.705000	0.109845
	10.710000	0.180759
	10.715000	0.142079
	10.720000	0.071165
	10.725000	0.109845
	10.730000	0.183982
	10.735000	0.145302
	10.740000	0.071165
	10.745000	0.106622
	10.750000	0.183982
	10.755000	0.138855
	10.760000	0.071165
	10.765000	0.109845
	10.770000	0.177536
	10.775000	0.138855
	10.780000	0.077611
	10.785000	0.116292
	10.790000	0.183982
	10.795000	0.142079
	10.800000	0.074388
	10.805000	0.109845
	10.810000	0.180759
	10.815000	0.145302
	10.820000	0.074388
	10.825000	0.119515
	10.830000	0.183982
	10.835000	0.142079
	10.840000	0.074388
	10.845000	0.109845
	10.850000	0.183982
	10.855000	0.145302
	10.860000	0.071165
	10.865000	0.116292
	10.870000	0.180759
	10.875000	0.145302
	10.880000	0.080835
	10.885000	0.116292
	10.890000	0.190429
	10.895000	0.145302
	10.900000	0.077611
	10.905000	0.119515
	10.910000	0.180759
	10.915000	0.154972
	10.920000	0.080835
	10.925000	0.122738
	10.930000	0.187206
	10.935000	0.151749
	10.940000	0.077611
	10.945000	0.119515
	10.950000	0.187206
	10.955000	0.148525
	10.960000	0.084058
	10.965000	0.119515
	10.970000	0.187206
	10.975000	0.145302
	10.980000	0.084058
	10.985000	0.113068
	10.990000	0.193652
	10.995000	0.151749
	11.000000	0.090505
	11.005000	0.119515
	11.010000	0.187206
	11.015000	0.151749
	11.020000	0.084058
	11.025000	0.116292
	11.030000	0.190429
	11.035000	0.151749
	11.040000	0.080835
	11.045000	0.116292
	11.050000	0.190429
	11.055000	0.154972
	11.060000	0.084058
	11.065000	0.122738
	11.070000	0.190429
	11.075000	0.154972
	11.080000	0.084058
	11.085000	0.119515
	11.090000	0.193652
	11.095000	0.161419
	11.100000	0.087281
	11.105000	0.119515
	11.110000	0.187206
	11.115000	0.154972
	11.120000	0.087281
	11.125000	0.119515
	11.130000	0.190429
	11.135000	0.151749
	11.140000	0.090505
	11.145000	0.122738
	11.150000	0.200099
	11.155000	0.154972
	11.160000	0.087281
	11.165000	0.125962
	11.170000	0.200099
	11.175000	0.161419
	11.180000	0.090505
	11.185000	0.135632
	11.190000	0.203322
	11.195000	0.167865
	11.200000	0.096952
	11.205000	0.138855
	11.210000	0.216216
	11.215000	0.177536
	11.220000	0.113068
	11.225000	0.158195
	11.230000	0.225886
	11.235000	0.196876
	11.240000	0.132408
	11.245000	0.183982
	11.250000	0.258119
	11.255000	0.235556
	11.260000	0.174312
	11.265000	0.219439
	11.270000	0.303247
	11.275000	0.277460
	11.280000	0.219439
	11.285000	0.264566
	11.290000	0.341927
	11.295000	0.312917
	11.300000	0.258119
	11.305000	0.296800
	11.310000	0.364490
	11.315000	0.345150
	11.320000	0.274236
	11.325000	0.319363
	11.330000	0.387054
	11.335000	0.361267
	11.340000	0.293576
	11.345000	0.335480
	11.350000	0.399947
	11.355000	0.374160
	11.360000	0.309693
	11.365000	0.348374
	11.370000	0.416064
	11.375000	0.387054
	11.380000	0.316140
	11.385000	0.358044
	11.390000	0.419287
	11.395000	0.390277
	11.400000	0.325810
	11.405000	0.361267
	11.410000	0.425734
	11.415000	0.399947
	11.420000	0.329033
	11.425000	0.364490
	11.430000	0.428957
	11.435000	0.393501
	11.440000	0.325810
	11.445000	0.364490
	11.450000	0.422511
	11.455000	0.393501
	11.460000	0.325810
	11.465000	0.358044
	11.470000	0.428957
	11.475000	0.390277
	11.480000	0.316140
	11.485000	0.345150
	11.490000	0.409617
	11.495000	0.377384
	11.500000	0.309693
	11.505000	0.338703
	11.510000	0.403171
	11.515000	0.358044
	11.520000	0.283906
	11.525000	0.319363
	11.530000	0.377384
	11.535000	0.338703
	11.540000	0.264566
	11.545000	0.293576
	11.550000	0.345150
	11.555000	0.309693
	11.560000	0.225886
	11.565000	0.254896
	11.570000	0.303247
	11.575000	0.254896
	11.580000	0.164642
	11.585000	0.187206
	11.590000	0.238779
	11.595000	0.193652
	11.600000	0.109845
	11.605000	0.132408
	11.610000	0.190429
	11.615000	0.151749
	11.620000	0.084058
	11.625000	0.109845
	11.630000	0.180759
	11.635000	0.145302
	11.640000	0.064718
	11.645000	0.103398
	11.650000	0.180759
	11.655000	0.154972
	11.660000	0.090505
	11.665000	0.125962
	11.670000	0.206546
	11.675000	0.183982
	11.680000	0.119515
	11.685000	0.161419
	11.690000	0.232333
	11.695000	0.212992
	11.700000	0.145302
	11.705000	0.183982
	11.710000	0.258119
	11.715000	0.235556
	11.720000	0.171089
	11.725000	0.209769
	11.730000	0.277460
	11.735000	0.251673
	11.740000	0.183982
	11.745000	0.219439
	11.750000	0.290353
	11.755000	0.264566
	11.760000	0.190429
	11.765000	0.225886
	11.770000	0.293576
	11.775000	0.258119
	11.780000	0.190429
	11.785000	0.222663
	11.790000	0.296800
	11.795000	0.258119
	11.800000	0.183982
	11.805000	0.216216
	11.810000	0.283906
	11.815000	0.254896
	11.820000	0.180759
	11.825000	0.206546
	11.830000	0.280683
	11.835000	0.242003
	11.840000	0.174312
	11.845000	0.203322
	11.850000	0.267790
	11.855000	0.235556
	11.860000	0.161419
	11.865000	0.200099
	11.870000	0.261343
	11.875000	0.232333
	11.880000	0.154972
	11.885000	0.187206
	11.890000	0.254896
	11.895000	0.219439
	11.900000	0.145302
	11.905000	0.167865
	11.910000	0.232333
	11.915000	0.200099
	11.920000	0.122738
	11.925000	0.158195
	11.930000	0.216216
	11.935000	0.190429
	11.940000	0.113068
	11.945000	0.142079
	11.950000	0.203322
	11.955000	0.171089
	11.960000	0.103398
	11.965000	0.129185
	11.970000	0.193652
	11.975000	0.161419
	11.980000	0.087281
	11.985000	0.116292
	11.990000	0.187206
	11.995000	0.154972
	12.000000	0.080835
	12.005000	0.116292
	12.010000	0.180759
	12.015000	0.151749
	12.020000	0.071165
	12.025000	0.103398
	12.030000	0.174312
	12.035000	0.138855
	12.040000	0.067941
	12.045000	0.093728
	12.050000	0.161419
	12.055000	0.135632
	12.060000	0.064718
	12.065000	0.093728
	12.070000	0.171089
	12.075000	0.138855
	12.080000	0.061495
	12.085000	0.100175
	12.090000	0.164642
	12.095000	0.132408
	12.100000	0.055048
	12.105000	0.090505
	12.110000	0.164642
	12.115000	0.129185
	12.120000	0.058271
	12.125000	0.093728
	12.130000	0.158195
	12.135000	0.129185
	12.140000	0.061495
	12.145000	0.090505
	12.150000	0.154972
	12.155000	0.125962
	12.160000	0.058271
	12.165000	0.087281
	12.170000	0.158195
	12.175000	0.129185
	12.180000	0.061495
	12.185000	0.087281
	12.190000	0.158195
	12.195000	0.138855
	12.200000	0.055048
	12.205000	0.090505
	12.210000	0.161419
	12.215000	0.125962
	12.220000	0.061495
	12.225000	0.087281
	12.230000	0.154972
	12.235000	0.129185
	12.240000	0.055048
	12.245000	0.087281
	12.250000	0.161419
	12.255000	0.129185
	12.260000	0.055048
	12.265000	0.090505
	12.270000	0.158195
	12.275000	0.122738
	12.280000	0.048601
	12.285000	0.087281
	12.290000	0.158195
	12.295000	0.125962
	12.300000	0.058271
	12.305000	0.093728
	12.310000	0.158195
	12.315000	0.122738
	12.320000	0.055048
	12.325000	0.087281
	12.330000	0.154972
	12.335000	0.129185
	12.340000	0.055048
	12.345000	0.087281
	12.350000	0.154972
	12.355000	0.125962
	12.360000	0.055048
	12.365000	0.090505
	12.370000	0.151749
	12.375000	0.122738
	12.380000	0.058271
	12.385000	0.087281
	12.390000	0.164642
	12.395000	0.129185
	12.400000	0.064718
	12.405000	0.090505
	12.410000	0.154972
	12.415000	0.132408
	12.420000	0.058271
	12.425000	0.087281
	12.430000	0.161419
	12.435000	0.125962
	12.440000	0.067941
	12.445000	0.093728
	12.450000	0.161419
	12.455000	0.132408
	12.460000	0.061495
	12.465000	0.087281
	12.470000	0.158195
	12.475000	0.129185
	12.480000	0.055048
	12.485000	0.087281
	12.490000	0.161419
	12.495000	0.135632
	12.500000	0.051825
	12.505000	0.080835
	12.510000	0.164642
	12.515000	0.129185
	12.520000	0.051825
	12.525000	0.087281
	12.530000	0.158195
	12.535000	0.132408
	12.540000	0.055048
	12.545000	0.087281
	12.550000	0.161419
	12.555000	0.132408
	12.560000	0.061495
	12.565000	0.093728
	12.570000	0.164642
	12.575000	0.125962
	12.580000	0.055048
	12.585000	0.087281
	12.590000	0.164642
	12.595000	0.125962
	12.600000	0.061495
	12.605000	0.093728
	12.610000	0.154972
	12.615000	0.132408
	12.620000	0.061495
	12.625000	0.084058
	12.630000	0.154972
	12.635000	0.129185
	12.640000	0.061495
	12.645000	0.087281
	12.650000	0.158195
	12.655000	0.129185
	12.660000	0.055048
	12.665000	0.090505
	12.670000	0.158195
	12.675000	0.132408
	12.680000	0.064718
	12.685000	0.080835
	12.690000	0.161419
	12.695000	0.129185
	12.700000	0.061495
	12.705000	0.087281
	12.710000	0.154972
	12.715000	0.135632
	12.720000	0.051825
	12.725000	0.090505
	12.730000	0.158195
	12.735000	0.125962
	12.740000	0.058271
	12.745000	0.087281
	12.750000	0.151749
	12.755000	0.135632
	12.760000	0.064718
	12.765000	0.080835
	12.770000	0.154972
	12.775000	0.129185
	12.780000	0.058271
	12.785000	0.090505
	12.790000	0.164642
	12.795000	0.135632
	12.800000	0.058271
	12.805000	0.084058
	12.810000	0.158195
	12.815000	0.132408
	12.820000	0.061495
	12.825000	0.084058
	12.830000	0.161419
	12.835000	0.132408
	12.840000	0.067941
	12.845000	0.084058
	12.850000	0.154972
	12.855000	0.135632
	12.860000	0.058271
	12.865000	0.090505
	12.870000	0.161419
	12.875000	0.132408
	12.880000	0.064718
	12.885000	0.087281
	12.890000	0.161419
	12.895000	0.138855
	12.900000	0.061495
	12.905000	0.096952
	12.910000	0.158195
	12.915000	0.135632
	12.920000	0.064718
	12.925000	0.093728
	12.930000	0.161419
	12.935000	0.138855
	12.940000	0.064718
	12.945000	0.093728
	12.950000	0.161419
	12.955000	0.142079
	12.960000	0.064718
	12.965000	0.090505
	12.970000	0.161419
	12.975000	0.138855
	12.980000	0.061495
	12.985000	0.100175
	12.990000	0.167865
	12.995000	0.135632
	13.000000	0.064718
	13.005000	0.096952
	13.010000	0.158195
	13.015000	0.142079
	13.020000	0.064718
	13.025000	0.100175
	13.030000	0.161419
	13.035000	0.138855
	13.040000	0.058271
	13.045000	0.096952
	13.050000	0.161419
	13.055000	0.135632
	13.060000	0.067941
	13.065000	0.090505
	13.070000	0.164642
	13.075000	0.142079
	13.080000	0.064718
	13.085000	0.090505
	13.090000	0.161419
	13.095000	0.138855
	13.100000	0.061495
	13.105000	0.087281
	13.110000	0.164642
	13.115000	0.135632
	13.120000	0.064718
	13.125000	0.090505
	13.130000	0.171089
	13.135000	0.138855
	13.140000	0.064718
	13.145000	0.093728
	13.150000	0.164642
	13.155000	0.142079
	13.160000	0.067941
	13.165000	0.093728
	13.170000	0.161419
	13.175000	0.138855
	13.180000	0.064718
	13.185000	0.087281
	13.190000	0.164642
	13.195000	0.138855
	13.200000	0.061495
	13.205000	0.087281
	13.210000	0.161419
	13.215000	0.132408
	13.220000	0.058271
	13.225000	0.090505
	13.230000	0.161419
	13.235000	0.135632
	13.240000	0.061495
	13.245000	0.087281
	13.250000	0.161419
	13.255000	0.129185
	13.260000	0.055048
	13.265000	0.084058
	13.270000	0.158195
	13.275000	0.135632
	13.280000	0.055048
	13.285000	0.080835
	13.290000	0.158195
	13.295000	0.129185
	13.300000	0.058271
	13.305000	0.084058
	13.310000	0.151749
	13.315000	0.129185
	13.320000	0.061495
	13.325000	0.080835
	13.330000	0.154972
	13.335000	0.132408
	13.340000	0.055048
	13.345000	0.080835
	13.350000	0.161419
	13.355000	0.132408
	13.360000	0.058271
	13.365000	0.080835
	13.370000	0.158195
	13.375000	0.132408
	13.380000	0.058271
	13.385000	0.080835
	13.390000	0.154972
	13.395000	0.129185
	13.400000	0.055048
	13.405000	0.084058
	13.410000	0.151749
	13.415000	0.129185
	13.420000	0.055048
	13.425000	0.077611
	13.430000	0.158195
	13.435000	0.129185
	13.440000	0.055048
	13.445000	0.080835
	13.450000	0.154972
	13.455000	0.129185
	13.460000	0.051825
	13.465000	0.080835
	13.470000	0.151749
	13.475000	0.135632
	13.480000	0.055048
	13.485000	0.087281
	13.490000	0.158195
	13.495000	0.135632
	13.500000	0.055048
	13.505000	0.084058
	13.510000	0.151749
	13.515000	0.129185
	13.520000	0.051825
	13.525000	0.077611
	13.530000	0.154972
	13.535000	0.129185
	13.540000	0.051825
	13.545000	0.084058
	13.550000	0.158195
	13.555000	0.129185
	13.560000	0.058271
	13.565000	0.084058
	13.570000	0.161419
	13.575000	0.135632
	13.580000	0.058271
	13.585000	0.087281
	13.590000	0.158195
	13.595000	0.132408
	13.600000	0.055048
	13.605000	0.084058
	13.610000	0.158195
	13.615000	0.135632
	13.620000	0.058271
	13.625000	0.084058
	13.630000	0.158195
	13.635000	0.132408
	13.640000	0.055048
	13.645000	0.084058
	13.650000	0.158195
	13.655000	0.132408
	13.660000	0.061495
	13.665000	0.084058
	13.670000	0.154972
	13.675000	0.138855
	13.680000	0.064718
	13.685000	0.087281
	13.690000	0.154972
	13.695000	0.135632
	13.700000	0.064718
	13.705000	0.080835
	13.710000	0.154972
	13.715000	0.142079
	13.720000	0.058271
	13.725000	0.084058
	13.730000	0.164642
	13.735000	0.145302
	13.740000	0.064718
	13.745000	0.096952
	13.750000	0.161419
	13.755000	0.142079
	13.760000	0.064718
	13.765000	0.090505
	13.770000	0.161419
	13.775000	0.142079
	13.780000	0.077611
	13.785000	0.090505
	13.790000	0.158195
	13.795000	0.145302
	13.800000	0.067941
	13.805000	0.090505
	13.810000	0.158195
	13.815000	0.142079
	13.820000	0.067941
	13.825000	0.093728
	13.830000	0.171089
	13.835000	0.142079
	13.840000	0.064718
	13.845000	0.087281
	13.850000	0.164642
	13.855000	0.138855
	13.860000	0.064718
	13.865000	0.087281
	13.870000	0.161419
	13.875000	0.138855
	13.880000	0.064718
	13.885000	0.087281
	13.890000	0.164642
	13.895000	0.135632
	13.900000	0.071165
	13.905000	0.084058
	13.910000	0.161419
	13.915000	0.142079
	13.920000	0.058271
	13.925000	0.087281
	13.930000	0.164642
	13.935000	0.142079
	13.940000	0.071165
	13.945000	0.084058
	13.950000	0.158195
	13.955000	0.145302
	13.960000	0.064718
	13.965000	0.084058
	13.970000	0.164642
	13.975000	0.148525
	13.980000	0.067941
	13.985000	0.090505
	13.990000	0.164642
	13.995000	0.138855
	14.000000	0.061495
	14.005000	0.084058
	14.010000	0.158195
	14.015000	0.138855
	14.020000	0.064718
	14.025000	0.087281
	14.030000	0.158195
	14.035000	0.138855
	14.040000	0.061495
	14.045000	0.084058
	14.050000	0.154972
	14.055000	0.138855
	14.060000	0.064718
	14.065000	0.084058
	14.070000	0.158195
	14.075000	0.138855
	14.080000	0.061495
	14.085000	0.080835
	14.090000	0.161419
	14.095000	0.138855
	14.100000	0.061495
	14.105000	0.084058
	14.110000	0.154972
	14.115000	0.135632
	14.120000	0.058271
	14.125000	0.084058
	14.130000	0.154972
	14.135000	0.138855
	14.140000	0.058271
	14.145000	0.080835
	14.150000	0.158195
	14.155000	0.138855
	14.160000	0.064718
	14.165000	0.080835
	14.170000	0.154972
	14.175000	0.135632
	14.180000	0.055048
	14.185000	0.084058
	14.190000	0.154972
	14.195000	0.132408
	14.200000	0.061495
	14.205000	0.077611
	14.210000	0.148525
	14.215000	0.135632
	14.220000	0.055048
	14.225000	0.077611
	14.230000	0.151749
	14.235000	0.132408
	14.240000	0.055048
	14.245000	0.077611
	14.250000	0.154972
	14.255000	0.129185
	14.260000	0.058271
	14.265000	0.084058
	14.270000	0.151749
	14.275000	0.132408
	14.280000	0.058271
	14.285000	0.077611
	14.290000	0.158195
	14.295000	0.138855
	14.300000	0.074388
	14.305000	0.103398
	14.310000	0.180759
	14.315000	0.164642
	14.320000	0.093728
	14.325000	0.122738
	14.330000	0.206546
	14.335000	0.190429
	14.340000	0.119515
	14.345000	0.142079
	14.350000	0.216216
	14.355000	0.212992
	14.360000	0.145302
	14.365000	0.171089
	14.370000	0.245226
	14.375000	0.235556
	14.380000	0.167865
	14.385000	0.190429
	14.390000	0.261343
	14.395000	0.258119
	14.400000	0.190429
	14.405000	0.219439
	14.410000	0.290353
	14.415000	0.283906
	14.420000	0.219439
	14.425000	0.242003
	14.430000	0.322587
	14.435000	0.309693
	14.440000	0.245226
	14.445000	0.267790
	14.450000	0.341927
	14.455000	0.335480
	14.460000	0.258119
	14.465000	0.283906
	14.470000	0.358044
	14.475000	0.354820
	14.480000	0.277460
	14.485000	0.303247
	14.490000	0.374160
	14.495000	0.364490
	14.500000	0.290353
	14.505000	0.309693
	14.510000	0.383830
	14.515000	0.374160
	14.520000	0.300023
	14.525000	0.322587
	14.530000	0.390277
	14.535000	0.374160
	14.540000	0.300023
	14.545000	0.329033
	14.550000	0.399947
	14.555000	0.380607
	14.560000	0.309693
	14.565000	0.329033
	14.570000	0.406394
	14.575000	0.383830
	14.580000	0.316140
	14.585000	0.332257
	14.590000	0.406394
	14.595000	0.387054
	14.600000	0.316140
	14.605000	0.329033
	14.610000	0.406394
	14.615000	0.383830
	14.620000	0.316140
	14.625000	0.335480
	14.630000	0.403171
	14.635000	0.390277
	14.640000	0.316140
	14.645000	0.329033
	14.650000	0.399947
	14.655000	0.380607
	14.660000	0.309693
	14.665000	0.322587
	14.670000	0.396724
	14.675000	0.377384
	14.680000	0.296800
	14.685000	0.312917
	14.690000	0.383830
	14.695000	0.367714
	14.700000	0.290353
	14.705000	0.303247
	14.710000	0.364490
	14.715000	0.348374
	14.720000	0.267790
	14.725000	0.264566
	14.730000	0.345150
	14.735000	0.316140
	14.740000	0.229109
	14.745000	0.238779
	14.750000	0.290353
	14.755000	0.271013
	14.760000	0.190429
	14.765000	0.193652
	14.770000	0.264566
	14.775000	0.235556
	14.780000	0.154972
	14.785000	0.161419
	14.790000	0.225886
	14.795000	0.212992
	14.800000	0.135632
	14.805000	0.142079
	14.810000	0.212992
	14.815000	0.200099
	14.820000	0.129185
	14.825000	0.138855
	14.830000	0.225886
	14.835000	0.206546
	14.840000	0.132408
	14.845000	0.151749
	14.850000	0.232333
	14.855000	0.222663
	14.860000	0.145302
	14.865000	0.167865
	14.870000	0.245226
	14.875000	0.242003
	14.880000	0.161419
	14.885000	0.180759
	14.890000	0.254896
	14.895000	0.245226
	14.900000	0.174312
	14.905000	0.193652
	14.910000	0.261343
	14.915000	0.251673
	14.920000	0.171089
	14.925000	0.190429
	14.930000	0.254896
	14.935000	0.242003
	14.940000	0.171089
	14.945000	0.187206
	14.950000	0.248449
	14.955000	0.235556
	14.960000	0.158195
	14.965000	0.164642
	14.970000	0.232333
	14.975000	0.216216
	14.980000	0.145302
	14.985000	0.154972
	14.990000	0.222663
	14.995000	0.209769
	15.000000	0.125962
	15.005000	0.145302
	15.010000	0.206546
	15.015000	0.193652
	15.020000	0.109845
	15.025000	0.125962
	15.030000	0.193652
	15.035000	0.171089
	15.040000	0.096952
	15.045000	0.116292
	15.050000	0.183982
	15.055000	0.167865
	15.060000	0.080835
	15.065000	0.096952
	15.070000	0.164642
	15.075000	0.145302
	15.080000	0.071165
	15.085000	0.084058
	15.090000	0.148525
	15.095000	0.132408
	15.100000	0.058271
	15.105000	0.064718
	15.110000	0.138855
	15.115000	0.125962
	15.120000	0.051825
	15.125000	0.061495
	15.130000	0.135632
	15.135000	0.125962
	15.140000	0.045378
	15.145000	0.051825
	15.150000	0.125962
	15.155000	0.109845
	15.160000	0.029261
	15.165000	0.051825
	15.170000	0.119515
	15.175000	0.106622
	15.180000	0.029261
	15.185000	0.048601
	15.190000	0.116292
	15.195000	0.100175
	15.200000	0.022814
	15.205000	0.038931
	15.210000	0.116292
	15.215000	0.093728
	15.220000	0.019591
	15.225000	0.032484
	15.230000	0.113068
	15.235000	0.093728
	15.240000	0.016368
	15.245000	0.032484
	15.250000	0.109845
	15.255000	0.090505
	15.260000	0.019591
	15.265000	0.035708
	15.270000	0.106622
	15.275000	0.090505
	15.280000	0.019591
	15.285000	0.029261
	15.290000	0.103398
	15.295000	0.096952
	15.300000	0.019591
	15.305000	0.029261
	15.310000	0.103398
	15.315000	0.090505
	15.320000	0.013144
	15.325000	0.029261
	15.330000	0.103398
	15.335000	0.090505
	15.340000	0.009921
	15.345000	0.026038
	15.350000	0.096952
	15.355000	0.087281
	15.360000	0.009921
	15.365000	0.022814
	15.370000	0.093728
	15.375000	0.084058
	15.380000	0.006697
	15.385000	0.022814
	15.390000	0.100175
	15.395000	0.084058
	15.400000	0.009921
	15.405000	0.026038
	15.410000	0.090505
	15.415000	0.084058
	15.420000	0.006697
	15.425000	0.019591
	15.430000	0.093728
	15.435000	0.084058
	15.440000	0.006697
	15.445000	0.016368
	15.450000	0.093728
	15.455000	0.080835
	15.460000	0.003474
	15.465000	0.019591
	15.470000	0.084058
	15.475000	0.080835
	15.480000	-0.002973
	15.485000	0.016368
	15.490000	0.087281
	15.495000	0.074388
	15.500000	-0.002973
	15.505000	0.009921
	15.510000	0.090505
	15.515000	0.080835
	15.520000	0.000251
	15.525000	0.013144
	15.530000	0.084058
	15.535000	0.074388
	15.540000	-0.006196
	15.545000	0.006697
	15.550000	0.087281
	15.555000	0.074388
	15.560000	-0.002973
	15.565000	0.000251
	15.570000	0.080835
	15.575000	0.071165
	15.580000	-0.009419
	15.585000	0.009921
	15.590000	0.077611
	15.595000	0.071165
	15.600000	-0.002973
	15.605000	0.003474
	15.610000	0.080835
	15.615000	0.067941
	15.620000	-0.002973
	15.625000	0.006697
	15.630000	0.084058
	15.635000	0.071165
	15.640000	-0.002973
	15.645000	0.006697
	15.650000	0.080835
	15.655000	0.067941
	15.660000	-0.006196
	15.665000	0.006697
	15.670000	0.080835
	15.675000	0.064718
	15.680000	-0.006196
	15.685000	0.000251
	15.690000	0.080835
	15.695000	0.067941
	15.700000	-0.009419
	15.705000	0.006697
	15.710000	0.080835
	15.715000	0.071165
	15.720000	-0.009419
	15.725000	0.006697
	15.730000	0.077611
	15.735000	0.071165
	15.740000	-0.006196
	15.745000	0.003474
	15.750000	0.074388
	15.755000	0.061495
	15.760000	-0.009419
	15.765000	0.000251
	15.770000	0.077611
	15.775000	0.064718
	15.780000	-0.009419
	15.785000	0.003474
	15.790000	0.074388
	15.795000	0.064718
	15.800000	-0.009419
	15.805000	0.003474
	15.810000	0.077611
	15.815000	0.067941
	15.820000	-0.002973
	15.825000	0.003474
	15.830000	0.080835
	15.835000	0.071165
	15.840000	-0.009419
	15.845000	-0.002973
	15.850000	0.080835
	15.855000	0.071165
	15.860000	-0.006196
	15.865000	0.000251
	15.870000	0.080835
	15.875000	0.067941
	15.880000	-0.006196
	15.885000	0.006697
	15.890000	0.074388
	15.895000	0.064718
	15.900000	-0.009419
	15.905000	-0.002973
	15.910000	0.077611
	15.915000	0.067941
	15.920000	-0.012643
	15.925000	0.003474
	15.930000	0.084058
	15.935000	0.061495
	15.940000	-0.009419
	15.945000	0.000251
	15.950000	0.077611
	15.955000	0.067941
	15.960000	-0.012643
	15.965000	-0.002973
	15.970000	0.077611
	15.975000	0.074388
	15.980000	-0.009419
	15.985000	0.000251
	15.990000	0.080835
	15.995000	0.074388
	16.000000	-0.009419
	16.005000	0.003474
	16.010000	0.077611
	16.015000	0.077611
	16.020000	-0.006196
	16.025000	0.003474
	16.030000	0.080835
	16.035000	0.067941
	16.040000	-0.009419
	16.045000	0.006697
	16.050000	0.084058
	16.055000	0.074388
	16.060000	-0.006196
	16.065000	0.009921
	16.070000	0.077611
	16.075000	0.064718
	16.080000	0.000251
	16.085000	0.003474
	16.090000	0.080835
	16.095000	0.077611
	16.100000	-0.002973
	16.105000	0.003474
	16.110000	0.084058
	16.115000	0.074388
	16.120000	-0.006196
	16.125000	0.000251
	16.130000	0.084058
	16.135000	0.071165
	16.140000	-0.009419
	16.145000	0.003474
	16.150000	0.080835
	16.155000	0.074388
	16.160000	-0.006196
	16.165000	0.009921
	16.170000	0.080835
	16.175000	0.074388
	16.180000	0.000251
	16.185000	0.003474
	16.190000	0.077611
	16.195000	0.074388
	16.200000	-0.002973
	16.205000	0.003474
	16.210000	0.084058
	16.215000	0.077611
	16.220000	-0.002973
	16.225000	0.003474
	16.230000	0.087281
	16.235000	0.074388
	16.240000	0.000251
	16.245000	0.000251
	16.250000	0.080835
	16.255000	0.077611
	16.260000	-0.006196
	16.265000	0.003474
	16.270000	0.084058
	16.275000	0.074388
	16.280000	-0.002973
	16.285000	0.003474
	16.290000	0.084058
	16.295000	0.074388
	16.300000	-0.009419
	16.305000	0.006697
	16.310000	0.080835
	16.315000	0.074388
	16.320000	-0.006196
	16.325000	0.003474
	16.330000	0.074388
	16.335000	0.067941
	16.340000	-0.002973
	16.345000	-0.006196
	16.350000	0.074388
	16.355000	0.074388
	16.360000	-0.002973
	16.365000	-0.002973
	16.370000	0.077611
	16.375000	0.067941
	16.380000	-0.006196
	16.385000	-0.006196
	16.390000	0.071165
	16.395000	0.071165
	16.400000	-0.009419
	16.405000	-0.006196
	16.410000	0.074388
	16.415000	0.071165
	16.420000	-0.009419
	16.425000	0.006697
	16.430000	0.071165
	16.435000	0.071165
	16.440000	-0.006196
	16.445000	-0.002973
	16.450000	0.074388
	16.455000	0.061495
	16.460000	-0.006196
	16.465000	-0.002973
	16.470000	0.071165
	16.475000	0.067941
	16.480000	-0.012643
	16.485000	-0.002973
	16.490000	0.077611
	16.495000	0.071165
	16.500000	-0.012643
	16.505000	-0.006196
	16.510000	0.067941
	16.515000	0.071165
	16.520000	-0.006196
	16.525000	0.000251
	16.530000	0.077611
	16.535000	0.067941
	16.540000	-0.006196
	16.545000	-0.006196
	16.550000	0.074388
	16.555000	0.067941
	16.560000	-0.006196
	16.565000	-0.006196
	16.570000	0.067941
	16.575000	0.071165
	16.580000	-0.009419
	16.585000	-0.006196
	16.590000	0.074388
	16.595000	0.071165
	16.600000	-0.009419
	16.605000	-0.002973
	16.610000	0.071165
	16.615000	0.064718
	16.620000	-0.006196
	16.625000	-0.002973
	16.630000	0.074388
	16.635000	0.071165
	16.640000	-0.002973
	16.645000	-0.009419
	16.650000	0.067941
	16.655000	0.067941
	16.660000	-0.006196
	16.665000	0.000251
	16.670000	0.074388
	16.675000	0.067941
	16.680000	-0.002973
	16.685000	0.000251
	16.690000	0.071165
	16.695000	0.067941
	16.700000	-0.012643
	16.705000	-0.009419
	16.710000	0.067941
	16.715000	0.067941
	16.720000	-0.009419
	16.725000	-0.002973
	16.730000	0.071165
	16.735000	0.071165
	16.740000	-0.009419
	16.745000	-0.002973
	16.750000	0.074388
	16.755000	0.077611
	16.760000	-0.009419
	16.765000	-0.006196
	16.770000	0.074388
	16.775000	0.074388
	16.780000	-0.006196
	16.785000	0.000251
	16.790000	0.071165
	16.795000	0.064718
	16.800000	-0.009419
	16.805000	-0.012643
	16.810000	0.071165
	16.815000	0.071165
	16.820000	-0.012643
	16.825000	-0.002973
	16.830000	0.064718
	16.835000	0.074388
	16.840000	-0.006196
	16.845000	-0.009419
	16.850000	0.067941
	16.855000	0.071165
	16.860000	-0.009419
	16.865000	0.000251
	16.870000	0.074388
	16.875000	0.071165
	16.880000	-0.012643
	16.885000	-0.006196
	16.890000	0.074388
	16.895000	0.071165
	16.900000	-0.009419
	16.905000	-0.002973
	16.910000	0.071165
	16.915000	0.074388
	16.920000	-0.006196
	16.925000	-0.009419
	16.930000	0.074388
	16.935000	0.067941
	16.940000	-0.009419
	16.945000	-0.002973
	16.950000	0.071165
	16.955000	0.067941
	16.960000	-0.009419
	16.965000	-0.006196
	16.970000	0.074388
	16.975000	0.071165
	16.980000	-0.015866
	16.985000	-0.009419
	16.990000	0.067941
	16.995000	0.067941
	17.000000	-0.009419
	17.005000	-0.006196
	17.010000	0.064718
	17.015000	0.064718
	17.020000	-0.012643
	17.025000	-0.009419
	17.030000	0.067941
	17.035000	0.074388
	17.040000	-0.009419
	17.045000	-0.012643
	17.050000	0.058271
	17.055000	0.067941
	17.060000	-0.012643
	17.065000	-0.012643
	17.070000	0.064718
	17.075000	0.064718
	17.080000	-0.012643
	17.085000	-0.015866
	17.090000	0.061495
	17.095000	0.071165
	17.100000	-0.015866
	17.105000	-0.012643
	17.110000	0.058271
	17.115000	0.067941
	17.120000	-0.015866
	17.125000	-0.012643
	17.130000	0.067941
	17.135000	0.067941
	17.140000	-0.006196
	17.145000	-0.002973
	17.150000	0.074388
	17.155000	0.071165
	17.160000	-0.002973
	17.165000	0.000251
	17.170000	0.064718
	17.175000	0.071165
	17.180000	-0.006196
	17.185000	-0.002973
	17.190000	0.067941
	17.195000	0.074388
	17.200000	-0.006196
	17.205000	-0.006196
	17.210000	0.071165
	17.215000	0.067941
	17.220000	-0.009419
	17.225000	-0.009419
	17.230000	0.064718
	17.235000	0.074388
	17.240000	-0.009419
	17.245000	-0.009419
	17.250000	0.071165
	17.255000	0.067941
	17.260000	-0.019089
	17.265000	-0.012643
	17.270000	0.067941
	17.275000	0.071165
	17.280000	-0.012643
	17.285000	-0.022313
	17.290000	0.055048
	17.295000	0.061495
	17.300000	-0.012643
	17.305000	-0.019089
	17.310000	0.061495
	17.315000	0.071165
	17.320000	-0.012643
	17.325000	-0.006196
	17.330000	0.080835
	17.335000	0.084058
	17.340000	0.016368
	17.345000	0.006697
	17.350000	0.103398
	17.355000	0.116292
	17.360000	0.042154
	17.365000	0.045378
	17.370000	0.138855
	17.375000	0.151749
	17.380000	0.074388
	17.385000	0.084058
	17.390000	0.171089
	17.395000	0.180759
	17.400000	0.109845
	17.405000	0.122738
	17.410000	0.196876
	17.415000	0.209769
	17.420000	0.145302
	17.425000	0.145302
	17.430000	0.229109
	17.435000	0.242003
	17.440000	0.171089
	17.445000	0.171089
	17.450000	0.254896
	17.455000	0.267790
	17.460000	0.193652
	17.465000	0.193652
	17.470000	0.287130
	17.475000	0.290353
	17.480000	0.212992
	17.485000	0.212992
	17.490000	0.290353
	17.495000	0.300023
	17.500000	0.229109
	17.505000	0.222663
	17.510000	0.300023
	17.515000	0.316140
	17.520000	0.238779
	17.525000	0.242003
	17.530000	0.319363
	17.535000	0.322587
	17.540000	0.245226
	17.545000	0.242003
	17.550000	0.322587
	17.555000	0.332257
	17.560000	0.254896
	17.565000	0.248449
	17.570000	0.329033
	17.575000	0.329033
	17.580000	0.251673
	17.585000	0.248449
	17.590000	0.322587
	17.595000	0.322587
	17.600000	0.245226
	17.605000	0.242003
	17.610000	0.312917
	17.615000	0.319363
	17.620000	0.238779
	17.625000	0.235556
	17.630000	0.300023
	17.635000	0.303247
	17.640000	0.225886
	17.645000	0.222663
	17.650000	0.287130
	17.655000	0.296800
	17.660000	0.209769
	17.665000	0.196876
	17.670000	0.264566
	17.675000	0.264566
	17.680000	0.187206
	17.685000	0.171089
	17.690000	0.242003
	17.695000	0.242003
	17.700000	0.151749
	17.705000	0.135632
	17.710000	0.206546
	17.715000	0.196876
	17.720000	0.113068
	17.725000	0.093728
	17.730000	0.164642
	17.735000	0.151749
	17.740000	0.067941
	17.745000	0.058271
	17.750000	0.129185
	17.755000	0.125962
	17.760000	0.045378
	17.765000	0.029261
	17.770000	0.103398
	17.775000	0.103398
	17.780000	0.026038
	17.785000	0.013144
	17.790000	0.087281
	17.795000	0.090505
	17.800000	0.016368
	17.805000	0.013144
	17.810000	0.084058
	17.815000	0.093728
	17.820000	0.019591
	17.825000	0.009921
	17.830000	0.090505
	17.835000	0.100175
	17.840000	0.029261
	17.845000	0.019591
	17.850000	0.100175
	17.855000	0.103398
	17.860000	0.042154
	17.865000	0.035708
	17.870000	0.109845
	17.875000	0.119515
	17.880000	0.042154
	17.885000	0.038931
	17.890000	0.113068
	17.895000	0.125962
	17.900000	0.051825
	17.905000	0.042154
	17.910000	0.113068
	17.915000	0.132408
	17.920000	0.058271
	17.925000	0.045378
	17.930000	0.119515
	17.935000	0.122738
	17.940000	0.048601
	17.945000	0.045378
	17.950000	0.113068
	17.955000	0.125962
	17.960000	0.051825
	17.965000	0.035708
	17.970000	0.096952
	17.975000	0.116292
	17.980000	0.038931
	17.985000	0.029261
	17.990000	0.103398
	17.995000	0.113068
	18.000000	0.032484
	18.005000	0.019591
	18.010000	0.103398
	18.015000	0.106622
	18.020000	0.032484
	18.025000	0.016368
	18.030000	0.093728
	18.035000	0.103398
	18.040000	0.019591
	18.045000	0.016368
	18.050000	0.087281
	18.055000	0.096952
	18.060000	0.016368
	18.065000	0.006697
	18.070000	0.077611
	18.075000	0.093728
	18.080000	0.006697
	18.085000	-0.002973
	18.090000	0.071165
	18.095000	0.080835
	18.100000	0.006697
	18.105000	-0.006196
	18.110000	0.064718
	18.115000	0.071165
	18.120000	-0.002973
	18.125000	-0.025536
	18.130000	0.051825
	18.135000	0.061495
	18.140000	-0.009419
	18.145000	-0.025536
	18.150000	0.045378
	18.155000	0.048601
	18.160000	-0.019089
	18.165000	-0.035206
	18.170000	0.045378
	18.175000	0.051825
	18.180000	-0.022313
	18.185000	-0.038430
	18.190000	0.032484
	18.195000	0.042154
	18.200000	-0.028759
	18.205000	-0.044876
	18.210000	0.022814
	18.215000	0.038931
	18.220000	-0.038430
	18.225000	-0.048100
	18.230000	0.019591
	18.235000	0.035708
	18.240000	-0.041653
	18.245000	-0.054546
	18.250000	0.026038
	18.255000	0.035708
	18.260000	-0.048100
	18.265000	-0.057770
	18.270000	0.019591
	18.275000	0.032484
	18.280000	-0.044876
	18.285000	-0.057770
	18.290000	0.022814
	18.295000	0.026038
	18.300000	-0.044876
	18.305000	-0.054546
	18.310000	0.016368
	18.315000	0.029261
	18.320000	-0.044876
	18.325000	-0.051323
	18.330000	0.009921
	18.335000	0.026038
	18.340000	-0.048100
	18.345000	-0.067440
	18.350000	0.016368
	18.355000	0.026038
	18.360000	-0.048100
	18.365000	-0.067440
	18.370000	0.009921
	18.375000	0.026038
	18.380000	-0.051323
	18.385000	-0.070663
	18.390000	0.009921
	18.395000	0.022814
	18.400000	-0.054546
	18.405000	-0.060993
	18.410000	0.006697
	18.415000	0.019591
	18.420000	-0.060993
	18.425000	-0.067440
	18.430000	0.006697
	18.435000	0.013144
	18.440000	-0.057770
	18.445000	-0.077110
	18.450000	-0.002973
	18.455000	0.009921
	18.460000	-0.067440
	18.465000	-0.077110
	18.470000	0.000251
	18.475000	0.006697
	18.480000	-0.064216
	18.485000	-0.077110
	18.490000	-0.002973
	18.495000	0.006697
	18.500000	-0.067440
	18.505000	-0.083557
	18.510000	0.000251
	18.515000	0.006697
	18.520000	-0.070663
	18.525000	-0.077110
	18.530000	-0.006196
	18.535000	0.006697
	18.540000	-0.067440
	18.545000	-0.080333
	18.550000	-0.012643
	18.555000	0.006697
	18.560000	-0.070663
	18.565000	-0.090003
	18.570000	-0.012643
	18.575000	0.000251
	18.580000	-0.077110
	18.585000	-0.090003
	18.590000	-0.015866
	18.595000	0.003474
	18.600000	-0.070663
	18.605000	-0.096450
	18.610000	-0.015866
	18.615000	0.000251
	18.620000	-0.077110
	18.625000	-0.096450
	18.630000	-0.015866
	18.635000	-0.002973
	18.640000	-0.083557
	18.645000	-0.093227
	18.650000	-0.025536
	18.655000	-0.006196
	18.660000	-0.083557
	18.665000	-0.096450
	18.670000	-0.022313
	18.675000	-0.009419
	18.680000	-0.086780
	18.685000	-0.096450
	18.690000	-0.028759
	18.695000	-0.015866
	18.700000	-0.080333
	18.705000	-0.096450
	18.710000	-0.028759
	18.715000	-0.012643
	18.720000	-0.090003
	18.725000	-0.099673
	18.730000	-0.031983
	18.735000	-0.012643
	18.740000	-0.086780
	18.745000	-0.102897
	18.750000	-0.022313
	18.755000	-0.006196
	18.760000	-0.083557
	18.765000	-0.099673
	18.770000	-0.028759
	18.775000	-0.006196
	18.780000	-0.083557
	18.785000	-0.109343
	18.790000	-0.025536
	18.795000	-0.015866
	18.800000	-0.086780
	18.805000	-0.102897
	18.810000	-0.025536
	18.815000	-0.009419
	18.820000	-0.086780
	18.825000	-0.109343
	18.830000	-0.035206
	18.835000	-0.006196
	18.840000	-0.086780
	18.845000	-0.109343
	18.850000	-0.035206
	18.855000	-0.012643
	18.860000	-0.083557
	18.865000	-0.106120
	18.870000	-0.031983
	18.875000	-0.015866
	18.880000	-0.086780
	18.885000	-0.109343
	18.890000	-0.028759
	18.895000	-0.015866
	18.900000	-0.090003
	18.905000	-0.106120
	18.910000	-0.031983
	18.915000	-0.009419
	18.920000	-0.090003
	18.925000	-0.102897
	18.930000	-0.028759
	18.935000	-0.015866
	18.940000	-0.090003
	18.945000	-0.109343
	18.950000	-0.035206
	18.955000	-0.012643
	18.960000	-0.086780
	18.965000	-0.106120
	18.970000	-0.035206
	18.975000	-0.012643
	18.980000	-0.090003
	18.985000	-0.112567
	18.990000	-0.031983
	18.995000	-0.012643
	19.000000	-0.093227
	19.005000	-0.109343
	19.010000	-0.035206
	19.015000	-0.015866
	19.020000	-0.086780
	19.025000	-0.115790
	19.030000	-0.035206
	19.035000	-0.019089
	19.040000	-0.086780
	19.045000	-0.109343
	19.050000	-0.031983
	19.055000	-0.012643
	19.060000	-0.090003
	19.065000	-0.109343
	19.070000	-0.025536
	19.075000	-0.006196
	19.080000	-0.086780
	19.085000	-0.109343
	19.090000	-0.038430
	19.095000	-0.015866
	19.100000	-0.090003
	19.105000	-0.106120
	19.110000	-0.031983
	19.115000	-0.009419
	19.120000	-0.090003
	19.125000	-0.106120
	19.130000	-0.028759
	19.135000	-0.012643
	19.140000	-0.086780
	19.145000	-0.106120
	19.150000	-0.031983
	19.155000	-0.012643
	19.160000	-0.090003
	19.165000	-0.102897
	19.170000	-0.031983
	19.175000	-0.009419
	19.180000	-0.090003
	19.185000	-0.109343
	19.190000	-0.028759
	19.195000	-0.009419
	19.200000	-0.080333
	19.205000	-0.106120
	19.210000	-0.028759
	19.215000	-0.022313
	19.220000	-0.083557
	19.225000	-0.102897
	19.230000	-0.031983
	19.235000	-0.012643
	19.240000	-0.083557
	19.245000	-0.106120
	19.250000	-0.025536
	19.255000	-0.012643
	19.260000	-0.086780
	19.265000	-0.102897
	19.270000	-0.028759
	19.275000	-0.006196
	19.280000	-0.077110
	19.285000	-0.102897
	19.290000	-0.031983
	19.295000	-0.002973
	19.300000	-0.080333
	19.305000	-0.099673
	19.310000	-0.025536
	19.315000	-0.009419
	19.320000	-0.077110
	19.325000	-0.096450
	19.330000	-0.035206
	19.335000	-0.009419
	19.340000	-0.077110
	19.345000	-0.102897
	19.350000	-0.028759
	19.355000	-0.009419
	19.360000	-0.086780
	19.365000	-0.109343
	19.370000	-0.028759
	19.375000	-0.009419
	19.380000	-0.086780
	19.385000	-0.096450
	19.390000	-0.028759
	19.395000	-0.006196
	19.400000	-0.077110
	19.405000	-0.099673
	19.410000	-0.035206
	19.415000	-0.002973
	19.420000	-0.080333
	19.425000	-0.106120
	19.430000	-0.028759
	19.435000	-0.006196
	19.440000	-0.083557
	19.445000	-0.106120
	19.450000	-0.028759
	19.455000	-0.002973
	19.460000	-0.080333
	19.465000	-0.102897
	19.470000	-0.031983
	19.475000	-0.002973
	19.480000	-0.077110
	19.485000	-0.102897
	19.490000	-0.035206
	19.495000	-0.006196
	19.500000	-0.086780
	19.505000	-0.099673
	19.510000	-0.025536
	19.515000	-0.009419
	19.520000	-0.080333
	19.525000	-0.109343
	19.530000	-0.035206
	19.535000	-0.002973
	19.540000	-0.086780
	19.545000	-0.099673
	19.550000	-0.028759
	19.555000	0.000251
	19.560000	-0.073886
	19.565000	-0.102897
	19.570000	-0.022313
	19.575000	-0.009419
	19.580000	-0.077110
	19.585000	-0.106120
	19.590000	-0.022313
	19.595000	-0.009419
	19.600000	-0.080333
	19.605000	-0.106120
	19.610000	-0.031983
	19.615000	-0.006196
	19.620000	-0.080333
	19.625000	-0.106120
	19.630000	-0.025536
	19.635000	0.000251
	19.640000	-0.080333
	19.645000	-0.106120
	19.650000	-0.031983
	19.655000	-0.009419
	19.660000	-0.077110
	19.665000	-0.102897
	19.670000	-0.025536
	19.675000	-0.006196
	19.680000	-0.077110
	19.685000	-0.109343
	19.690000	-0.031983
	19.695000	-0.009419
	19.700000	-0.080333
	19.705000	-0.106120
	19.710000	-0.025536
	19.715000	-0.002973
	19.720000	-0.083557
	19.725000	-0.102897
	19.730000	-0.028759
	19.735000	-0.006196
	19.740000	-0.083557
	19.745000	-0.106120
	19.750000	-0.035206
	19.755000	-0.006196
	19.760000	-0.073886
	19.765000	-0.102897
	19.770000	-0.019089
	19.775000	-0.002973
	19.780000	-0.073886
	19.785000	-0.102897
	19.790000	-0.028759
	19.795000	0.000251
	19.800000	-0.070663
	19.805000	-0.096450
	19.810000	-0.025536
	19.815000	0.000251
	19.820000	-0.077110
	19.825000	-0.102897
	19.830000	-0.022313
	19.835000	0.003474
	19.840000	-0.073886
	19.845000	-0.096450
	19.850000	-0.025536
	19.855000	0.000251
	19.860000	-0.070663
	19.865000	-0.096450
	19.870000	-0.025536
	19.875000	0.003474
	19.880000	-0.073886
	19.885000	-0.102897
	19.890000	-0.025536
	19.895000	0.003474
	19.900000	-0.070663
	19.905000	-0.096450
	19.910000	-0.015866
	19.915000	0.003474
	19.920000	-0.070663
	19.925000	-0.096450
	19.930000	-0.022313
	19.935000	0.000251
	19.940000	-0.067440
	19.945000	-0.093227
	19.950000	-0.022313
	19.955000	0.003474
	19.960000	-0.067440
	19.965000	-0.096450
	19.970000	-0.025536
	19.975000	0.000251
	19.980000	-0.070663
	19.985000	-0.096450
	19.990000	-0.025536
	19.995000	0.003474
	20.000000	-0.064216
	20.005000	-0.093227
	20.010000	-0.022313
	20.015000	0.006697
	20.020000	-0.064216
	20.025000	-0.096450
	20.030000	-0.015866
	20.035000	0.006697
	20.040000	-0.064216
	20.045000	-0.099673
	20.050000	-0.019089
	20.055000	0.003474
	20.060000	-0.067440
	20.065000	-0.093227
	20.070000	-0.019089
	20.075000	0.006697
	20.080000	-0.064216
	20.085000	-0.096450
	20.090000	-0.022313
	20.095000	0.009921
	20.100000	-0.060993
	20.105000	-0.086780
	20.110000	-0.015866
	20.115000	0.003474
	20.120000	-0.064216
	20.125000	-0.090003
	20.130000	-0.022313
	20.135000	0.009921
	20.140000	-0.064216
	20.145000	-0.096450
	20.150000	-0.022313
	20.155000	0.006697
	20.160000	-0.064216
	20.165000	-0.093227
	20.170000	-0.015866
	20.175000	0.006697
	20.180000	-0.060993
	20.185000	-0.096450
	20.190000	-0.025536
	20.195000	0.006697
	20.200000	-0.060993
	20.205000	-0.093227
	20.210000	-0.025536
	20.215000	0.009921
	20.220000	-0.070663
	20.225000	-0.090003
	20.230000	-0.025536
	20.235000	0.000251
	20.240000	-0.070663
	20.245000	-0.096450
	20.250000	-0.019089
	20.255000	0.009921
	20.260000	-0.067440
	20.265000	-0.099673
	20.270000	-0.028759
	20.275000	0.000251
	20.280000	-0.070663
	20.285000	-0.096450
	20.290000	-0.025536
	20.295000	0.006697
	20.300000	-0.064216
	20.305000	-0.090003
	20.310000	-0.019089
	20.315000	0.009921
	20.320000	-0.051323
	20.325000	-0.093227
	20.330000	-0.009419
	20.335000	0.026038
	20.340000	-0.044876
	20.345000	-0.073886
	20.350000	0.000251
	20.355000	0.038931
	20.360000	-0.031983
	20.365000	-0.057770
	20.370000	0.016368
	20.375000	0.051825
	20.380000	-0.019089
	20.385000	-0.038430
	20.390000	0.032484
	20.395000	0.067941
	20.400000	0.003474
	20.405000	-0.019089
	20.410000	0.058271
	20.415000	0.090505
	20.420000	0.032484
	20.425000	-0.002973
	20.430000	0.074388
	20.435000	0.116292
	20.440000	0.048601
	20.445000	0.029261
	20.450000	0.096952
	20.455000	0.135632
	20.460000	0.071165
	20.465000	0.045378
	20.470000	0.116292
	20.475000	0.158195
	20.480000	0.084058
	20.485000	0.055048
	20.490000	0.129185
	20.495000	0.167865
	20.500000	0.100175
	20.505000	0.064718
	20.510000	0.145302
	20.515000	0.180759
	20.520000	0.113068
	20.525000	0.084058
	20.530000	0.158195
	20.535000	0.193652
	20.540000	0.125962
	20.545000	0.096952
	20.550000	0.167865
	20.555000	0.206546
	20.560000	0.132408
	20.565000	0.103398
	20.570000	0.180759
	20.575000	0.209769
	20.580000	0.135632
	20.585000	0.109845
	20.590000	0.177536
	20.595000	0.216216
	20.600000	0.151749
	20.605000	0.113068
	20.610000	0.187206
	20.615000	0.219439
	20.620000	0.151749
	20.625000	0.119515
	20.630000	0.187206
	20.635000	0.219439
	20.640000	0.151749
	20.645000	0.122738
	20.650000	0.190429
	20.655000	0.222663
	20.660000	0.148525
	20.665000	0.119515
	20.670000	0.187206
	20.675000	0.216216
	20.680000	0.145302
	20.685000	0.109845
	20.690000	0.177536
	20.695000	0.206546
	20.700000	0.145302
	20.705000	0.106622
	20.710000	0.174312
	20.715000	0.203322
	20.720000	0.132408
	20.725000	0.100175
	20.730000	0.158195
	20.735000	0.183982
	20.740000	0.122738
	20.745000	0.080835
	20.750000	0.151749
	20.755000	0.177536
	20.760000	0.113068
	20.765000	0.067941
	20.770000	0.132408
	20.775000	0.161419
	20.780000	0.090505
	20.785000	0.051825
	20.790000	0.119515
	20.795000	0.142079
	20.800000	0.071165
	20.805000	0.038931
	20.810000	0.096952
	20.815000	0.116292
	20.820000	0.038931
	20.825000	0.000251
	20.830000	0.055048
	20.835000	0.074388
	20.840000	-0.002973
	20.845000	-0.041653
	20.850000	0.016368
	20.855000	0.051825
	20.860000	-0.028759
	20.865000	-0.067440
	20.870000	-0.012643
	20.875000	0.013144
	20.880000	-0.064216
	20.885000	-0.106120
	20.890000	-0.041653
	20.895000	-0.012643
	20.900000	-0.080333
	20.905000	-0.119014
	20.910000	-0.054546
	20.915000	-0.019089
	20.920000	-0.086780
	20.925000	-0.122237
	20.930000	-0.057770
	20.935000	-0.028759
	20.940000	-0.093227
	20.945000	-0.131907
	20.950000	-0.057770
	20.955000	-0.022313
	20.960000	-0.090003
	20.965000	-0.122237
	20.970000	-0.054546
	20.975000	-0.025536
	20.980000	-0.093227
	20.985000	-0.128684
	20.990000	-0.054546
	20.995000	-0.022313
	21.000000	-0.090003
	21.005000	-0.125460
	21.010000	-0.057770
	21.015000	-0.019089
	21.020000	-0.093227
	21.025000	-0.122237
	21.030000	-0.054546
	21.035000	-0.019089
	21.040000	-0.083557
	21.045000	-0.122237
	21.050000	-0.054546
	21.055000	-0.025536
	21.060000	-0.086780
	21.065000	-0.115790
	21.070000	-0.057770
	21.075000	-0.019089
	21.080000	-0.090003
	21.085000	-0.125460
	21.090000	-0.060993
	21.095000	-0.022313
	21.100000	-0.086780
	21.105000	-0.125460
	21.110000	-0.054546
	21.115000	-0.028759
	21.120000	-0.090003
	21.125000	-0.122237
	21.130000	-0.057770
	21.135000	-0.019089
	21.140000	-0.090003
	21.145000	-0.128684
	21.150000	-0.060993
	21.155000	-0.025536
	21.160000	-0.096450
	21.165000	-0.128684
	21.170000	-0.064216
	21.175000	-0.022313
	21.180000	-0.093227
	21.185000	-0.138354
	21.190000	-0.070663
	21.195000	-0.028759
	21.200000	-0.093227
	21.205000	-0.135130
	21.210000	-0.067440
	21.215000	-0.025536
	21.220000	-0.096450
	21.225000	-0.131907
	21.230000	-0.067440
	21.235000	-0.035206
	21.240000	-0.102897
	21.245000	-0.138354
	21.250000	-0.073886
	21.255000	-0.028759
	21.260000	-0.102897
	21.265000	-0.135130
	21.270000	-0.077110
	21.275000	-0.031983
	21.280000	-0.099673
	21.285000	-0.144800
	21.290000	-0.073886
	21.295000	-0.038430
	21.300000	-0.102897
	21.305000	-0.141577
	21.310000	-0.080333
	21.315000	-0.038430
	21.320000	-0.106120
	21.325000	-0.144800
	21.330000	-0.080333
	21.335000	-0.038430
	21.340000	-0.106120
	21.345000	-0.148024
	21.350000	-0.080333
	21.355000	-0.051323
	21.360000	-0.106120
	21.365000	-0.144800
	21.370000	-0.083557
	21.375000	-0.044876
	21.380000	-0.112567
	21.385000	-0.151247
	21.390000	-0.083557
	21.395000	-0.051323
	21.400000	-0.109343
	21.405000	-0.151247
	21.410000	-0.086780
	21.415000	-0.048100
	21.420000	-0.109343
	21.425000	-0.151247
	21.430000	-0.090003
	21.435000	-0.051323
	21.440000	-0.109343
	21.445000	-0.148024
	21.450000	-0.086780
	21.455000	-0.041653
	21.460000	-0.112567
	21.465000	-0.151247
	21.470000	-0.086780
	21.475000	-0.044876
	21.480000	-0.115790
	21.485000	-0.154470
	21.490000	-0.083557
	21.495000	-0.051323
	21.500000	-0.109343
	21.505000	-0.144800
	21.510000	-0.086780
	21.515000	-0.041653
	21.520000	-0.119014
	21.525000	-0.157694
	21.530000	-0.086780
	21.535000	-0.044876
	21.540000	-0.112567
	21.545000	-0.157694
	21.550000	-0.086780
	21.555000	-0.044876
	21.560000	-0.115790
	21.565000	-0.151247
	21.570000	-0.090003
	21.575000	-0.051323
	21.580000	-0.109343
	21.585000	-0.160917
	21.590000	-0.086780
	21.595000	-0.051323
	21.600000	-0.109343
	21.605000	-0.157694
	21.610000	-0.090003
	21.615000	-0.051323
	21.620000	-0.109343
	21.625000	-0.157694
	21.630000	-0.093227
	21.635000	-0.048100
	21.640000	-0.112567
	21.645000	-0.154470
	21.650000	-0.090003
	21.655000	-0.051323
	21.660000	-0.119014
	21.665000	-0.154470
	21.670000	-0.090003
	21.675000	-0.048100
	21.680000	-0.109343
	21.685000	-0.160917
	21.690000	-0.090003
	21.695000	-0.044876
	21.700000	-0.115790
	21.705000	-0.160917
	21.710000	-0.093227
	21.715000	-0.051323
	21.720000	-0.112567
	21.725000	-0.157694
	21.730000	-0.090003
	21.735000	-0.048100
	21.740000	-0.115790
	21.745000	-0.157694
	21.750000	-0.096450
	21.755000	-0.051323
	21.760000	-0.119014
	21.765000	-0.164141
	21.770000	-0.090003
	21.775000	-0.044876
	21.780000	-0.115790
	21.785000	-0.157694
	21.790000	-0.093227
	21.795000	-0.054546
	21.800000	-0.122237
	21.805000	-0.167364
	21.810000	-0.096450
	21.815000	-0.051323
	21.820000	-0.115790
	21.825000	-0.160917
	21.830000	-0.093227
	21.835000	-0.054546
	21.840000	-0.122237
	21.845000	-0.160917
	21.850000	-0.093227
	21.855000	-0.054546
	21.860000	-0.119014
	21.865000	-0.160917
	21.870000	-0.099673
	21.875000	-0.051323
	21.880000	-0.122237
	21.885000	-0.167364
	21.890000	-0.099673
	21.895000	-0.054546
	21.900000	-0.125460
	21.905000	-0.170587
	21.910000	-0.099673
	21.915000	-0.044876
	21.920000	-0.115790
	21.925000	-0.164141
	21.930000	-0.099673
	21.935000	-0.057770
	21.940000	-0.125460
	21.945000	-0.170587
	21.950000	-0.102897
	21.955000	-0.057770
	21.960000	-0.119014
	21.965000	-0.170587
	21.970000	-0.102897
	21.975000	-0.060993
	21.980000	-0.119014
	21.985000	-0.170587
	21.990000	-0.102897
	21.995000	-0.057770
	22.000000	-0.125460
	22.005000	-0.164141
	22.010000	-0.096450
	22.015000	-0.054546
	22.020000	-0.119014
	22.025000	-0.167364
	22.030000	-0.106120
	22.035000	-0.057770
	22.040000	-0.125460
	22.045000	-0.160917
	22.050000	-0.096450
	22.055000	-0.057770
	22.060000	-0.115790
	22.065000	-0.173811
	22.070000	-0.106120
	22.075000	-0.057770
	22.080000	-0.115790
	22.085000	-0.167364
	22.090000	-0.106120
	22.095000	-0.060993
	22.100000	-0.122237
	22.105000	-0.164141
	22.110000	-0.106120
	22.115000	-0.057770
	22.120000	-0.125460
	22.125000	-0.170587
	22.130000	-0.102897
	22.135000	-0.060993
	22.140000	-0.125460
	22.145000	-0.167364
	22.150000	-0.109343
	22.155000	-0.064216
	22.160000	-0.122237
	22.165000	-0.173811
	22.170000	-0.106120
	22.175000	-0.060993
	22.180000	-0.125460
	22.185000	-0.167364
	22.190000	-0.102897
	22.195000	-0.057770
	22.200000	-0.125460
	22.205000	-0.173811
	22.210000	-0.102897
	22.215000	-0.057770
	22.220000	-0.119014
	22.225000	-0.167364
	22.230000	-0.112567
	22.235000	-0.060993
	22.240000	-0.122237
	22.245000	-0.164141
	22.250000	-0.115790
	22.255000	-0.060993
	22.260000	-0.122237
	22.265000	-0.167364
	22.270000	-0.109343
	22.275000	-0.060993
	22.280000	-0.119014
	22.285000	-0.167364
	22.290000	-0.102897
	22.295000	-0.060993
	22.300000	-0.125460
	22.305000	-0.164141
	22.310000	-0.099673
	22.315000	-0.057770
	22.320000	-0.119014
	22.325000	-0.167364
	22.330000	-0.106120
	22.335000	-0.060993
	22.340000	-0.122237
	22.345000	-0.167364
	22.350000	-0.099673
	22.355000	-0.057770
	22.360000	-0.119014
	22.365000	-0.167364
	22.370000	-0.106120
	22.375000	-0.064216
	22.380000	-0.122237
	22.385000	-0.167364
	22.390000	-0.109343
	22.395000	-0.064216
	22.400000	-0.119014
	22.405000	-0.170587
	22.410000	-0.106120
	22.415000	-0.057770
	22.420000	-0.128684
	22.425000	-0.170587
	22.430000	-0.106120
	22.435000	-0.060993
	22.440000	-0.125460
	22.445000	-0.173811
	22.450000	-0.109343
	22.455000	-0.054546
	22.460000	-0.128684
	22.465000	-0.177034
	22.470000	-0.109343
	22.475000	-0.060993
	22.480000	-0.122237
	22.485000	-0.183481
	22.490000	-0.115790
	22.495000	-0.067440
	22.500000	-0.131907
	22.505000	-0.177034
	22.510000	-0.115790
	22.515000	-0.070663
	22.520000	-0.131907
	22.525000	-0.183481
	22.530000	-0.115790
	22.535000	-0.070663
	22.540000	-0.135130
	22.545000	-0.183481
	22.550000	-0.122237
	22.555000	-0.080333
	22.560000	-0.135130
	22.565000	-0.186704
	22.570000	-0.122237
	22.575000	-0.073886
	22.580000	-0.135130
	22.585000	-0.189927
	22.590000	-0.119014
	22.595000	-0.077110
	22.600000	-0.131907
	22.605000	-0.183481
	22.610000	-0.125460
	22.615000	-0.077110
	22.620000	-0.135130
	22.625000	-0.180257
	22.630000	-0.128684
	22.635000	-0.077110
	22.640000	-0.144800
	22.645000	-0.189927
	22.650000	-0.131907
	22.655000	-0.077110
	22.660000	-0.148024
	22.665000	-0.193151
	22.670000	-0.128684
	22.675000	-0.077110
	22.680000	-0.141577
	22.685000	-0.193151
	22.690000	-0.131907
	22.695000	-0.083557
	22.700000	-0.138354
	22.705000	-0.196374
	22.710000	-0.138354
	22.715000	-0.083557
	22.720000	-0.141577
	22.725000	-0.196374
	22.730000	-0.125460
	22.735000	-0.080333
	22.740000	-0.148024
	22.745000	-0.186704
	22.750000	-0.128684
	22.755000	-0.080333
	22.760000	-0.144800
	22.765000	-0.189927
	22.770000	-0.135130
	22.775000	-0.077110
	22.780000	-0.144800
	22.785000	-0.189927
	22.790000	-0.135130
	22.795000	-0.077110
	22.800000	-0.135130
	22.805000	-0.186704
	22.810000	-0.128684
	22.815000	-0.083557
	22.820000	-0.141577
	22.825000	-0.189927
	22.830000	-0.128684
	22.835000	-0.073886
	22.840000	-0.135130
	22.845000	-0.189927
	22.850000	-0.128684
	22.855000	-0.067440
	22.860000	-0.138354
	22.865000	-0.177034
	22.870000	-0.125460
	22.875000	-0.073886
	22.880000	-0.135130
	22.885000	-0.173811
	22.890000	-0.128684
	22.895000	-0.077110
	22.900000	-0.128684
	22.905000	-0.186704
	22.910000	-0.122237
	22.915000	-0.070663
	22.920000	-0.131907
	22.925000	-0.180257
	22.930000	-0.125460
	22.935000	-0.073886
	22.940000	-0.131907
	22.945000	-0.183481
	22.950000	-0.119014
	22.955000	-0.067440
	22.960000	-0.131907
	22.965000	-0.177034
	22.970000	-0.115790
	22.975000	-0.064216
	22.980000	-0.119014
	22.985000	-0.164141
	22.990000	-0.099673
	22.995000	-0.044876
	23.000000	-0.099673
	23.005000	-0.148024
	23.010000	-0.083557
	23.015000	-0.025536
	23.020000	-0.080333
	23.025000	-0.119014
	23.030000	-0.057770
	23.035000	-0.002973
	23.040000	-0.057770
	23.045000	-0.096450
	23.050000	-0.035206
	23.055000	0.026038
	23.060000	-0.035206
	23.065000	-0.080333
	23.070000	-0.015866
	23.075000	0.032484
	23.080000	-0.019089
	23.085000	-0.057770
	23.090000	-0.002973
	23.095000	0.055048
	23.100000	0.000251
	23.105000	-0.051323
	23.110000	0.013144
	23.115000	0.067941
	23.120000	0.013144
	23.125000	-0.035206
	23.130000	0.029261
	23.135000	0.080835
	23.140000	0.029261
	23.145000	-0.012643
	23.150000	0.042154
	23.155000	0.087281
	23.160000	0.038931
	23.165000	-0.012643
	23.170000	0.048601
	23.175000	0.106622
	23.180000	0.042154
	23.185000	0.000251
	23.190000	0.051825
	23.195000	0.103398
	23.200000	0.058271
	23.205000	0.000251
	23.210000	0.061495
	23.215000	0.113068
	23.220000	0.058271
	23.225000	0.006697
	23.230000	0.058271
	23.235000	0.109845
	23.240000	0.058271
	23.245000	0.009921
	23.250000	0.061495
	23.255000	0.116292
	23.260000	0.061495
	23.265000	0.009921
	23.270000	0.064718
	23.275000	0.119515
	23.280000	0.058271
	23.285000	0.019591
	23.290000	0.064718
	23.295000	0.109845
	23.300000	0.061495
	23.305000	0.006697
	23.310000	0.061495
	23.315000	0.109845
	23.320000	0.058271
	23.325000	0.003474
	23.330000	0.064718
	23.335000	0.113068
	23.340000	0.058271
	23.345000	-0.002973
	23.350000	0.051825
	23.355000	0.100175
	23.360000	0.048601
	23.365000	-0.002973
	23.370000	0.048601
	23.375000	0.096952
	23.380000	0.045378
	23.385000	-0.006196
	23.390000	0.045378
	23.395000	0.090505
	23.400000	0.042154
	23.405000	-0.015866
	23.410000	0.035708
	23.415000	0.084058
	23.420000	0.029261
	23.425000	-0.022313
	23.430000	0.026038
	23.435000	0.067941
	23.440000	0.013144
	23.445000	-0.041653
	23.450000	0.000251
	23.455000	0.045378
	23.460000	-0.012643
	23.465000	-0.073886
	23.470000	-0.031983
	23.475000	0.016368
	23.480000	-0.041653
	23.485000	-0.102897
	23.490000	-0.051323
	23.495000	-0.006196
	23.500000	-0.060993
	23.505000	-0.115790
	23.510000	-0.077110
	23.515000	-0.022313
	23.520000	-0.070663
	23.525000	-0.125460
	23.530000	-0.070663
	23.535000	-0.015866
	23.540000	-0.064216
	23.545000	-0.109343
	23.550000	-0.064216
	23.555000	-0.009419
	23.560000	-0.054546
	23.565000	-0.099673
	23.570000	-0.054546
	23.575000	0.009921
	23.580000	-0.044876
	23.585000	-0.090003
	23.590000	-0.035206
	23.595000	0.019591
	23.600000	-0.035206
	23.605000	-0.086780
	23.610000	-0.028759
	23.615000	0.029261
	23.620000	-0.019089
	23.625000	-0.070663
	23.630000	-0.019089
	23.635000	0.022814
	23.640000	-0.025536
	23.645000	-0.070663
	23.650000	-0.025536
	23.655000	0.029261
	23.660000	-0.025536
	23.665000	-0.077110
	23.670000	-0.028759
	23.675000	0.019591
	23.680000	-0.035206
	23.685000	-0.083557
	23.690000	-0.035206
	23.695000	0.013144
	23.700000	-0.038430
	23.705000	-0.093227
	23.710000	-0.048100
	23.715000	-0.002973
	23.720000	-0.044876
	23.725000	-0.109343
	23.730000	-0.060993
	23.735000	-0.012643
	23.740000	-0.060993
	23.745000	-0.119014
	23.750000	-0.070663
	23.755000	-0.022313
	23.760000	-0.080333
	23.765000	-0.138354
	23.770000	-0.099673
	23.775000	-0.038430
	23.780000	-0.093227
	23.785000	-0.148024
	23.790000	-0.106120
	23.795000	-0.054546
	23.800000	-0.102897
	23.805000	-0.160917
	23.810000	-0.115790
	23.815000	-0.067440
	23.820000	-0.115790
	23.825000	-0.180257
	23.830000	-0.131907
	23.835000	-0.080333
	23.840000	-0.119014
	23.845000	-0.186704
	23.850000	-0.141577
	23.855000	-0.086780
	23.860000	-0.135130
	23.865000	-0.196374
	23.870000	-0.144800
	23.875000	-0.096450
	23.880000	-0.141577
	23.885000	-0.202821
	23.890000	-0.154470
	23.895000	-0.106120
	23.900000	-0.154470
	23.905000	-0.209268
	23.910000	-0.164141
	23.915000	-0.109343
	23.920000	-0.160917
	23.925000	-0.218938
	23.930000	-0.173811
	23.935000	-0.115790
	23.940000	-0.170587
	23.945000	-0.222161
	23.950000	-0.177034
	23.955000	-0.125460
	23.960000	-0.173811
	23.965000	-0.235054
	23.970000	-0.180257
	23.975000	-0.122237
	23.980000	-0.177034
	23.985000	-0.241501
	23.990000	-0.186704
	23.995000	-0.128684
	24.000000	-0.180257
	24.005000	-0.235054
	24.010000	-0.186704
	24.015000	-0.131907
	24.020000	-0.183481
	24.025000	-0.244725
	24.030000	-0.196374
	24.035000	-0.138354
	24.040000	-0.193151
	24.045000	-0.244725
	24.050000	-0.199597
	24.055000	-0.141577
	24.060000	-0.196374
	24.065000	-0.247948
	24.070000	-0.206044
	24.075000	-0.144800
	24.080000	-0.193151
	24.085000	-0.254395
	24.090000	-0.199597
	24.095000	-0.144800
	24.100000	-0.202821
	24.105000	-0.247948
	24.110000	-0.206044
	24.115000	-0.151247
	24.120000	-0.196374
	24.125000	-0.254395
	24.130000	-0.212491
	24.135000	-0.157694
	24.140000	-0.202821
	24.145000	-0.254395
	24.150000	-0.209268
	24.155000	-0.157694
	24.160000	-0.202821
	24.165000	-0.267288
	24.170000	-0.215714
	24.175000	-0.157694
	24.180000	-0.206044
	24.185000	-0.264065
	24.190000	-0.225384
	24.195000	-0.157694
	24.200000	-0.212491
	24.205000	-0.270511
	24.210000	-0.222161
	24.215000	-0.167364
	24.220000	-0.206044
	24.225000	-0.273735
	24.230000	-0.225384
	24.235000	-0.160917
	24.240000	-0.209268
	24.245000	-0.270511
	24.250000	-0.225384
	24.255000	-0.170587
	24.260000	-0.209268
	24.265000	-0.273735
	24.270000	-0.225384
	24.275000	-0.164141
	24.280000	-0.212491
	24.285000	-0.276958
	24.290000	-0.225384
	24.295000	-0.167364
	24.300000	-0.218938
	24.305000	-0.276958
	24.310000	-0.235054
	24.315000	-0.167364
	24.320000	-0.218938
	24.325000	-0.280181
	24.330000	-0.228608
	24.335000	-0.173811
	24.340000	-0.215714
	24.345000	-0.276958
	24.350000	-0.235054
	24.355000	-0.170587
	24.360000	-0.218938
	24.365000	-0.273735
	24.370000	-0.238278
	24.375000	-0.173811
	24.380000	-0.222161
	24.385000	-0.280181
	24.390000	-0.235054
	24.395000	-0.173811
	24.400000	-0.228608
	24.405000	-0.276958
	24.410000	-0.241501
	24.415000	-0.177034
	24.420000	-0.222161
	24.425000	-0.289852
	24.430000	-0.238278
	24.435000	-0.177034
	24.440000	-0.222161
	24.445000	-0.289852
	24.450000	-0.235054
	24.455000	-0.180257
	24.460000	-0.231831
	24.465000	-0.280181
	24.470000	-0.244725
	24.475000	-0.186704
	24.480000	-0.222161
	24.485000	-0.286628
	24.490000	-0.244725
	24.495000	-0.183481
	24.500000	-0.225384
	24.505000	-0.289852
	24.510000	-0.241501
	24.515000	-0.183481
	24.520000	-0.225384
	24.525000	-0.286628
	24.530000	-0.244725
	24.535000	-0.180257
	24.540000	-0.228608
	24.545000	-0.293075
	24.550000	-0.244725
	24.555000	-0.173811
	24.560000	-0.222161
	24.565000	-0.286628
	24.570000	-0.241501
	24.575000	-0.183481
	24.580000	-0.225384
	24.585000	-0.289852
	24.590000	-0.244725
	24.595000	-0.183481
	24.600000	-0.225384
	24.605000	-0.293075
	24.610000	-0.244725
	24.615000	-0.186704
	24.620000	-0.222161
	24.625000	-0.283405
	24.630000	-0.247948
	24.635000	-0.183481
	24.640000	-0.228608
	24.645000	-0.273735
	24.650000	-0.247948
	24.655000	-0.183481
	24.660000	-0.222161
	24.665000	-0.289852
	24.670000	-0.241501
	24.675000	-0.180257
	24.680000	-0.225384
	24.685000	-0.283405
	24.690000	-0.244725
	24.695000	-0.177034
	24.700000	-0.225384
	24.705000	-0.289852
	24.710000	-0.244725
	24.715000	-0.180257
	24.720000	-0.222161
	24.725000	-0.286628
	24.730000	-0.244725
	24.735000	-0.180257
	24.740000	-0.222161
	24.745000	-0.286628
	24.750000	-0.244725
	24.755000	-0.180257
	24.760000	-0.215714
	24.765000	-0.289852
	24.770000	-0.244725
	24.775000	-0.186704
	24.780000	-0.225384
	24.785000	-0.293075
	24.790000	-0.241501
	24.795000	-0.177034
	24.800000	-0.222161
	24.805000	-0.286628
	24.810000	-0.251171
	24.815000	-0.186704
	24.820000	-0.228608
	24.825000	-0.293075
	24.830000	-0.238278
	24.835000	-0.186704
	24.840000	-0.222161
	24.845000	-0.283405
	24.850000	-0.247948
	24.855000	-0.186704
	24.860000	-0.225384
	24.865000	-0.289852
	24.870000	-0.254395
	24.875000	-0.183481
	24.880000	-0.222161
	24.885000	-0.289852
	24.890000	-0.251171
	24.895000	-0.186704
	24.900000	-0.228608
	24.905000	-0.286628
	24.910000	-0.244725
	24.915000	-0.186704
	24.920000	-0.225384
	24.925000	-0.296298
	24.930000	-0.247948
	24.935000	-0.189927
	24.940000	-0.231831
	24.945000	-0.296298
	24.950000	-0.251171
	24.955000	-0.193151
	24.960000	-0.228608
	24.965000	-0.299522
	24.970000	-0.260841
	24.975000	-0.193151
	24.980000	-0.238278
	24.985000	-0.293075
	24.990000	-0.254395
	24.995000	-0.189927
	25.000000	-0.228608
	25.005000	-0.302745
	25.010000	-0.260841
	25.015000	-0.193151
	25.020000	-0.231831
	25.025000	-0.296298
	25.030000	-0.264065
	25.035000	-0.193151
	25.040000	-0.241501
	25.045000	-0.296298
	25.050000	-0.264065
	25.055000	-0.199597
	25.060000	-0.235054
	25.065000	-0.302745
	25.070000	-0.267288
	25.075000	-0.196374
	25.080000	-0.241501
	25.085000	-0.305968
	25.090000	-0.267288
	25.095000	-0.199597
	25.100000	-0.241501
	25.105000	-0.302745
	25.110000	-0.267288
	25.115000	-0.202821
	25.120000	-0.244725
	25.125000	-0.302745
	25.130000	-0.264065
	25.135000	-0.202821
	25.140000	-0.241501
	25.145000	-0.305968
	25.150000	-0.273735
	25.155000	-0.199597
	25.160000	-0.244725
	25.165000	-0.315638
	25.170000	-0.276958
	25.175000	-0.212491
	25.180000	-0.251171
	25.185000	-0.312415
	25.190000	-0.276958
	25.195000	-0.206044
	25.200000	-0.247948
	25.205000	-0.315638
	25.210000	-0.276958
	25.215000	-0.215714
	25.220000	-0.251171
	25.225000	-0.322085
	25.230000	-0.280181
	25.235000	-0.215714
	25.240000	-0.260841
	25.245000	-0.322085
	25.250000	-0.286628
	25.255000	-0.215714
	25.260000	-0.257618
	25.265000	-0.325308
	25.270000	-0.280181
	25.275000	-0.215714
	25.280000	-0.260841
	25.285000	-0.325308
	25.290000	-0.283405
	25.295000	-0.215714
	25.300000	-0.257618
	25.305000	-0.322085
	25.310000	-0.289852
	25.315000	-0.218938
	25.320000	-0.257618
	25.325000	-0.328532
	25.330000	-0.289852
	25.335000	-0.225384
	25.340000	-0.267288
	25.345000	-0.328532
	25.350000	-0.293075
	25.355000	-0.222161
	25.360000	-0.260841
	25.365000	-0.328532
	25.370000	-0.289852
	25.375000	-0.231831
	25.380000	-0.270511
	25.385000	-0.334979
	25.390000	-0.293075
	25.395000	-0.228608
	25.400000	-0.264065
	25.405000	-0.331755
	25.410000	-0.299522
	25.415000	-0.231831
	25.420000	-0.267288
	25.425000	-0.341425
	25.430000	-0.296298
	25.435000	-0.235054
	25.440000	-0.270511
	25.445000	-0.334979
	25.450000	-0.302745
	25.455000	-0.235054
	25.460000	-0.276958
	25.465000	-0.347872
	25.470000	-0.299522
	25.475000	-0.235054
	25.480000	-0.276958
	25.485000	-0.351095
	25.490000	-0.302745
	25.495000	-0.241501
	25.500000	-0.276958
	25.505000	-0.347872
	25.510000	-0.309192
	25.515000	-0.244725
	25.520000	-0.276958
	25.525000	-0.351095
	25.530000	-0.309192
	25.535000	-0.241501
	25.540000	-0.280181
	25.545000	-0.357542
	25.550000	-0.315638
	25.555000	-0.251171
	25.560000	-0.286628
	25.565000	-0.351095
	25.570000	-0.315638
	25.575000	-0.247948
	25.580000	-0.289852
	25.585000	-0.354319
	25.590000	-0.318862
	25.595000	-0.247948
	25.600000	-0.283405
	25.605000	-0.354319
	25.610000	-0.305968
	25.615000	-0.247948
	25.620000	-0.276958
	25.625000	-0.347872
	25.630000	-0.315638
	25.635000	-0.244725
	25.640000	-0.276958
	25.645000	-0.347872
	25.650000	-0.312415
	25.655000	-0.235054
	25.660000	-0.264065
	25.665000	-0.334979
	25.670000	-0.299522
	25.675000	-0.215714
	25.680000	-0.251171
	25.685000	-0.309192
	25.690000	-0.264065
	25.695000	-0.193151
	25.700000	-0.225384
	25.705000	-0.283405
	25.710000	-0.241501
	25.715000	-0.164141
	25.720000	-0.196374
	25.725000	-0.257618
	25.730000	-0.222161
	25.735000	-0.148024
	25.740000	-0.173811
	25.745000	-0.235054
	25.750000	-0.199597
	25.755000	-0.128684
	25.760000	-0.151247
	25.765000	-0.218938
	25.770000	-0.183481
	25.775000	-0.119014
	25.780000	-0.148024
	25.785000	-0.218938
	25.790000	-0.180257
	25.795000	-0.106120
	25.800000	-0.138354
	25.805000	-0.206044
	25.810000	-0.170587
	25.815000	-0.099673
	25.820000	-0.135130
	25.825000	-0.202821
	25.830000	-0.164141
	25.835000	-0.099673
	25.840000	-0.131907
	25.845000	-0.196374
	25.850000	-0.160917
	25.855000	-0.099673
	25.860000	-0.131907
	25.865000	-0.199597
	25.870000	-0.157694
	25.875000	-0.106120
	25.880000	-0.135130
	25.885000	-0.209268
	25.890000	-0.177034
	25.895000	-0.106120
	25.900000	-0.138354
	25.905000	-0.212491
	25.910000	-0.180257
	25.915000	-0.112567
	25.920000	-0.148024
	25.925000	-0.218938
	25.930000	-0.193151
	25.935000	-0.128684
	25.940000	-0.164141
	25.945000	-0.238278
	25.950000	-0.209268
	25.955000	-0.144800
	25.960000	-0.180257
	25.965000	-0.257618
	25.970000	-0.231831
	25.975000	-0.183481
	25.980000	-0.212491
	25.985000	-0.293075
	25.990000	-0.276958
	25.995000	-0.209268
	26.000000	-0.254395
	26.005000	-0.331755
	26.010000	-0.309192
	26.015000	-0.251171
	26.020000	-0.286628
	26.025000	-0.357542
	26.030000	-0.338202
	26.035000	-0.267288
	26.040000	-0.305968
	26.045000	-0.373659
	26.050000	-0.351095
	26.055000	-0.283405
	26.060000	-0.309192
	26.065000	-0.383329
	26.070000	-0.351095
	26.075000	-0.276958
	26.080000	-0.312415
	26.085000	-0.376882
	26.090000	-0.347872
	26.095000	-0.267288
	26.100000	-0.299522
	26.105000	-0.363989
	26.110000	-0.328532
	26.115000	-0.254395
	26.120000	-0.276958
	26.125000	-0.347872
	26.130000	-0.315638
	26.135000	-0.241501
	26.140000	-0.264065
	26.145000	-0.334979
	26.150000	-0.293075
	26.155000	-0.218938
	26.160000	-0.247948
	26.165000	-0.309192
	26.170000	-0.280181
	26.175000	-0.212491
	26.180000	-0.238278
	26.185000	-0.305968
	26.190000	-0.270511
	26.195000	-0.202821
	26.200000	-0.231831
	26.205000	-0.299522
	26.210000	-0.264065
	26.215000	-0.196374
	26.220000	-0.228608
	26.225000	-0.299522
	26.230000	-0.264065
	26.235000	-0.199597
	26.240000	-0.222161
	26.245000	-0.299522
	26.250000	-0.267288
	26.255000	-0.202821
	26.260000	-0.228608
	26.265000	-0.302745
	26.270000	-0.273735
	26.275000	-0.209268
	26.280000	-0.231831
	26.285000	-0.312415
	26.290000	-0.276958
	26.295000	-0.212491
	26.300000	-0.247948
	26.305000	-0.322085
	26.310000	-0.289852
	26.315000	-0.222161
	26.320000	-0.257618
	26.325000	-0.331755
	26.330000	-0.293075
	26.335000	-0.231831
	26.340000	-0.264065
	26.345000	-0.334979
	26.350000	-0.305968
	26.355000	-0.244725
	26.360000	-0.273735
	26.365000	-0.338202
	26.370000	-0.318862
	26.375000	-0.251171
	26.380000	-0.273735
	26.385000	-0.357542
	26.390000	-0.318862
	26.395000	-0.254395
	26.400000	-0.289852
	26.405000	-0.354319
	26.410000	-0.331755
	26.415000	-0.264065
	26.420000	-0.296298
	26.425000	-0.360765
	26.430000	-0.338202
	26.435000	-0.267288
	26.440000	-0.299522
	26.445000	-0.373659
	26.450000	-0.341425
	26.455000	-0.273735
	26.460000	-0.302745
	26.465000	-0.370436
	26.470000	-0.344649
	26.475000	-0.276958
	26.480000	-0.302745
	26.485000	-0.373659
	26.490000	-0.347872
	26.495000	-0.276958
	26.500000	-0.309192
	26.505000	-0.373659
	26.510000	-0.354319
	26.515000	-0.276958
	26.520000	-0.315638
	26.525000	-0.383329
	26.530000	-0.354319
	26.535000	-0.286628
	26.540000	-0.309192
	26.545000	-0.383329
	26.550000	-0.357542
	26.555000	-0.286628
	26.560000	-0.309192
	26.565000	-0.383329
	26.570000	-0.354319
	26.575000	-0.286628
	26.580000	-0.322085
	26.585000	-0.392999
	26.590000	-0.363989
	26.595000	-0.289852
	26.600000	-0.322085
	26.605000	-0.386552
	26.610000	-0.363989
	26.615000	-0.293075
	26.620000	-0.315638
	26.625000	-0.389776
	26.630000	-0.363989
	26.635000	-0.293075
	26.640000	-0.318862
	26.645000	-0.392999
	26.650000	-0.367212
	26.655000	-0.289852
	26.660000	-0.322085
	26.665000	-0.399446
	26.670000	-0.373659
	26.675000	-0.296298
	26.680000	-0.318862
	26.685000	-0.396222
	26.690000	-0.370436
	26.695000	-0.299522
	26.700000	-0.325308
	26.705000	-0.392999
	26.710000	-0.373659
	26.715000	-0.305968
	26.720000	-0.328532
	26.725000	-0.399446
	26.730000	-0.370436
	26.735000	-0.299522
	26.740000	-0.331755
	26.745000	-0.399446
	26.750000	-0.373659
	26.755000	-0.302745
	26.760000	-0.331755
	26.765000	-0.402669
	26.770000	-0.376882
	26.775000	-0.305968
	26.780000	-0.328532
	26.785000	-0.409116
	26.790000	-0.376882
	26.795000	-0.305968
	26.800000	-0.331755
	26.805000	-0.402669
	26.810000	-0.383329
	26.815000	-0.302745
	26.820000	-0.341425
	26.825000	-0.412339
	26.830000	-0.380106
	26.835000	-0.315638
	26.840000	-0.331755
	26.845000	-0.405892
	26.850000	-0.376882
	26.855000	-0.312415
	26.860000	-0.341425
	26.865000	-0.409116
	26.870000	-0.386552
	26.875000	-0.309192
	26.880000	-0.334979
	26.885000	-0.415563
	26.890000	-0.386552
	26.895000	-0.309192
	26.900000	-0.338202
	26.905000	-0.412339
	26.910000	-0.383329
	26.915000	-0.315638
	26.920000	-0.334979
	26.925000	-0.412339
	26.930000	-0.389776
	26.935000	-0.315638
	26.940000	-0.341425
	26.945000	-0.412339
	26.950000	-0.386552
	26.955000	-0.315638
	26.960000	-0.338202
	26.965000	-0.409116
	26.970000	-0.389776
	26.975000	-0.309192
	26.980000	-0.334979
	26.985000	-0.415563
	26.990000	-0.383329
	26.995000	-0.309192
	27.000000	-0.338202
	27.005000	-0.412339
	27.010000	-0.392999
	27.015000	-0.312415
	27.020000	-0.338202
	27.025000	-0.415563
	27.030000	-0.383329
	27.035000	-0.318862
	27.040000	-0.341425
	27.045000	-0.415563
	27.050000	-0.386552
	27.055000	-0.315638
	27.060000	-0.341425
	27.065000	-0.415563
	27.070000	-0.392999
	27.075000	-0.305968
	27.080000	-0.338202
	27.085000	-0.415563
	27.090000	-0.386552
	27.095000	-0.315638
	27.100000	-0.334979
	27.105000	-0.412339
	27.110000	-0.389776
	27.115000	-0.312415
	27.120000	-0.341425
	27.125000	-0.418786
	27.130000	-0.392999
	27.135000	-0.309192
	27.140000	-0.328532
	27.145000	-0.412339
	27.150000	-0.383329
	27.155000	-0.315638
	27.160000	-0.334979
	27.165000	-0.405892
	27.170000	-0.386552
	27.175000	-0.315638
	27.180000	-0.334979
	27.185000	-0.412339
	27.190000	-0.386552
	27.195000	-0.318862
	27.200000	-0.338202
	27.205000	-0.409116
	27.210000	-0.389776
	27.215000	-0.318862
	27.220000	-0.341425
	27.225000	-0.412339
	27.230000	-0.389776
	27.235000	-0.312415
	27.240000	-0.338202
	27.245000	-0.415563
	27.250000	-0.392999
	27.255000	-0.318862
	27.260000	-0.341425
	27.265000	-0.415563
	27.270000	-0.396222
	27.275000	-0.322085
	27.280000	-0.338202
	27.285000	-0.412339
	27.290000	-0.389776
	27.295000	-0.315638
	27.300000	-0.344649
	27.305000	-0.415563
	27.310000	-0.396222
	27.315000	-0.322085
	27.320000	-0.341425
	27.325000	-0.418786
	27.330000	-0.396222
	27.335000	-0.318862
	27.340000	-0.344649
	27.345000	-0.415563
	27.350000	-0.392999
	27.355000	-0.322085
	27.360000	-0.341425
	27.365000	-0.422009
	27.370000	-0.392999
	27.375000	-0.318862
	27.380000	-0.344649
	27.385000	-0.422009
	27.390000	-0.396222
	27.395000	-0.328532
	27.400000	-0.341425
	27.405000	-0.425233
	27.410000	-0.396222
	27.415000	-0.325308
	27.420000	-0.341425
	27.425000	-0.418786
	27.430000	-0.399446
	27.435000	-0.325308
	27.440000	-0.338202
	27.445000	-0.412339
	27.450000	-0.396222
	27.455000	-0.328532
	27.460000	-0.344649
	27.465000	-0.412339
	27.470000	-0.396222
	27.475000	-0.318862
	27.480000	-0.344649
	27.485000	-0.415563
	27.490000	-0.399446
	27.495000	-0.325308
	27.500000	-0.344649
	27.505000	-0.415563
	27.510000	-0.392999
	27.515000	-0.318862
	27.520000	-0.334979
	27.525000	-0.418786
	27.530000	-0.399446
	27.535000	-0.322085
	27.540000	-0.341425
	27.545000	-0.412339
	27.550000	-0.386552
	27.555000	-0.315638
	27.560000	-0.341425
	27.565000	-0.418786
	27.570000	-0.389776
	27.575000	-0.318862
	27.580000	-0.344649
	27.585000	-0.415563
	27.590000	-0.392999
	27.595000	-0.318862
	27.600000	-0.341425
	27.605000	-0.428456
	27.610000	-0.392999
	27.615000	-0.325308
	27.620000	-0.341425
	27.625000	-0.425233
	27.630000	-0.399446
	27.635000	-0.322085
	27.640000	-0.344649
	27.645000	-0.415563
	27.650000	-0.402669
	27.655000	-0.331755
	27.660000	-0.347872
	27.665000	-0.412339
	27.670000	-0.405892
	27.675000	-0.331755
	27.680000	-0.344649
	27.685000	-0.428456
	27.690000	-0.402669
	27.695000	-0.328532
	27.700000	-0.344649
	27.705000	-0.422009
	27.710000	-0.409116
	27.715000	-0.325308
	27.720000	-0.344649
	27.725000	-0.431679
	27.730000	-0.405892
	27.735000	-0.334979
	27.740000	-0.351095
	27.745000	-0.425233
	27.750000	-0.405892
	27.755000	-0.328532
	27.760000	-0.347872
	27.765000	-0.428456
	27.770000	-0.405892
	27.775000	-0.338202
	27.780000	-0.341425
	27.785000	-0.428456
	27.790000	-0.405892
	27.795000	-0.331755
	27.800000	-0.351095
	27.805000	-0.428456
	27.810000	-0.405892
	27.815000	-0.338202
	27.820000	-0.351095
	27.825000	-0.428456
	27.830000	-0.412339
	27.835000	-0.334979
	27.840000	-0.351095
	27.845000	-0.425233
	27.850000	-0.409116
	27.855000	-0.338202
	27.860000	-0.357542
	27.865000	-0.425233
	27.870000	-0.409116
	27.875000	-0.334979
	27.880000	-0.351095
	27.885000	-0.434903
	27.890000	-0.412339
	27.895000	-0.338202
	27.900000	-0.354319
	27.905000	-0.425233
	27.910000	-0.415563
	27.915000	-0.334979
	27.920000	-0.357542
	27.925000	-0.438126
	27.930000	-0.412339
	27.935000	-0.344649
	27.940000	-0.354319
	27.945000	-0.431679
	27.950000	-0.415563
	27.955000	-0.344649
	27.960000	-0.351095
	27.965000	-0.431679
	27.970000	-0.418786
	27.975000	-0.341425
	27.980000	-0.354319
	27.985000	-0.438126
	27.990000	-0.418786
	27.995000	-0.338202
	28.000000	-0.360765
	28.005000	-0.431679
	28.010000	-0.418786
	28.015000	-0.341425
	28.020000	-0.363989
	28.025000	-0.434903
	28.030000	-0.422009
	28.035000	-0.341425
	28.040000	-0.357542
	28.045000	-0.434903
	28.050000	-0.425233
	28.055000	-0.344649
	28.060000	-0.360765
	28.065000	-0.444573
	28.070000	-0.425233
	28.075000	-0.347872
	28.080000	-0.363989
	28.085000	-0.438126
	28.090000	-0.425233
	28.095000	-0.354319
	28.100000	-0.360765
	28.105000	-0.438126
	28.110000	-0.422009
	28.115000	-0.347872
	28.120000	-0.360765
	28.125000	-0.441349
	28.130000	-0.428456
	28.135000	-0.347872
	28.140000	-0.363989
	28.145000	-0.438126
	28.150000	-0.428456
	28.155000	-0.351095
	28.160000	-0.363989
	28.165000	-0.447796
	28.170000	-0.431679
	28.175000	-0.347872
	28.180000	-0.363989
	28.185000	-0.441349
	28.190000	-0.428456
	28.195000	-0.354319
	28.200000	-0.367212
	28.205000	-0.444573
	28.210000	-0.431679
	28.215000	-0.354319
	28.220000	-0.370436
	28.225000	-0.447796
	28.230000	-0.438126
	28.235000	-0.357542
	28.240000	-0.367212
	28.245000	-0.444573
	28.250000	-0.434903
	28.255000	-0.357542
	28.260000	-0.367212
	28.265000	-0.444573
	28.270000	-0.431679
	28.275000	-0.360765
	28.280000	-0.367212
	28.285000	-0.451019
	28.290000	-0.434903
	28.295000	-0.360765
	28.300000	-0.370436
	28.305000	-0.451019
	28.310000	-0.434903
	28.315000	-0.360765
	28.320000	-0.373659
	28.325000	-0.454243
	28.330000	-0.434903
	28.335000	-0.360765
	28.340000	-0.373659
	28.345000	-0.451019
	28.350000	-0.441349
	28.355000	-0.357542
	28.360000	-0.373659
	28.365000	-0.457466
	28.370000	-0.441349
	28.375000	-0.367212
	28.380000	-0.376882
	28.385000	-0.454243
	28.390000	-0.441349
	28.395000	-0.367212
	28.400000	-0.373659
	28.405000	-0.457466
	28.410000	-0.444573
	28.415000	-0.373659
	28.420000	-0.380106
	28.425000	-0.457466
	28.430000	-0.441349
	28.435000	-0.367212
	28.440000	-0.376882
	28.445000	-0.460690
	28.450000	-0.441349
	28.455000	-0.363989
	28.460000	-0.376882
	28.465000	-0.457466
	28.470000	-0.444573
	28.475000	-0.373659
	28.480000	-0.386552
	28.485000	-0.460690
	28.490000	-0.447796
	28.495000	-0.370436
	28.500000	-0.376882
	28.505000	-0.463913
	28.510000	-0.447796
	28.515000	-0.376882
	28.520000	-0.383329
	28.525000	-0.463913
	28.530000	-0.454243
	28.535000	-0.370436
	28.540000	-0.386552
	28.545000	-0.467136
	28.550000	-0.454243
	28.555000	-0.380106
	28.560000	-0.389776
	28.565000	-0.470360
	28.570000	-0.460690
	28.575000	-0.376882
	28.580000	-0.383329
	28.585000	-0.473583
	28.590000	-0.463913
	28.595000	-0.383329
	28.600000	-0.386552
	28.605000	-0.463913
	28.610000	-0.457466
	28.615000	-0.380106
	28.620000	-0.389776
	28.625000	-0.470360
	28.630000	-0.457466
	28.635000	-0.383329
	28.640000	-0.386552
	28.645000	-0.473583
	28.650000	-0.463913
	28.655000	-0.380106
	28.660000	-0.389776
	28.665000	-0.463913
	28.670000	-0.460690
	28.675000	-0.376882
	28.680000	-0.392999
	28.685000	-0.470360
	28.690000	-0.457466
	28.695000	-0.383329
	28.700000	-0.392999
	28.705000	-0.473583
	28.710000	-0.457466
	28.715000	-0.380106
	28.720000	-0.389776
	28.725000	-0.473583
	28.730000	-0.467136
	28.735000	-0.386552
	28.740000	-0.396222
	28.745000	-0.473583
	28.750000	-0.463913
	28.755000	-0.386552
	28.760000	-0.392999
	28.765000	-0.473583
	28.770000	-0.463913
	28.775000	-0.386552
	28.780000	-0.396222
	28.785000	-0.473583
	28.790000	-0.467136
	28.795000	-0.383329
	28.800000	-0.399446
	28.805000	-0.473583
	28.810000	-0.467136
	28.815000	-0.386552
	28.820000	-0.392999
	28.825000	-0.470360
	28.830000	-0.463913
	28.835000	-0.392999
	28.840000	-0.386552
	28.845000	-0.473583
	28.850000	-0.467136
	28.855000	-0.396222
	28.860000	-0.396222
	28.865000	-0.476806
	28.870000	-0.473583
	28.875000	-0.396222
	28.880000	-0.392999
	28.885000	-0.473583
	28.890000	-0.463913
	28.895000	-0.392999
	28.900000	-0.399446
	28.905000	-0.476806
	28.910000	-0.463913
	28.915000	-0.386552
	28.920000	-0.402669
	28.925000	-0.480030
	28.930000	-0.473583
	28.935000	-0.389776
	28.940000	-0.399446
	28.945000	-0.476806
	28.950000	-0.470360
	28.955000	-0.392999
	28.960000	-0.402669
	28.965000	-0.480030
	28.970000	-0.470360
	28.975000	-0.389776
	28.980000	-0.402669
	28.985000	-0.480030
	28.990000	-0.473583
	28.995000	-0.392999
	29.000000	-0.402669
	29.005000	-0.483253
	29.010000	-0.470360
	29.015000	-0.389776
	29.020000	-0.392999
	29.025000	-0.476806
	29.030000	-0.463913
	29.035000	-0.392999
	29.040000	-0.402669
	29.045000	-0.473583
	29.050000	-0.467136
	29.055000	-0.396222
	29.060000	-0.392999
	29.065000	-0.483253
	29.070000	-0.467136
	29.075000	-0.392999
	29.080000	-0.392999
	29.085000	-0.476806
	29.090000	-0.470360
	29.095000	-0.392999
	29.100000	-0.396222
	29.105000	-0.480030
	29.110000	-0.470360
	29.115000	-0.392999
	29.120000	-0.396222
	29.125000	-0.483253
	29.130000	-0.463913
	29.135000	-0.396222
	29.140000	-0.396222
	29.145000	-0.480030
	29.150000	-0.473583
	29.155000	-0.399446
	29.160000	-0.399446
	29.165000	-0.480030
	29.170000	-0.473583
	29.175000	-0.392999
	29.180000	-0.399446
	29.185000	-0.480030
	29.190000	-0.480030
	29.195000	-0.399446
	29.200000	-0.402669
	29.205000	-0.480030
	29.210000	-0.470360
	29.215000	-0.399446
	29.220000	-0.396222
	29.225000	-0.483253
	29.230000	-0.486476
	29.235000	-0.396222
	29.240000	-0.405892
	29.245000	-0.483253
	29.250000	-0.476806
	29.255000	-0.399446
	29.260000	-0.409116
	29.265000	-0.480030
	29.270000	-0.480030
	29.275000	-0.392999
	29.280000	-0.402669
	29.285000	-0.483253
	29.290000	-0.476806
	29.295000	-0.402669
	29.300000	-0.409116
	29.305000	-0.476806
	29.310000	-0.480030
	29.315000	-0.402669
	29.320000	-0.402669
	29.325000	-0.486476
	29.330000	-0.483253
	29.335000	-0.396222
	29.340000	-0.405892
	29.345000	-0.486476
	29.350000	-0.476806
	29.355000	-0.402669
	29.360000	-0.409116
	29.365000	-0.489700
	29.370000	-0.480030
	29.375000	-0.402669
	29.380000	-0.405892
	29.385000	-0.489700
	29.390000	-0.483253
	29.395000	-0.402669
	29.400000	-0.409116
	29.405000	-0.489700
	29.410000	-0.489700
	29.415000	-0.405892
	29.420000	-0.412339
	29.425000	-0.496147
	29.430000	-0.480030
	29.435000	-0.402669
	29.440000	-0.409116
	29.445000	-0.492923
	29.450000	-0.489700
	29.455000	-0.405892
	29.460000	-0.412339
	29.465000	-0.492923
	29.470000	-0.483253
	29.475000	-0.405892
	29.480000	-0.415563
	29.485000	-0.496147
	29.490000	-0.483253
	29.495000	-0.405892
	29.500000	-0.409116
	29.505000	-0.489700
	29.510000	-0.486476
	29.515000	-0.409116
	29.520000	-0.412339
	29.525000	-0.486476
	29.530000	-0.489700
	29.535000	-0.409116
	29.540000	-0.415563
	29.545000	-0.499370
	29.550000	-0.489700
	29.555000	-0.409116
	29.560000	-0.422009
	29.565000	-0.496147
	29.570000	-0.489700
	29.575000	-0.412339
	29.580000	-0.412339
	29.585000	-0.496147
	29.590000	-0.496147
	29.595000	-0.409116
	29.600000	-0.418786
	29.605000	-0.496147
	29.610000	-0.492923
	29.615000	-0.409116
	29.620000	-0.418786
	29.625000	-0.499370
	29.630000	-0.499370
	29.635000	-0.418786
	29.640000	-0.425233
	29.645000	-0.496147
	29.650000	-0.499370
	29.655000	-0.418786
	29.660000	-0.415563
	29.665000	-0.499370
	29.670000	-0.496147
	29.675000	-0.425233
	29.680000	-0.425233
	29.685000	-0.505817
	29.690000	-0.496147
	29.695000	-0.425233
	29.700000	-0.425233
	29.705000	-0.502593
	29.710000	-0.502593
	29.715000	-0.415563
	29.720000	-0.422009
	29.725000	-0.502593
	29.730000	-0.499370
	29.735000	-0.422009
	29.740000	-0.422009
	29.745000	-0.502593
	29.750000	-0.502593
	29.755000	-0.422009
	29.760000	-0.425233
	29.765000	-0.505817
	29.770000	-0.502593
	29.775000	-0.418786
	29.780000	-0.422009
	29.785000	-0.505817
	29.790000	-0.502593
	29.795000	-0.422009
	29.800000	-0.431679
	29.805000	-0.502593
	29.810000	-0.505817
	29.815000	-0.428456
	29.820000	-0.425233
	29.825000	-0.502593
	29.830000	-0.509040
	29.835000	-0.428456
	29.840000	-0.422009
	29.845000	-0.505817
	29.850000	-0.505817
	29.855000	-0.431679
	29.860000	-0.422009
	29.865000	-0.505817
	29.870000	-0.505817
	29.875000	-0.422009
	29.880000	-0.425233
	29.885000	-0.505817
	29.890000	-0.502593
	29.895000	-0.418786
	29.900000	-0.418786
	29.905000	-0.512263
	29.910000	-0.496147
	29.915000	-0.422009
	29.920000	-0.418786
	29.925000	-0.502593
	29.930000	-0.496147
	29.935000	-0.425233
	29.940000	-0.425233
	29.945000	-0.499370
	29.950000	-0.499370
	29.955000	-0.415563
	29.960000	-0.415563
	29.965000	-0.489700
	29.970000	-0.499370
	29.975000	-0.418786
	29.980000	-0.418786
	29.985000	-0.492923
	29.990000	-0.496147
	29.995000	-0.415563
	30.000000	-0.418786
	30.005000	-0.505817
	30.010000	-0.499370
	30.015000	-0.412339
	30.020000	-0.415563
	30.025000	-0.496147
	30.030000	-0.502593
	30.035000	-0.425233
	30.040000	-0.418786
	30.045000	-0.502593
	30.050000	-0.509040
	30.055000	-0.418786
	30.060000	-0.418786
	30.065000	-0.496147
	30.070000	-0.502593
	30.075000	-0.428456
	30.080000	-0.422009
	30.085000	-0.505817
	30.090000	-0.499370
	30.095000	-0.425233
	30.100000	-0.422009
	30.105000	-0.499370
	30.110000	-0.502593
	30.115000	-0.425233
	30.120000	-0.422009
	30.125000	-0.496147
	30.130000	-0.505817
	30.135000	-0.422009
	30.140000	-0.418786
	30.145000	-0.499370
	30.150000	-0.502593
	30.155000	-0.428456
	30.160000	-0.422009
	30.165000	-0.499370
	30.170000	-0.505817
	30.175000	-0.418786
	30.180000	-0.415563
	30.185000	-0.499370
	30.190000	-0.496147
	30.195000	-0.418786
	30.200000	-0.418786
	30.205000	-0.496147
	30.210000	-0.496147
	30.215000	-0.418786
	30.220000	-0.422009
	30.225000	-0.496147
	30.230000	-0.496147
	30.235000	-0.412339
	30.240000	-0.415563
	30.245000	-0.486476
	30.250000	-0.489700
	30.255000	-0.405892
	30.260000	-0.402669
	30.265000	-0.473583
	30.270000	-0.480030
	30.275000	-0.399446
	30.280000	-0.392999
	30.285000	-0.463913
	30.290000	-0.470360
	30.295000	-0.383329
	30.300000	-0.376882
	30.305000	-0.444573
	30.310000	-0.451019
	30.315000	-0.370436
	30.320000	-0.360765
	30.325000	-0.434903
	30.330000	-0.438126
	30.335000	-0.360765
	30.340000	-0.351095
	30.345000	-0.425233
	30.350000	-0.418786
	30.355000	-0.341425
	30.360000	-0.331755
	30.365000	-0.402669
	30.370000	-0.396222
	30.375000	-0.322085
	30.380000	-0.309192
	30.385000	-0.383329
	30.390000	-0.383329
	30.395000	-0.302745
	30.400000	-0.289852
	30.405000	-0.376882
	30.410000	-0.367212
	30.415000	-0.286628
	30.420000	-0.280181
	30.425000	-0.354319
	30.430000	-0.351095
	30.435000	-0.276958
	30.440000	-0.270511
	30.445000	-0.347872
	30.450000	-0.344649
	30.455000	-0.267288
	30.460000	-0.257618
	30.465000	-0.338202
	30.470000	-0.341425
	30.475000	-0.264065
	30.480000	-0.254395
	30.485000	-0.334979
	30.490000	-0.331755
	30.495000	-0.260841
	30.500000	-0.251171
	30.505000	-0.325308
	30.510000	-0.328532
	30.515000	-0.251171
	30.520000	-0.247948
	30.525000	-0.315638
	30.530000	-0.328532
	30.535000	-0.244725
	30.540000	-0.241501
	30.545000	-0.312415
	30.550000	-0.318862
	30.555000	-0.247948
	30.560000	-0.235054
	30.565000	-0.318862
	30.570000	-0.318862
	30.575000	-0.241501
	30.580000	-0.238278
	30.585000	-0.312415
	30.590000	-0.322085
	30.595000	-0.247948
	30.600000	-0.235054
	30.605000	-0.315638
	30.610000	-0.322085
	30.615000	-0.251171
	30.620000	-0.244725
	30.625000	-0.322085
	30.630000	-0.328532
	30.635000	-0.254395
	30.640000	-0.247948
	30.645000	-0.325308
	30.650000	-0.325308
	30.655000	-0.254395
	30.660000	-0.257618
	30.665000	-0.338202
	30.670000	-0.338202
	30.675000	-0.270511
	30.680000	-0.254395
	30.685000	-0.341425
	30.690000	-0.351095
	30.695000	-0.273735
	30.700000	-0.273735
	30.705000	-0.354319
	30.710000	-0.363989
	30.715000	-0.296298
	30.720000	-0.289852
	30.725000	-0.373659
	30.730000	-0.380106
	30.735000	-0.312415
	30.740000	-0.309192
	30.745000	-0.392999
	30.750000	-0.392999
	30.755000	-0.331755
	30.760000	-0.325308
	30.765000	-0.412339
	30.770000	-0.418786
	30.775000	-0.347872
	30.780000	-0.351095
	30.785000	-0.428456
	30.790000	-0.431679
	30.795000	-0.370436
	30.800000	-0.367212
	30.805000	-0.454243
	30.810000	-0.460690
	30.815000	-0.396222
	30.820000	-0.389776
	30.825000	-0.470360
	30.830000	-0.480030
	30.835000	-0.399446
	30.840000	-0.392999
	30.845000	-0.480030
	30.850000	-0.486476
	30.855000	-0.405892
	30.860000	-0.402669
	30.865000	-0.476806
	30.870000	-0.483253
	30.875000	-0.402669
	30.880000	-0.396222
	30.885000	-0.470360
	30.890000	-0.480030
	30.895000	-0.389776
	30.900000	-0.380106
	30.905000	-0.457466
	30.910000	-0.463913
	30.915000	-0.380106
	30.920000	-0.370436
	30.925000	-0.441349
	30.930000	-0.444573
	30.935000	-0.370436
	30.940000	-0.363989
	30.945000	-0.428456
	30.950000	-0.441349
	30.955000	-0.367212
	30.960000	-0.360765
	30.965000	-0.434903
	30.970000	-0.434903
	30.975000	-0.360765
	30.980000	-0.360765
	30.985000	-0.438126
	30.990000	-0.444573
	30.995000	-0.376882
	31.000000	-0.367212
	31.005000	-0.441349
	31.010000	-0.457466
	31.015000	-0.383329
	31.020000	-0.383329
	31.025000	-0.454243
	31.030000	-0.467136
	31.035000	-0.396222
	31.040000	-0.389776
	31.045000	-0.463913
	31.050000	-0.480030
	31.055000	-0.402669
	31.060000	-0.402669
	31.065000	-0.480030
	31.070000	-0.489700
	31.075000	-0.415563
	31.080000	-0.405892
	31.085000	-0.486476
	31.090000	-0.492923
	31.095000	-0.428456
	31.100000	-0.415563
	31.105000	-0.499370
	31.110000	-0.515487
	31.115000	-0.441349
	31.120000	-0.431679
	31.125000	-0.505817
	31.130000	-0.515487
	31.135000	-0.444573
	31.140000	-0.434903
	31.145000	-0.525157
	31.150000	-0.525157
	31.155000	-0.447796
	31.160000	-0.438126
	31.165000	-0.525157
	31.170000	-0.525157
	31.175000	-0.460690
	31.180000	-0.451019
	31.185000	-0.534827
	31.190000	-0.534827
	31.195000	-0.467136
	31.200000	-0.454243
	31.205000	-0.531603
	31.210000	-0.541274
	31.215000	-0.470360
	31.220000	-0.463913
	31.225000	-0.541274
	31.230000	-0.547720
	31.235000	-0.476806
	31.240000	-0.463913
	31.245000	-0.547720
	31.250000	-0.554167
	31.255000	-0.480030
	31.260000	-0.476806
	31.265000	-0.544497
	31.270000	-0.557390
	31.275000	-0.486476
	31.280000	-0.480030
	31.285000	-0.550944
	31.290000	-0.563837
	31.295000	-0.480030
	31.300000	-0.473583
	31.305000	-0.554167
	31.310000	-0.563837
	31.315000	-0.496147
	31.320000	-0.480030
	31.325000	-0.547720
	31.330000	-0.567060
	31.335000	-0.489700
	31.340000	-0.473583
	31.345000	-0.557390
	31.350000	-0.563837
	31.355000	-0.489700
	31.360000	-0.476806
	31.365000	-0.557390
	31.370000	-0.567060
	31.375000	-0.499370
	31.380000	-0.486476
	31.385000	-0.557390
	31.390000	-0.573507
	31.395000	-0.499370
	31.400000	-0.486476
	31.405000	-0.563837
	31.410000	-0.573507
	31.415000	-0.499370
	31.420000	-0.489700
	31.425000	-0.567060
	31.430000	-0.573507
	31.435000	-0.502593
	31.440000	-0.489700
	31.445000	-0.567060
	31.450000	-0.583177
	31.455000	-0.499370
	31.460000	-0.499370
	31.465000	-0.567060
	31.470000	-0.583177
	31.475000	-0.505817
	31.480000	-0.492923
	31.485000	-0.573507
	31.490000	-0.576730
	31.495000	-0.499370
	31.500000	-0.496147
	31.505000	-0.567060
	31.510000	-0.586401
	31.515000	-0.509040
	31.520000	-0.496147
	31.525000	-0.570284
	31.530000	-0.576730
	31.535000	-0.509040
	31.540000	-0.496147
	31.545000	-0.573507
	31.550000	-0.586401
	31.555000	-0.505817
	31.560000	-0.499370
	31.565000	-0.573507
	31.570000	-0.579954
	31.575000	-0.509040
	31.580000	-0.496147
	31.585000	-0.579954
	31.590000	-0.589624
	31.595000	-0.509040
	31.600000	-0.499370
	31.605000	-0.576730
	31.610000	-0.579954
	31.615000	-0.505817
	31.620000	-0.502593
	31.625000	-0.573507
	31.630000	-0.592847
	31.635000	-0.509040
	31.640000	-0.496147
	31.645000	-0.570284
	31.650000	-0.583177
	31.655000	-0.515487
	31.660000	-0.502593
	31.665000	-0.573507
	31.670000	-0.589624
	31.675000	-0.505817
	31.680000	-0.502593
	31.685000	-0.583177
	31.690000	-0.583177
	31.695000	-0.515487
	31.700000	-0.499370
	31.705000	-0.579954
	31.710000	-0.592847
	31.715000	-0.515487
	31.720000	-0.499370
	31.725000	-0.576730
	31.730000	-0.592847
	31.735000	-0.512263
	31.740000	-0.502593
	31.745000	-0.576730
	31.750000	-0.589624
	31.755000	-0.512263
	31.760000	-0.496147
	31.765000	-0.576730
	31.770000	-0.589624
	31.775000	-0.512263
	31.780000	-0.502593
	31.785000	-0.579954
	31.790000	-0.592847
	31.795000	-0.515487
	31.800000	-0.509040
	31.805000	-0.573507
	31.810000	-0.592847
	31.815000	-0.509040
	31.820000	-0.499370
	31.825000	-0.573507
	31.830000	-0.583177
	31.835000	-0.509040
	31.840000	-0.499370
	31.845000	-0.573507
	31.850000	-0.589624
	31.855000	-0.512263
	31.860000	-0.496147
	31.865000	-0.573507
	31.870000	-0.589624
	31.875000	-0.505817
	31.880000	-0.496147
	31.885000	-0.573507
	31.890000	-0.592847
	31.895000	-0.512263
	31.900000	-0.499370
	31.905000	-0.576730
	31.910000	-0.589624
	31.915000	-0.509040
	31.920000	-0.496147
	31.925000	-0.576730
	31.930000	-0.586401
	31.935000	-0.512263
	31.940000	-0.492923
	31.945000	-0.567060
	31.950000	-0.583177
	31.955000	-0.515487
	31.960000	-0.492923
	31.965000	-0.573507
	31.970000	-0.583177
	31.975000	-0.512263
	31.980000	-0.496147
	31.985000	-0.576730
	31.990000	-0.586401
	31.995000	-0.509040
	32.000000	-0.496147
	32.005000	-0.570284
	32.010000	-0.583177
	32.015000	-0.515487
	32.020000	-0.496147
	32.025000	-0.573507
	32.030000	-0.589624
	32.035000	-0.512263
	32.040000	-0.496147
	32.045000	-0.576730
	32.050000	-0.583177
	32.055000	-0.515487
	32.060000	-0.502593
	32.065000	-0.576730
	32.070000	-0.592847
	32.075000	-0.518710
	32.080000	-0.499370
	32.085000	-0.576730
	32.090000	-0.592847
	32.095000	-0.512263
	32.100000	-0.499370
	32.105000	-0.579954
	32.110000	-0.586401
	32.115000	-0.521933
	32.120000	-0.496147
	32.125000	-0.579954
	32.130000	-0.589624
	32.135000	-0.515487
	32.140000	-0.499370
	32.145000	-0.579954
	32.150000	-0.599294
	32.155000	-0.518710
	32.160000	-0.502593
	32.165000	-0.583177
	32.170000	-0.596071
	32.175000	-0.515487
	32.180000	-0.505817
	32.185000	-0.583177
	32.190000	-0.592847
	32.195000	-0.521933
	32.200000	-0.505817
	32.205000	-0.579954
	32.210000	-0.592847
	32.215000	-0.528380
	32.220000	-0.505817
	32.225000	-0.576730
	32.230000	-0.602517
	32.235000	-0.521933
	32.240000	-0.509040
	32.245000	-0.586401
	32.250000	-0.596071
	32.255000	-0.525157
	32.260000	-0.512263
	32.265000	-0.586401
	32.270000	-0.602517
	32.275000	-0.525157
	32.280000	-0.509040
	32.285000	-0.583177
	32.290000	-0.602517
	32.295000	-0.528380
	32.300000	-0.505817
	32.305000	-0.592847
	32.310000	-0.602517
	32.315000	-0.525157
	32.320000	-0.509040
	32.325000	-0.592847
	32.330000	-0.608964
	32.335000	-0.528380
	32.340000	-0.509040
	32.345000	-0.592847
	32.350000	-0.605741
	32.355000	-0.521933
	32.360000	-0.512263
	32.365000	-0.596071
	32.370000	-0.602517
	32.375000	-0.534827
	32.380000	-0.518710
	32.385000	-0.592847
	32.390000	-0.608964
	32.395000	-0.538050
	32.400000	-0.518710
	32.405000	-0.586401
	32.410000	-0.605741
	32.415000	-0.538050
	32.420000	-0.521933
	32.425000	-0.592847
	32.430000	-0.608964
	32.435000	-0.531603
	32.440000	-0.518710
	32.445000	-0.592847
	32.450000	-0.612187
	32.455000	-0.534827
	32.460000	-0.515487
	32.465000	-0.592847
	32.470000	-0.608964
	32.475000	-0.531603
	32.480000	-0.521933
	32.485000	-0.592847
	32.490000	-0.615411
	32.495000	-0.534827
	32.500000	-0.521933
	32.505000	-0.596071
	32.510000	-0.615411
	32.515000	-0.531603
	32.520000	-0.521933
	32.525000	-0.602517
	32.530000	-0.615411
	32.535000	-0.538050
	32.540000	-0.518710
	32.545000	-0.596071
	32.550000	-0.612187
	32.555000	-0.538050
	32.560000	-0.518710
	32.565000	-0.592847
	32.570000	-0.612187
	32.575000	-0.538050
	32.580000	-0.515487
	32.585000	-0.596071
	32.590000	-0.612187
	32.595000	-0.534827
	32.600000	-0.525157
	32.605000	-0.599294
	32.610000	-0.618634
	32.615000	-0.541274
	32.620000	-0.518710
	32.625000	-0.599294
	32.630000	-0.615411
	32.635000	-0.534827
	32.640000	-0.518710
	32.645000	-0.596071
	32.650000	-0.608964
	32.655000	-0.538050
	32.660000	-0.521933
	32.665000	-0.592847
	32.670000	-0.608964
	32.675000	-0.541274
	32.680000	-0.518710
	32.685000	-0.596071
	32.690000	-0.608964
	32.695000	-0.534827
	32.700000	-0.518710
	32.705000	-0.602517
	32.710000	-0.612187
	32.715000	-0.538050
	32.720000	-0.521933
	32.725000	-0.592847
	32.730000	-0.618634
	32.735000	-0.541274
	32.740000	-0.518710
	32.745000	-0.599294
	32.750000	-0.612187
	32.755000	-0.541274
	32.760000	-0.521933
	32.765000	-0.596071
	32.770000	-0.618634
	32.775000	-0.538050
	32.780000	-0.521933
	32.785000	-0.592847
	32.790000	-0.618634
	32.795000	-0.538050
	32.800000	-0.525157
	32.805000	-0.592847
	32.810000	-0.615411
	32.815000	-0.544497
	32.820000	-0.521933
	32.825000	-0.605741
	32.830000	-0.615411
	32.835000	-0.544497
	32.840000	-0.518710
	32.845000	-0.602517
	32.850000	-0.618634
	32.855000	-0.544497
	32.860000	-0.525157
	32.865000	-0.599294
	32.870000	-0.621858
	32.875000	-0.547720
	32.880000	-0.528380
	32.885000	-0.599294
	32.890000	-0.615411
	32.895000	-0.544497
	32.900000	-0.525157
	32.905000	-0.602517
	32.910000	-0.618634
	32.915000	-0.541274
	32.920000	-0.528380
	32.925000	-0.608964
	32.930000	-0.621858
	32.935000	-0.544497
	32.940000	-0.521933
	32.945000	-0.605741
	32.950000	-0.625081
	32.955000	-0.547720
	32.960000	-0.531603
	32.965000	-0.602517
	32.970000	-0.621858
	32.975000	-0.547720
	32.980000	-0.528380
	32.985000	-0.605741
	32.990000	-0.625081
	32.995000	-0.550944
	33.000000	-0.528380
	33.005000	-0.608964
	33.010000	-0.621858
	33.015000	-0.547720
	33.020000	-0.531603
	33.025000	-0.605741
	33.030000	-0.625081
	33.035000	-0.554167
	33.040000	-0.531603
	33.045000	-0.605741
	33.050000	-0.621858
	33.055000	-0.550944
	33.060000	-0.528380
	33.065000	-0.608964
	33.070000	-0.628304
	33.075000	-0.554167
	33.080000	-0.538050
	33.085000	-0.615411
	33.090000	-0.621858
	33.095000	-0.554167
	33.100000	-0.534827
	33.105000	-0.608964
	33.110000	-0.628304
	33.115000	-0.547720
	33.120000	-0.528380
	33.125000	-0.612187
	33.130000	-0.625081
	33.135000	-0.550944
	33.140000	-0.538050
	33.145000	-0.612187
	33.150000	-0.631528
	33.155000	-0.560614
	33.160000	-0.534827
	33.165000	-0.605741
	33.170000	-0.625081
	33.175000	-0.554167
	33.180000	-0.534827
	33.185000	-0.608964
	33.190000	-0.631528
	33.195000	-0.554167
	33.200000	-0.541274
	33.205000	-0.605741
	33.210000	-0.631528
	33.215000	-0.554167
	33.220000	-0.534827
	33.225000	-0.612187
	33.230000	-0.631528
	33.235000	-0.554167
	33.240000	-0.534827
	33.245000	-0.615411
	33.250000	-0.634751
	33.255000	-0.557390
	33.260000	-0.541274
	33.265000	-0.618634
	33.270000	-0.634751
	33.275000	-0.563837
	33.280000	-0.541274
	33.285000	-0.615411
	33.290000	-0.631528
	33.295000	-0.560614
	33.300000	-0.541274
	33.305000	-0.618634
	33.310000	-0.625081
	33.315000	-0.557390
	33.320000	-0.541274
	33.325000	-0.615411
	33.330000	-0.631528
	33.335000	-0.560614
	33.340000	-0.538050
	33.345000	-0.618634
	33.350000	-0.637974
	33.355000	-0.563837
	33.360000	-0.541274
	33.365000	-0.618634
	33.370000	-0.641198
	33.375000	-0.567060
	33.380000	-0.541274
	33.385000	-0.621858
	33.390000	-0.641198
	33.395000	-0.563837
	33.400000	-0.547720
	33.405000	-0.618634
	33.410000	-0.641198
	33.415000	-0.567060
	33.420000	-0.547720
	33.425000	-0.618634
	33.430000	-0.637974
	33.435000	-0.563837
	33.440000	-0.547720
	33.445000	-0.621858
	33.450000	-0.637974
	33.455000	-0.567060
	33.460000	-0.544497
	33.465000	-0.618634
	33.470000	-0.641198
	33.475000	-0.557390
	33.480000	-0.541274
	33.485000	-0.621858
	33.490000	-0.641198
	33.495000	-0.563837
	33.500000	-0.544497
	33.505000	-0.621858
	33.510000	-0.637974
	33.515000	-0.557390
	33.520000	-0.541274
	33.525000	-0.615411
	33.530000	-0.634751
	33.535000	-0.567060
	33.540000	-0.544497
	33.545000	-0.625081
	33.550000	-0.641198
	33.555000	-0.567060
	33.560000	-0.547720
	33.565000	-0.615411
	33.570000	-0.644421
	33.575000	-0.563837
	33.580000	-0.547720
	33.585000	-0.618634
	33.590000	-0.637974
	33.595000	-0.567060
	33.600000	-0.547720
	33.605000	-0.625081
	33.610000	-0.650868
	33.615000	-0.570284
	33.620000	-0.544497
	33.625000	-0.621858
	33.630000	-0.647644
	33.635000	-0.573507
	33.640000	-0.547720
	33.645000	-0.628304
	33.650000	-0.644421
	33.655000	-0.570284
	33.660000	-0.544497
	33.665000	-0.621858
	33.670000	-0.647644
	33.675000	-0.573507
	33.680000	-0.554167
	33.685000	-0.625081
	33.690000	-0.644421
	33.695000	-0.567060
	33.700000	-0.554167
	33.705000	-0.625081
	33.710000	-0.654091
	33.715000	-0.576730
	33.720000	-0.547720
	33.725000	-0.625081
	33.730000	-0.650868
	33.735000	-0.573507
	33.740000	-0.557390
	33.745000	-0.625081
	33.750000	-0.650868
	33.755000	-0.573507
	33.760000	-0.554167
	33.765000	-0.625081
	33.770000	-0.654091
	33.775000	-0.579954
	33.780000	-0.560614
	33.785000	-0.628304
	33.790000	-0.654091
	33.795000	-0.579954
	33.800000	-0.557390
	33.805000	-0.631528
	33.810000	-0.654091
	33.815000	-0.576730
	33.820000	-0.554167
	33.825000	-0.631528
	33.830000	-0.660538
	33.835000	-0.573507
	33.840000	-0.560614
	33.845000	-0.634751
	33.850000	-0.657314
	33.855000	-0.579954
	33.860000	-0.563837
	33.865000	-0.634751
	33.870000	-0.657314
	33.875000	-0.576730
	33.880000	-0.560614
	33.885000	-0.634751
	33.890000	-0.660538
	33.895000	-0.579954
	33.900000	-0.563837
	33.905000	-0.634751
	33.910000	-0.660538
	33.915000	-0.589624
	33.920000	-0.560614
	33.925000	-0.637974
	33.930000	-0.654091
	33.935000	-0.583177
	33.940000	-0.560614
	33.945000	-0.634751
	33.950000	-0.657314
	33.955000	-0.589624
	33.960000	-0.567060
	33.965000	-0.634751
	33.970000	-0.663761
	33.975000	-0.583177
	33.980000	-0.567060
	33.985000	-0.634751
	33.990000	-0.660538
	33.995000	-0.589624
	34.000000	-0.567060
	34.005000	-0.644421
	34.010000	-0.660538
	34.015000	-0.583177
	34.020000	-0.563837
	34.025000	-0.644421
	34.030000	-0.660538
	34.035000	-0.583177
	34.040000	-0.557390
	34.045000	-0.641198
	34.050000	-0.663761
	34.055000	-0.589624
	34.060000	-0.567060
	34.065000	-0.637974
	34.070000	-0.663761
	34.075000	-0.592847
	34.080000	-0.567060
	34.085000	-0.641198
	34.090000	-0.666985
	34.095000	-0.596071
	34.100000	-0.567060
	34.105000	-0.641198
	34.110000	-0.666985
	34.115000	-0.596071
	34.120000	-0.570284
	34.125000	-0.644421
	34.130000	-0.670208
	34.135000	-0.589624
	34.140000	-0.563837
	34.145000	-0.647644
	34.150000	-0.666985
	34.155000	-0.592847
	34.160000	-0.570284
	34.165000	-0.641198
	34.170000	-0.663761
	34.175000	-0.592847
	34.180000	-0.570284
	34.185000	-0.647644
	34.190000	-0.666985
	34.195000	-0.592847
	34.200000	-0.573507
	34.205000	-0.644421
	34.210000	-0.666985
	34.215000	-0.592847
	34.220000	-0.573507
	34.225000	-0.644421
	34.230000	-0.673431
	34.235000	-0.596071
	34.240000	-0.570284
	34.245000	-0.650868
	34.250000	-0.670208
	34.255000	-0.592847
	34.260000	-0.570284
	34.265000	-0.647644
	34.270000	-0.670208
	34.275000	-0.596071
	34.280000	-0.576730
	34.285000	-0.647644
	34.290000	-0.670208
	34.295000	-0.599294
	34.300000	-0.570284
	34.305000	-0.644421
	34.310000	-0.670208
	34.315000	-0.599294
	34.320000	-0.576730
	34.325000	-0.644421
	34.330000	-0.673431
	34.335000	-0.592847
	34.340000	-0.570284
	34.345000	-0.637974
	34.350000	-0.663761
	34.355000	-0.599294
	34.360000	-0.567060
	34.365000	-0.644421
	34.370000	-0.666985
	34.375000	-0.599294
	34.380000	-0.567060
	34.385000	-0.641198
	34.390000	-0.663761
	34.395000	-0.592847
	34.400000	-0.573507
	34.405000	-0.644421
	34.410000	-0.670208
	34.415000	-0.592847
	34.420000	-0.563837
	34.425000	-0.641198
	34.430000	-0.666985
	34.435000	-0.596071
	34.440000	-0.563837
	34.445000	-0.644421
	34.450000	-0.666985
	34.455000	-0.592847
	34.460000	-0.567060
	34.465000	-0.644421
	34.470000	-0.670208
	34.475000	-0.596071
	34.480000	-0.570284
	34.485000	-0.641198
	34.490000	-0.663761
	34.495000	-0.596071
	34.500000	-0.567060
	34.505000	-0.637974
	34.510000	-0.660538
	34.515000	-0.596071
	34.520000	-0.570284
	34.525000	-0.647644
	34.530000	-0.663761
	34.535000	-0.592847
	34.540000	-0.573507
	34.545000	-0.644421
	34.550000	-0.670208
	34.555000	-0.592847
	34.560000	-0.570284
	34.565000	-0.644421
	34.570000	-0.663761
	34.575000	-0.599294
	34.580000	-0.567060
	34.585000	-0.644421
	34.590000	-0.666985
	34.595000	-0.599294
	34.600000	-0.570284
	34.605000	-0.637974
	34.610000	-0.670208
	34.615000	-0.599294
	34.620000	-0.573507
	34.625000	-0.647644
	34.630000	-0.666985
	34.635000	-0.596071
	34.640000	-0.567060
	34.645000	-0.650868
	34.650000	-0.670208
	34.655000	-0.602517
	34.660000	-0.573507
	34.665000	-0.647644
	34.670000	-0.666985
	34.675000	-0.596071
	34.680000	-0.570284
	34.685000	-0.641198
	34.690000	-0.670208
	34.695000	-0.602517
	34.700000	-0.573507
	34.705000	-0.647644
	34.710000	-0.673431
	34.715000	-0.599294
	34.720000	-0.573507
	34.725000	-0.650868
	34.730000	-0.673431
	34.735000	-0.602517
	34.740000	-0.570284
	34.745000	-0.650868
	34.750000	-0.673431
	34.755000	-0.602517
	34.760000	-0.576730
	34.765000	-0.644421
	34.770000	-0.673431
	34.775000	-0.605741
	34.780000	-0.573507
	34.785000	-0.654091
	34.790000	-0.673431
	34.795000	-0.602517
	34.800000	-0.573507
	34.805000	-0.654091
	34.810000	-0.683101
	34.815000	-0.602517
	34.820000	-0.573507
	34.825000	-0.650868
	34.830000	-0.670208
	34.835000	-0.599294
	34.840000	-0.573507
	34.845000	-0.650868
	34.850000	-0.673431
	34.855000	-0.592847
	34.860000	-0.567060
	34.865000	-0.654091
	34.870000	-0.670208
	34.875000	-0.592847
	34.880000	-0.563837
	34.885000	-0.641198
	34.890000	-0.657314
	34.895000	-0.579954
	34.900000	-0.554167
	34.905000	-0.618634
	34.910000	-0.637974
	34.915000	-0.563837
	34.920000	-0.531603
	34.925000	-0.602517
	34.930000	-0.621858
	34.935000	-0.547720
	34.940000	-0.515487
	34.945000	-0.579954
	34.950000	-0.608964
	34.955000	-0.534827
	34.960000	-0.505817
	34.965000	-0.573507
	34.970000	-0.596071
	34.975000	-0.528380
	34.980000	-0.486476
	34.985000	-0.560614
	34.990000	-0.589624
	34.995000	-0.505817
	35.000000	-0.473583
	35.005000	-0.538050
	35.010000	-0.570284
	35.015000	-0.489700
	35.020000	-0.460690
	35.025000	-0.528380
	35.030000	-0.547720
	35.035000	-0.480030
	35.040000	-0.444573
	35.045000	-0.515487
	35.050000	-0.534827
	35.055000	-0.463913
	35.060000	-0.444573
	35.065000	-0.512263
	35.070000	-0.528380
	35.075000	-0.457466
	35.080000	-0.431679
	35.085000	-0.496147
	35.090000	-0.521933
	35.095000	-0.444573
	35.100000	-0.428456
	35.105000	-0.496147
	35.110000	-0.518710
	35.115000	-0.447796
	35.120000	-0.425233
	35.125000	-0.492923
	35.130000	-0.518710
	35.135000	-0.451019
	35.140000	-0.415563
	35.145000	-0.486476
	35.150000	-0.509040
	35.155000	-0.444573
	35.160000	-0.418786
	35.165000	-0.489700
	35.170000	-0.518710
	35.175000	-0.447796
	35.180000	-0.422009
	35.185000	-0.492923
	35.190000	-0.521933
	35.195000	-0.447796
	35.200000	-0.425233
	35.205000	-0.499370
	35.210000	-0.525157
	35.215000	-0.451019
	35.220000	-0.428456
	35.225000	-0.502593
	35.230000	-0.528380
	35.235000	-0.454243
	35.240000	-0.431679
	35.245000	-0.499370
	35.250000	-0.534827
	35.255000	-0.467136
	35.260000	-0.444573
	35.265000	-0.512263
	35.270000	-0.544497
	35.275000	-0.470360
	35.280000	-0.451019
	35.285000	-0.534827
	35.290000	-0.550944
	35.295000	-0.483253
	35.300000	-0.460690
	35.305000	-0.534827
	35.310000	-0.567060
	35.315000	-0.496147
	35.320000	-0.470360
	35.325000	-0.560614
	35.330000	-0.586401
	35.335000	-0.531603
	35.340000	-0.499370
	35.345000	-0.583177
	35.350000	-0.615411
	35.355000	-0.554167
	35.360000	-0.538050
	35.365000	-0.618634
	35.370000	-0.654091
	35.375000	-0.583177
	35.380000	-0.573507
	35.385000	-0.644421
	35.390000	-0.683101
	35.395000	-0.612187
	35.400000	-0.592847
	35.405000	-0.663761
	35.410000	-0.692771
	35.415000	-0.628304
	35.420000	-0.605741
	35.425000	-0.676655
	35.430000	-0.699218
	35.435000	-0.625081
	35.440000	-0.602517
	35.445000	-0.670208
	35.450000	-0.699218
	35.455000	-0.615411
	35.460000	-0.599294
	35.465000	-0.657314
	35.470000	-0.683101
	35.475000	-0.612187
	35.480000	-0.583177
	35.485000	-0.650868
	35.490000	-0.673431
	35.495000	-0.599294
	35.500000	-0.573507
	35.505000	-0.637974
	35.510000	-0.660538
	35.515000	-0.586401
	35.520000	-0.557390
	35.525000	-0.621858
	35.530000	-0.650868
	35.535000	-0.567060
	35.540000	-0.544497
	35.545000	-0.618634
	35.550000	-0.637974
	35.555000	-0.567060
	35.560000	-0.541274
	35.565000	-0.602517
	35.570000	-0.634751
	35.575000	-0.560614
	35.580000	-0.538050
	35.585000	-0.615411
	35.590000	-0.628304
	35.595000	-0.573507
	35.600000	-0.541274
	35.605000	-0.612187
	35.610000	-0.634751
	35.615000	-0.573507
	35.620000	-0.547720
	35.625000	-0.618634
	35.630000	-0.647644
	35.635000	-0.579954
	35.640000	-0.547720
	35.645000	-0.625081
	35.650000	-0.654091
	35.655000	-0.589624
	35.660000	-0.560614
	35.665000	-0.628304
	35.670000	-0.660538
	35.675000	-0.592847
	35.680000	-0.567060
	35.685000	-0.644421
	35.690000	-0.673431
	35.695000	-0.602517
	35.700000	-0.576730
	35.705000	-0.654091
	35.710000	-0.676655
	35.715000	-0.612187
	35.720000	-0.586401
	35.725000	-0.660538
	35.730000	-0.683101
	35.735000	-0.618634
	35.740000	-0.592847
	35.745000	-0.666985
	35.750000	-0.692771
	35.755000	-0.628304
	35.760000	-0.596071
	35.765000	-0.676655
	35.770000	-0.705665
	35.775000	-0.631528
	35.780000	-0.608964
	35.785000	-0.683101
	35.790000	-0.708888
	35.795000	-0.637974
	35.800000	-0.608964
	35.805000	-0.683101
	35.810000	-0.708888
	35.815000	-0.644421
	35.820000	-0.618634
	35.825000	-0.692771
	35.830000	-0.721782
	35.835000	-0.644421
	35.840000	-0.625081
	35.845000	-0.679878
	35.850000	-0.721782
	35.855000	-0.647644
	35.860000	-0.628304
	35.865000	-0.699218
	35.870000	-0.725005
	35.875000	-0.657314
	35.880000	-0.628304
	35.885000	-0.708888
	35.890000	-0.725005
	35.895000	-0.663761
	35.900000	-0.637974
	35.905000	-0.705665
	35.910000	-0.731452
	35.915000	-0.670208
	35.920000	-0.637974
	35.925000	-0.712112
	35.930000	-0.734675
	35.935000	-0.666985
	35.940000	-0.641198
	35.945000	-0.705665
	35.950000	-0.744345
	35.955000	-0.663761
	35.960000	-0.644421
	35.965000	-0.715335
	35.970000	-0.741122
	35.975000	-0.670208
	35.980000	-0.641198
	35.985000	-0.715335
	35.990000	-0.737898
	35.995000	-0.670208
	36.000000	-0.641198
	36.005000	-0.718558
	36.010000	-0.744345
	36.015000	-0.676655
	36.020000	-0.647644
	36.025000	-0.718558
	36.030000	-0.744345
	36.035000	-0.670208
	36.040000	-0.647644
	36.045000	-0.718558
	36.050000	-0.741122
	36.055000	-0.670208
	36.060000	-0.654091
	36.065000	-0.721782
	36.070000	-0.741122
	36.075000	-0.676655
	36.080000	-0.647644
	36.085000	-0.728228
	36.090000	-0.750792
	36.095000	-0.676655
	36.100000	-0.650868
	36.105000	-0.728228
	36.110000	-0.744345
	36.115000	-0.676655
	36.120000	-0.650868
	36.125000	-0.718558
	36.130000	-0.747569
	36.135000	-0.683101
	36.140000	-0.654091
	36.145000	-0.721782
	36.150000	-0.750792
	36.155000	-0.673431
	36.160000	-0.654091
	36.165000	-0.725005
	36.170000	-0.754015
	36.175000	-0.676655
	36.180000	-0.654091
	36.185000	-0.728228
	36.190000	-0.754015
	36.195000	-0.676655
	36.200000	-0.644421
	36.205000	-0.725005
	36.210000	-0.750792
	36.215000	-0.676655
	36.220000	-0.650868
	36.225000	-0.728228
	36.230000	-0.750792
	36.235000	-0.683101
	36.240000	-0.657314
	36.245000	-0.725005
	36.250000	-0.747569
	36.255000	-0.683101
	36.260000	-0.647644
	36.265000	-0.725005
	36.270000	-0.750792
	36.275000	-0.683101
	36.280000	-0.657314
	36.285000	-0.731452
	36.290000	-0.747569
	36.295000	-0.679878
	36.300000	-0.657314
	36.305000	-0.725005
	36.310000	-0.757239
	36.315000	-0.679878
	36.320000	-0.654091
	36.325000	-0.728228
	36.330000	-0.754015
	36.335000	-0.683101
	36.340000	-0.647644
	36.345000	-0.728228
	36.350000	-0.747569
	36.355000	-0.683101
	36.360000	-0.654091
	36.365000	-0.725005
	36.370000	-0.747569
	36.375000	-0.679878
	36.380000	-0.657314
	36.385000	-0.725005
	36.390000	-0.750792
	36.395000	-0.679878
	36.400000	-0.657314
	36.405000	-0.728228
	36.410000	-0.750792
	36.415000	-0.679878
	36.420000	-0.650868
	36.425000	-0.731452
	36.430000	-0.750792
	36.435000	-0.683101
	36.440000	-0.650868
	36.445000	-0.725005
	36.450000	-0.747569
	36.455000	-0.679878
	36.460000	-0.663761
	36.465000	-0.731452
	36.470000	-0.754015
	36.475000	-0.679878
	36.480000	-0.650868
	36.485000	-0.725005
	36.490000	-0.754015
	36.495000	-0.679878
	36.500000	-0.647644
	36.505000	-0.728228
	36.510000	-0.754015
	36.515000	-0.679878
	36.520000	-0.657314
	36.525000	-0.725005
	36.530000	-0.750792
	36.535000	-0.683101
	36.540000	-0.647644
	36.545000	-0.725005
	36.550000	-0.750792
	36.555000	-0.676655
	36.560000	-0.650868
	36.565000	-0.731452
	36.570000	-0.750792
	36.575000	-0.679878
	36.580000	-0.647644
	36.585000	-0.728228
	36.590000	-0.750792
	36.595000	-0.676655
	36.600000	-0.650868
	36.605000	-0.725005
	36.610000	-0.750792
	36.615000	-0.676655
	36.620000	-0.647644
	36.625000	-0.725005
	36.630000	-0.750792
	36.635000	-0.679878
	36.640000	-0.650868
	36.645000	-0.731452
	36.650000	-0.744345
	36.655000	-0.679878
	36.660000	-0.650868
	36.665000	-0.725005
	36.670000	-0.750792
	36.675000	-0.679878
	36.680000	-0.650868
	36.685000	-0.731452
	36.690000	-0.750792
	36.695000	-0.676655
	36.700000	-0.650868
	36.705000	-0.728228
	36.710000	-0.754015
	36.715000	-0.683101
	36.720000	-0.654091
	36.725000	-0.725005
	36.730000	-0.754015
	36.735000	-0.679878
	36.740000	-0.654091
	36.745000	-0.728228
	36.750000	-0.754015
	36.755000	-0.683101
	36.760000	-0.657314
	36.765000	-0.725005
	36.770000	-0.760462
	36.775000	-0.679878
	36.780000	-0.650868
	36.785000	-0.721782
	36.790000	-0.754015
	36.795000	-0.676655
	36.800000	-0.654091
	36.805000	-0.731452
	36.810000	-0.754015
	36.815000	-0.679878
	36.820000	-0.650868
	36.825000	-0.728228
	36.830000	-0.757239
	36.835000	-0.676655
	36.840000	-0.650868
	36.845000	-0.721782
	36.850000	-0.754015
	36.855000	-0.686325
	36.860000	-0.654091
	36.865000	-0.734675
	36.870000	-0.754015
	36.875000	-0.683101
	36.880000	-0.657314
	36.885000	-0.731452
	36.890000	-0.750792
	36.895000	-0.686325
	36.900000	-0.654091
	36.905000	-0.734675
	36.910000	-0.760462
	36.915000	-0.683101
	36.920000	-0.663761
	36.925000	-0.728228
	36.930000	-0.760462
	36.935000	-0.679878
	36.940000	-0.657314
	36.945000	-0.734675
	36.950000	-0.763685
	36.955000	-0.686325
	36.960000	-0.660538
	36.965000	-0.734675
	36.970000	-0.760462
	36.975000	-0.686325
	36.980000	-0.660538
	36.985000	-0.734675
	36.990000	-0.757239
	36.995000	-0.689548
	37.000000	-0.660538
	37.005000	-0.737898
	37.010000	-0.766909
	37.015000	-0.689548
	37.020000	-0.660538
	37.025000	-0.731452
	37.030000	-0.763685
	37.035000	-0.695995
	37.040000	-0.660538
	37.045000	-0.737898
	37.050000	-0.760462
	37.055000	-0.689548
	37.060000	-0.666985
	37.065000	-0.741122
	37.070000	-0.766909
	37.075000	-0.689548
	37.080000	-0.666985
	37.085000	-0.741122
	37.090000	-0.760462
	37.095000	-0.689548
	37.100000	-0.666985
	37.105000	-0.744345
	37.110000	-0.763685
	37.115000	-0.699218
	37.120000	-0.666985
	37.125000	-0.744345
	37.130000	-0.760462
	37.135000	-0.699218
	37.140000	-0.673431
	37.145000	-0.741122
	37.150000	-0.770132
	37.155000	-0.695995
	37.160000	-0.663761
	37.165000	-0.741122
	37.170000	-0.763685
	37.175000	-0.692771
	37.180000	-0.670208
	37.185000	-0.747569
	37.190000	-0.773355
	37.195000	-0.695995
	37.200000	-0.673431
	37.205000	-0.741122
	37.210000	-0.766909
	37.215000	-0.695995
	37.220000	-0.673431
	37.225000	-0.741122
	37.230000	-0.770132
	37.235000	-0.692771
	37.240000	-0.666985
	37.245000	-0.750792
	37.250000	-0.770132
	37.255000	-0.699218
	37.260000	-0.673431
	37.265000	-0.737898
	37.270000	-0.773355
	37.275000	-0.692771
	37.280000	-0.666985
	37.285000	-0.747569
	37.290000	-0.776579
	37.295000	-0.695995
	37.300000	-0.673431
	37.305000	-0.744345
	37.310000	-0.770132
	37.315000	-0.699218
	37.320000	-0.670208
	37.325000	-0.747569
	37.330000	-0.766909
	37.335000	-0.699218
	37.340000	-0.670208
	37.345000	-0.737898
	37.350000	-0.773355
	37.355000	-0.692771
	37.360000	-0.666985
	37.365000	-0.741122
	37.370000	-0.770132
	37.375000	-0.702441
	37.380000	-0.673431
	37.385000	-0.747569
	37.390000	-0.773355
	37.395000	-0.699218
	37.400000	-0.676655
	37.405000	-0.754015
	37.410000	-0.773355
	37.415000	-0.695995
	37.420000	-0.673431
	37.425000	-0.754015
	37.430000	-0.779802
	37.435000	-0.699218
	37.440000	-0.676655
	37.445000	-0.754015
	37.450000	-0.773355
	37.455000	-0.699218
	37.460000	-0.676655
	37.465000	-0.747569
	37.470000	-0.773355
	37.475000	-0.699218
	37.480000	-0.676655
	37.485000	-0.747569
	37.490000	-0.783025
	37.495000	-0.705665
	37.500000	-0.683101
	37.505000	-0.754015
	37.510000	-0.779802
	37.515000	-0.708888
	37.520000	-0.683101
	37.525000	-0.757239
	37.530000	-0.779802
	37.535000	-0.708888
	37.540000	-0.686325
	37.545000	-0.757239
	37.550000	-0.779802
	37.555000	-0.708888
	37.560000	-0.683101
	37.565000	-0.763685
	37.570000	-0.786249
	37.575000	-0.718558
	37.580000	-0.689548
	37.585000	-0.760462
	37.590000	-0.789472
	37.595000	-0.715335
	37.600000	-0.692771
	37.605000	-0.770132
	37.610000	-0.789472
	37.615000	-0.721782
	37.620000	-0.692771
	37.625000	-0.766909
	37.630000	-0.789472
	37.635000	-0.721782
	37.640000	-0.692771
	37.645000	-0.766909
	37.650000	-0.786249
	37.655000	-0.721782
	37.660000	-0.686325
	37.665000	-0.760462
	37.670000	-0.783025
	37.675000	-0.712112
	37.680000	-0.689548
	37.685000	-0.760462
	37.690000	-0.783025
	37.695000	-0.705665
	37.700000	-0.683101
	37.705000	-0.757239
	37.710000	-0.773355
	37.715000	-0.708888
	37.720000	-0.679878
	37.725000	-0.757239
	37.730000	-0.773355
	37.735000	-0.695995
	37.740000	-0.679878
	37.745000	-0.750792
	37.750000	-0.770132
	37.755000	-0.689548
	37.760000	-0.666985
	37.765000	-0.744345
	37.770000	-0.763685
	37.775000	-0.689548
	37.780000	-0.663761
	37.785000	-0.737898
	37.790000	-0.763685
	37.795000	-0.683101
	37.800000	-0.666985
	37.805000	-0.734675
	37.810000	-0.754015
	37.815000	-0.686325
	37.820000	-0.654091
	37.825000	-0.728228
	37.830000	-0.744345
	37.835000	-0.679878
	37.840000	-0.641198
	37.845000	-0.728228
	37.850000	-0.747569
	37.855000	-0.666985
	37.860000	-0.644421
	37.865000	-0.718558
	37.870000	-0.741122
	37.875000	-0.657314
	37.880000	-0.634751
	37.885000	-0.708888
	37.890000	-0.721782
	37.895000	-0.647644
	37.900000	-0.621858
	37.905000	-0.692771
	37.910000	-0.708888
	37.915000	-0.631528
	37.920000	-0.605741
	37.925000	-0.679878
	37.930000	-0.692771
	37.935000	-0.621858
	37.940000	-0.589624
	37.945000	-0.663761
	37.950000	-0.679878
	37.955000	-0.608964
	37.960000	-0.576730
	37.965000	-0.650868
	37.970000	-0.666985
	37.975000	-0.592847
	37.980000	-0.567060
	37.985000	-0.647644
	37.990000	-0.657314
	37.995000	-0.583177
	38.000000	-0.557390
	38.005000	-0.625081
	38.010000	-0.644421
	38.015000	-0.570284
	38.020000	-0.547720
	38.025000	-0.621858
	38.030000	-0.641198
	38.035000	-0.567060
	38.040000	-0.550944
	38.045000	-0.615411
	38.050000	-0.637974
	38.055000	-0.557390
	38.060000	-0.534827
	38.065000	-0.605741
	38.070000	-0.621858
	38.075000	-0.560614
	38.080000	-0.531603
	38.085000	-0.612187
	38.090000	-0.621858
	38.095000	-0.560614
	38.100000	-0.534827
	38.105000	-0.605741
	38.110000	-0.628304
	38.115000	-0.557390
	38.120000	-0.528380
	38.125000	-0.608964
	38.130000	-0.628304
	38.135000	-0.554167
	38.140000	-0.528380
	38.145000	-0.599294
	38.150000	-0.621858
	38.155000	-0.550944
	38.160000	-0.528380
	38.165000	-0.605741
	38.170000	-0.625081
	38.175000	-0.554167
	38.180000	-0.534827
	38.185000	-0.608964
	38.190000	-0.634751
	38.195000	-0.570284
	38.200000	-0.541274
	38.205000	-0.615411
	38.210000	-0.644421
	38.215000	-0.586401
	38.220000	-0.560614
	38.225000	-0.631528
	38.230000	-0.666985
	38.235000	-0.599294
	38.240000	-0.586401
	38.245000	-0.663761
	38.250000	-0.686325
	38.255000	-0.621858
	38.260000	-0.596071
	38.265000	-0.670208
	38.270000	-0.689548
	38.275000	-0.625081
	38.280000	-0.602517
	38.285000	-0.676655
	38.290000	-0.689548
	38.295000	-0.625081
	38.300000	-0.602517
	38.305000	-0.673431
	38.310000	-0.686325
	38.315000	-0.618634
	38.320000	-0.596071
	38.325000	-0.663761
	38.330000	-0.679878
	38.335000	-0.602517
	38.340000	-0.583177
	38.345000	-0.654091
	38.350000	-0.663761
	38.355000	-0.592847
	38.360000	-0.570284
	38.365000	-0.637974
	38.370000	-0.654091
	38.375000	-0.583177
	38.380000	-0.560614
	38.385000	-0.628304
	38.390000	-0.644421
	38.395000	-0.579954
	38.400000	-0.554167
	38.405000	-0.625081
	38.410000	-0.647644
	38.415000	-0.573507
	38.420000	-0.560614
	38.425000	-0.621858
	38.430000	-0.644421
	38.435000	-0.579954
	38.440000	-0.557390
	38.445000	-0.628304
	38.450000	-0.650868
	38.455000	-0.576730
	38.460000	-0.557390
	38.465000	-0.631528
	38.470000	-0.654091
	38.475000	-0.583177
	38.480000	-0.567060
	38.485000	-0.637974
	38.490000	-0.663761
	38.495000	-0.589624
	38.500000	-0.573507
	38.505000	-0.654091
	38.510000	-0.673431
	38.515000	-0.602517
	38.520000	-0.592847
	38.525000	-0.657314
	38.530000	-0.683101
	38.535000	-0.618634
	38.540000	-0.602517
	38.545000	-0.673431
	38.550000	-0.695995
	38.555000	-0.628304
	38.560000	-0.618634
	38.565000	-0.695995
	38.570000	-0.712112
	38.575000	-0.650868
	38.580000	-0.631528
	38.585000	-0.705665
	38.590000	-0.725005
	38.595000	-0.663761
	38.600000	-0.647644
	38.605000	-0.718558
	38.610000	-0.741122
	38.615000	-0.663761
	38.620000	-0.647644
	38.625000	-0.718558
	38.630000	-0.744345
	38.635000	-0.673431
	38.640000	-0.654091
	38.645000	-0.731452
	38.650000	-0.750792
	38.655000	-0.679878
	38.660000	-0.657314
	38.665000	-0.734675
	38.670000	-0.754015
	38.675000	-0.689548
	38.680000	-0.666985
	38.685000	-0.744345
	38.690000	-0.763685
	38.695000	-0.695995
	38.700000	-0.676655
	38.705000	-0.747569
	38.710000	-0.770132
	38.715000	-0.705665
	38.720000	-0.679878
	38.725000	-0.760462
	38.730000	-0.779802
	38.735000	-0.705665
	38.740000	-0.679878
	38.745000	-0.757239
	38.750000	-0.779802
	38.755000	-0.708888
	38.760000	-0.686325
	38.765000	-0.766909
	38.770000	-0.786249
	38.775000	-0.712112
	38.780000	-0.695995
	38.785000	-0.760462
	38.790000	-0.789472
	38.795000	-0.715335
	38.800000	-0.695995
	38.805000	-0.763685
	38.810000	-0.792696
	38.815000	-0.715335
	38.820000	-0.699218
	38.825000	-0.773355
	38.830000	-0.799142
	38.835000	-0.728228
	38.840000	-0.702441
	38.845000	-0.776579
	38.850000	-0.795919
	38.855000	-0.721782
	38.860000	-0.705665
	38.865000	-0.776579
	38.870000	-0.799142
	38.875000	-0.725005
	38.880000	-0.705665
	38.885000	-0.786249
	38.890000	-0.795919
	38.895000	-0.731452
	38.900000	-0.705665
	38.905000	-0.783025
	38.910000	-0.802366
	38.915000	-0.734675
	38.920000	-0.712112
	38.925000	-0.786249
	38.930000	-0.802366
	38.935000	-0.737898
	38.940000	-0.712112
	38.945000	-0.789472
	38.950000	-0.799142
	38.955000	-0.731452
	38.960000	-0.715335
	38.965000	-0.786249
	38.970000	-0.808812
	38.975000	-0.725005
	38.980000	-0.721782
	38.985000	-0.789472
	38.990000	-0.808812
	38.995000	-0.741122
	39.000000	-0.725005
	39.005000	-0.792696
	39.010000	-0.812036
	39.015000	-0.734675
	39.020000	-0.721782
	39.025000	-0.792696
	39.030000	-0.815259
	39.035000	-0.741122
	39.040000	-0.728228
	39.045000	-0.802366
	39.050000	-0.812036
	39.055000	-0.744345
	39.060000	-0.725005
	39.065000	-0.802366
	39.070000	-0.824929
	39.075000	-0.747569
	39.080000	-0.728228
	39.085000	-0.802366
	39.090000	-0.824929
	39.095000	-0.750792
	39.100000	-0.734675
	39.105000	-0.808812
	39.110000	-0.828152
	39.115000	-0.760462
	39.120000	-0.741122
	39.125000	-0.815259
	39.130000	-0.828152
	39.135000	-0.750792
	39.140000	-0.737898
	39.145000	-0.812036
	39.150000	-0.831376
	39.155000	-0.754015
	39.160000	-0.737898
	39.165000	-0.815259
	39.170000	-0.828152
	39.175000	-0.754015
	39.180000	-0.744345
	39.185000	-0.815259
	39.190000	-0.834599
	39.195000	-0.757239
	39.200000	-0.741122
	39.205000	-0.821706
	39.210000	-0.834599
	39.215000	-0.760462
	39.220000	-0.741122
	39.225000	-0.821706
	39.230000	-0.834599
	39.235000	-0.760462
	39.240000	-0.737898
	39.245000	-0.818482
	39.250000	-0.834599
	39.255000	-0.760462
	39.260000	-0.741122
	39.265000	-0.815259
	39.270000	-0.831376
	39.275000	-0.760462
	39.280000	-0.737898
	39.285000	-0.815259
	39.290000	-0.837823
	39.295000	-0.760462
	39.300000	-0.741122
	39.305000	-0.815259
	39.310000	-0.828152
	39.315000	-0.760462
	39.320000	-0.737898
	39.325000	-0.818482
	39.330000	-0.831376
	39.335000	-0.760462
	39.340000	-0.737898
	39.345000	-0.815259
	39.350000	-0.834599
	39.355000	-0.763685
	39.360000	-0.737898
	39.365000	-0.818482
	39.370000	-0.831376
	39.375000	-0.763685
	39.380000	-0.737898
	39.385000	-0.818482
	39.390000	-0.834599
	39.395000	-0.763685
	39.400000	-0.737898
	39.405000	-0.818482
	39.410000	-0.834599
	39.415000	-0.750792
	39.420000	-0.737898
	39.425000	-0.815259
	39.430000	-0.834599
	39.435000	-0.750792
	39.440000	-0.737898
	39.445000	-0.815259
	39.450000	-0.831376
	39.455000	-0.760462
	39.460000	-0.734675
	39.465000	-0.815259
	39.470000	-0.824929
	39.475000	-0.757239
	39.480000	-0.734675
	39.485000	-0.812036
	39.490000	-0.834599
	39.495000	-0.757239
	39.500000	-0.737898
	39.505000	-0.815259
	39.510000	-0.834599
	39.515000	-0.763685
	39.520000	-0.741122
	39.525000	-0.808812
	39.530000	-0.831376
	39.535000	-0.757239
	39.540000	-0.734675
	39.545000	-0.808812
	39.550000	-0.828152
	39.555000	-0.763685
	39.560000	-0.747569
	39.565000	-0.812036
	39.570000	-0.837823
	39.575000	-0.754015
	39.580000	-0.741122
	39.585000	-0.812036
	39.590000	-0.834599
	39.595000	-0.754015
	39.600000	-0.741122
	39.605000	-0.818482
	39.610000	-0.834599
	39.615000	-0.754015
	39.620000	-0.741122
	39.625000	-0.815259
	39.630000	-0.831376
	39.635000	-0.760462
	39.640000	-0.741122
	39.645000	-0.812036
	39.650000	-0.824929
	39.655000	-0.757239
	39.660000	-0.734675
	39.665000	-0.818482
	39.670000	-0.828152
	39.675000	-0.754015
	39.680000	-0.741122
	39.685000	-0.815259
	39.690000	-0.831376
	39.695000	-0.760462
	39.700000	-0.741122
	39.705000	-0.815259
	39.710000	-0.828152
	39.715000	-0.754015
	39.720000	-0.734675
	39.725000	-0.815259
	39.730000	-0.828152
	39.735000	-0.760462
	39.740000	-0.744345
	39.745000	-0.818482
	39.750000	-0.831376
	39.755000	-0.757239
	39.760000	-0.744345
	39.765000	-0.812036
	39.770000	-0.828152
	39.775000	-0.757239
	39.780000	-0.737898
	39.785000	-0.815259
	39.790000	-0.831376
	39.795000	-0.754015
	39.800000	-0.741122
	39.805000	-0.812036
	39.810000	-0.834599
	39.815000	-0.754015
	39.820000	-0.741122
	39.825000	-0.812036
	39.830000	-0.828152
	39.835000	-0.754015
	39.840000	-0.737898
	39.845000	-0.808812
	39.850000	-0.824929
	39.855000	-0.750792
	39.860000	-0.731452
	39.865000	-0.818482
	39.870000	-0.831376
	39.875000	-0.750792
	39.880000	-0.744345
	39.885000	-0.812036
	39.890000	-0.824929
	39.895000	-0.747569
	39.900000	-0.734675
	39.905000	-0.808812
	39.910000	-0.831376
	39.915000	-0.754015
	39.920000	-0.728228
	39.925000	-0.812036
	39.930000	-0.828152
	39.935000	-0.747569
	39.940000	-0.734675
	39.945000	-0.808812
	39.950000	-0.824929
	39.955000	-0.750792
	39.960000	-0.734675
	39.965000	-0.815259
	39.970000	-0.824929
	39.975000	-0.750792
	39.980000	-0.734675
	39.985000	-0.812036
	39.990000	-0.831376
	39.995000	-0.750792
	40.000000	-0.734675
	40.005000	-0.815259
	40.010000	-0.824929
	40.015000	-0.754015
	40.020000	-0.731452
	40.025000	-0.812036
	40.030000	-0.828152
	40.035000	-0.747569
	40.040000	-0.731452
	40.045000	-0.812036
	40.050000	-0.828152
	40.055000	-0.750792
	40.060000	-0.734675
	40.065000	-0.818482
	40.070000	-0.824929
	40.075000	-0.754015
	40.080000	-0.734675
	40.085000	-0.815259
	40.090000	-0.828152
	40.095000	-0.754015
	40.100000	-0.734675
	40.105000	-0.815259
	40.110000	-0.828152
	40.115000	-0.757239
	40.120000	-0.741122
	40.125000	-0.818482
	40.130000	-0.828152
	40.135000	-0.754015
	40.140000	-0.744345
	40.145000	-0.815259
	40.150000	-0.831376
	40.155000	-0.754015
	40.160000	-0.744345
	40.165000	-0.821706
	40.170000	-0.831376
	40.175000	-0.757239
	40.180000	-0.741122
	40.185000	-0.824929
	40.190000	-0.831376
	40.195000	-0.757239
	40.200000	-0.747569
	40.205000	-0.815259
	40.210000	-0.841046
	40.215000	-0.763685
	40.220000	-0.750792
	40.225000	-0.818482
	40.230000	-0.837823
	40.235000	-0.766909
	40.240000	-0.744345
	40.245000	-0.821706
	40.250000	-0.837823
	40.255000	-0.757239
	40.260000	-0.741122
	40.265000	-0.824929
	40.270000	-0.837823
	40.275000	-0.757239
	40.280000	-0.741122
	40.285000	-0.828152
	40.290000	-0.841046
	40.295000	-0.763685
	40.300000	-0.747569
	40.305000	-0.824929
	40.310000	-0.837823
	40.315000	-0.757239
	40.320000	-0.750792
	40.325000	-0.828152
	40.330000	-0.837823
	40.335000	-0.760462
	40.340000	-0.754015
	40.345000	-0.824929
	40.350000	-0.837823
	40.355000	-0.760462
	40.360000	-0.747569
	40.365000	-0.828152
	40.370000	-0.837823
	40.375000	-0.766909
	40.380000	-0.750792
	40.385000	-0.824929
	40.390000	-0.837823
	40.395000	-0.770132
	40.400000	-0.750792
	40.405000	-0.821706
	40.410000	-0.834599
	40.415000	-0.763685
	40.420000	-0.747569
	40.425000	-0.828152
	40.430000	-0.837823
	40.435000	-0.763685
	40.440000	-0.757239
	40.445000	-0.831376
	40.450000	-0.841046
	40.455000	-0.766909
	40.460000	-0.754015
	40.465000	-0.831376
	40.470000	-0.844269
	40.475000	-0.760462
	40.480000	-0.754015
	40.485000	-0.828152
	40.490000	-0.844269
	40.495000	-0.766909
	40.500000	-0.757239
	40.505000	-0.831376
	40.510000	-0.847493
	40.515000	-0.766909
	40.520000	-0.754015
	40.525000	-0.831376
	40.530000	-0.841046
	40.535000	-0.766909
	40.540000	-0.750792
	40.545000	-0.834599
	40.550000	-0.844269
	40.555000	-0.770132
	40.560000	-0.760462
	40.565000	-0.831376
	40.570000	-0.837823
	40.575000	-0.766909
	40.580000	-0.760462
	40.585000	-0.831376
	40.590000	-0.837823
	40.595000	-0.770132
	40.600000	-0.760462
	40.605000	-0.831376
	40.610000	-0.844269
	40.615000	-0.766909
	40.620000	-0.760462
	40.625000	-0.837823
	40.630000	-0.841046
	40.635000	-0.773355
	40.640000	-0.760462
	40.645000	-0.831376
	40.650000	-0.847493
	40.655000	-0.773355
	40.660000	-0.760462
	40.665000	-0.841046
	40.670000	-0.844269
	40.675000	-0.770132
	40.680000	-0.760462
	40.685000	-0.837823
	40.690000	-0.841046
	40.695000	-0.770132
	40.700000	-0.754015
	40.705000	-0.834599
	40.710000	-0.850716
	40.715000	-0.770132
	40.720000	-0.760462
	40.725000	-0.841046
	40.730000	-0.850716
	40.735000	-0.766909
	40.740000	-0.760462
	40.745000	-0.837823
	40.750000	-0.844269
	40.755000	-0.773355
	40.760000	-0.760462
	40.765000	-0.837823
	40.770000	-0.841046
	40.775000	-0.770132
	40.780000	-0.763685
	40.785000	-0.844269
	40.790000	-0.853939
	40.795000	-0.770132
	40.800000	-0.766909
	40.805000	-0.844269
	40.810000	-0.850716
	40.815000	-0.779802
	40.820000	-0.757239
	40.825000	-0.841046
	40.830000	-0.850716
	40.835000	-0.770132
	40.840000	-0.763685
	40.845000	-0.841046
	40.850000	-0.857163
	40.855000	-0.776579
	40.860000	-0.763685
	40.865000	-0.837823
	40.870000	-0.850716
	40.875000	-0.770132
	40.880000	-0.766909
	40.885000	-0.844269
	40.890000	-0.850716
	40.895000	-0.773355
	40.900000	-0.763685
	40.905000	-0.847493
	40.910000	-0.850716
	40.915000	-0.776579
	40.920000	-0.770132
	40.925000	-0.841046
	40.930000	-0.850716
	40.935000	-0.773355
	40.940000	-0.766909
	40.945000	-0.837823
	40.950000	-0.853939
	40.955000	-0.779802
	40.960000	-0.760462
	40.965000	-0.844269
	40.970000	-0.857163
	40.975000	-0.776579
	40.980000	-0.766909
	40.985000	-0.850716
	40.990000	-0.853939
	40.995000	-0.776579
	41.000000	-0.773355
	41.005000	-0.844269
	41.010000	-0.857163
	41.015000	-0.779802
	41.020000	-0.773355
	41.025000	-0.850716
	41.030000	-0.857163
	41.035000	-0.773355
	41.040000	-0.773355
	41.045000	-0.844269
	41.050000	-0.857163
	41.055000	-0.786249
	41.060000	-0.770132
	41.065000	-0.850716
	41.070000	-0.860386
	41.075000	-0.779802
	41.080000	-0.773355
	41.085000	-0.850716
	41.090000	-0.847493
	41.095000	-0.779802
	41.100000	-0.776579
	41.105000	-0.850716
	41.110000	-0.853939
	41.115000	-0.786249
	41.120000	-0.773355
	41.125000	-0.847493
	41.130000	-0.863609
	41.135000	-0.773355
	41.140000	-0.776579
	41.145000	-0.847493
	41.150000	-0.853939
	41.155000	-0.783025
	41.160000	-0.770132
	41.165000	-0.844269
	41.170000	-0.857163
	41.175000	-0.776579
	41.180000	-0.776579
	41.185000	-0.853939
	41.190000	-0.857163
	41.195000	-0.786249
	41.200000	-0.766909
	41.205000	-0.847493
	41.210000	-0.857163
	41.215000	-0.779802
	41.220000	-0.776579
	41.225000	-0.847493
	41.230000	-0.853939
	41.235000	-0.783025
	41.240000	-0.779802
	41.245000	-0.850716
	41.250000	-0.860386
	41.255000	-0.779802
	41.260000	-0.776579
	41.265000	-0.853939
	41.270000	-0.860386
	41.275000	-0.783025
	41.280000	-0.783025
	41.285000	-0.850716
	41.290000	-0.866833
	41.295000	-0.776579
	41.300000	-0.779802
	41.305000	-0.853939
	41.310000	-0.857163
	41.315000	-0.786249
	41.320000	-0.773355
	41.325000	-0.853939
	41.330000	-0.860386
	41.335000	-0.783025
	41.340000	-0.776579
	41.345000	-0.850716
	41.350000	-0.860386
	41.355000	-0.786249
	41.360000	-0.776579
	41.365000	-0.853939
	41.370000	-0.853939
	41.375000	-0.773355
	41.380000	-0.773355
	41.385000	-0.850716
	41.390000	-0.863609
	41.395000	-0.779802
	41.400000	-0.776579
	41.405000	-0.853939
	41.410000	-0.857163
	41.415000	-0.783025
	41.420000	-0.776579
	41.425000	-0.853939
	41.430000	-0.857163
	41.435000	-0.783025
	41.440000	-0.779802
	41.445000	-0.853939
	41.450000	-0.860386
	41.455000	-0.779802
	41.460000	-0.776579
	41.465000	-0.853939
	41.470000	-0.860386
	41.475000	-0.783025
	41.480000	-0.776579
	41.485000	-0.850716
	41.490000	-0.863609
	41.495000	-0.783025
	41.500000	-0.773355
	41.505000	-0.860386
	41.510000	-0.857163
	41.515000	-0.783025
	41.520000	-0.773355
	41.525000	-0.857163
	41.530000	-0.863609
	41.535000	-0.779802
	41.540000	-0.779802
	41.545000	-0.853939
	41.550000	-0.860386
	41.555000	-0.783025
	41.560000	-0.779802
	41.565000	-0.860386
	41.570000	-0.857163
	41.575000	-0.786249
	41.580000	-0.776579
	41.585000	-0.857163
	41.590000	-0.857163
	41.595000	-0.783025
	41.600000	-0.779802
	41.605000	-0.857163
	41.610000	-0.863609
	41.615000	-0.783025
	41.620000	-0.779802
	41.625000	-0.857163
	41.630000	-0.863609
	41.635000	-0.786249
	41.640000	-0.776579
	41.645000	-0.863609
	41.650000	-0.863609
	41.655000	-0.783025
	41.660000	-0.776579
	41.665000	-0.863609
	41.670000	-0.863609
	41.675000	-0.789472
	41.680000	-0.779802
	41.685000	-0.857163
	41.690000	-0.860386
	41.695000	-0.789472
	41.700000	-0.779802
	41.705000	-0.860386
	41.710000	-0.857163
	41.715000	-0.783025
	41.720000	-0.776579
	41.725000	-0.857163
	41.730000	-0.857163
	41.735000	-0.783025
	41.740000	-0.783025
	41.745000	-0.857163
	41.750000	-0.863609
	41.755000	-0.779802
	41.760000	-0.779802
	41.765000	-0.857163
	41.770000	-0.857163
	41.775000	-0.783025
	41.780000	-0.776579
	41.785000	-0.850716
	41.790000	-0.857163
	41.795000	-0.779802
	41.800000	-0.786249
	41.805000	-0.863609
	41.810000	-0.860386
	41.815000	-0.779802
	41.820000	-0.783025
	41.825000	-0.857163
	41.830000	-0.863609
	41.835000	-0.783025
	41.840000	-0.776579
	41.845000	-0.860386
	41.850000	-0.863609
	41.855000	-0.776579
	41.860000	-0.773355
	41.865000	-0.850716
	41.870000	-0.860386
	41.875000	-0.779802
	41.880000	-0.776579
	41.885000	-0.853939
	41.890000	-0.853939
	41.895000	-0.776579
	41.900000	-0.776579
	41.905000	-0.850716
	41.910000	-0.853939
	41.915000	-0.773355
	41.920000	-0.776579
	41.925000	-0.850716
	41.930000	-0.850716
	41.935000	-0.773355
	41.940000	-0.773355
	41.945000	-0.850716
	41.950000	-0.853939
	41.955000	-0.766909
	41.960000	-0.773355
	41.965000	-0.850716
	41.970000	-0.844269
	41.975000	-0.766909
	41.980000	-0.773355
	41.985000	-0.847493
	41.990000	-0.850716
	41.995000	-0.773355
	42.000000	-0.776579
	42.005000	-0.853939
	42.010000	-0.860386
	42.015000	-0.773355
	42.020000	-0.773355
	42.025000	-0.857163
	42.030000	-0.857163
	42.035000	-0.779802
	42.040000	-0.773355
	42.045000	-0.860386
	42.050000	-0.857163
	42.055000	-0.779802
	42.060000	-0.776579
	42.065000	-0.860386
	42.070000	-0.853939
	42.075000	-0.783025
	42.080000	-0.776579
	42.085000	-0.863609
	42.090000	-0.853939
	42.095000	-0.779802
	42.100000	-0.779802
	42.105000	-0.860386
	42.110000	-0.860386
	42.115000	-0.779802
	42.120000	-0.783025
	42.125000	-0.857163
	42.130000	-0.860386
	42.135000	-0.776579
	42.140000	-0.773355
	42.145000	-0.853939
	42.150000	-0.850716
	42.155000	-0.776579
	42.160000	-0.763685
	42.165000	-0.841046
	42.170000	-0.834599
	42.175000	-0.760462
	42.180000	-0.750792
	42.185000	-0.824929
	42.190000	-0.818482
	42.195000	-0.734675
	42.200000	-0.734675
	42.205000	-0.799142
	42.210000	-0.802366
	42.215000	-0.721782
	42.220000	-0.718558
	42.225000	-0.792696
	42.230000	-0.783025
	42.235000	-0.699218
	42.240000	-0.695995
	42.245000	-0.773355
	42.250000	-0.763685
	42.255000	-0.683101
	42.260000	-0.686325
	42.265000	-0.757239
	42.270000	-0.757239
	42.275000	-0.673431
	42.280000	-0.663761
	42.285000	-0.744345
	42.290000	-0.741122
	42.295000	-0.663761
	42.300000	-0.657314
	42.305000	-0.737898
	42.310000	-0.731452
	42.315000	-0.650868
	42.320000	-0.650868
	42.325000	-0.731452
	42.330000	-0.721782
	42.335000	-0.644421
	42.340000	-0.647644
	42.345000	-0.715335
	42.350000	-0.712112
	42.355000	-0.637974
	42.360000	-0.641198
	42.365000	-0.718558
	42.370000	-0.708888
	42.375000	-0.637974
	42.380000	-0.641198
	42.385000	-0.718558
	42.390000	-0.708888
	42.395000	-0.637974
	42.400000	-0.631528
	42.405000	-0.708888
	42.410000	-0.705665
	42.415000	-0.631528
	42.420000	-0.641198
	42.425000	-0.708888
	42.430000	-0.708888
	42.435000	-0.631528
	42.440000	-0.637974
	42.445000	-0.712112
	42.450000	-0.712112
	42.455000	-0.634751
	42.460000	-0.647644
	42.465000	-0.715335
	42.470000	-0.715335
	42.475000	-0.641198
	42.480000	-0.644421
	42.485000	-0.725005
	42.490000	-0.718558
	42.495000	-0.644421
	42.500000	-0.644421
	42.505000	-0.725005
	42.510000	-0.721782
	42.515000	-0.650868
	42.520000	-0.654091
	42.525000	-0.731452
	42.530000	-0.728228
	42.535000	-0.657314
	42.540000	-0.663761
	42.545000	-0.744345
	42.550000	-0.737898
	42.555000	-0.670208
	42.560000	-0.673431
	42.565000	-0.760462
	42.570000	-0.744345
	42.575000	-0.679878
	42.580000	-0.686325
	42.585000	-0.763685
	42.590000	-0.766909
	42.595000	-0.699218
	42.600000	-0.702441
	42.605000	-0.776579
	42.610000	-0.783025
	42.615000	-0.708888
	42.620000	-0.718558
	42.625000	-0.799142
	42.630000	-0.799142
	42.635000	-0.725005
	42.640000	-0.734675
	42.645000	-0.818482
	42.650000	-0.812036
	42.655000	-0.750792
	42.660000	-0.757239
	42.665000	-0.841046
	42.670000	-0.831376
	42.675000	-0.766909
	42.680000	-0.776579
	42.685000	-0.857163
	42.690000	-0.857163
	42.695000	-0.779802
	42.700000	-0.792696
	42.705000	-0.870056
	42.710000	-0.863609
	42.715000	-0.789472
	42.720000	-0.799142
	42.725000	-0.873280
	42.730000	-0.870056
	42.735000	-0.802366
	42.740000	-0.802366
	42.745000	-0.876503
	42.750000	-0.873280
	42.755000	-0.805589
	42.760000	-0.805589
	42.765000	-0.879726
	42.770000	-0.876503
	42.775000	-0.808812
	42.780000	-0.812036
	42.785000	-0.886173
	42.790000	-0.886173
	42.795000	-0.805589
	42.800000	-0.812036
	42.805000	-0.892620
	42.810000	-0.882950
	42.815000	-0.805589
	42.820000	-0.821706
	42.825000	-0.899066
	42.830000	-0.879726
	42.835000	-0.818482
	42.840000	-0.824929
	42.845000	-0.895843
	42.850000	-0.892620
	42.855000	-0.812036
	42.860000	-0.831376
	42.865000	-0.905513
	42.870000	-0.899066
	42.875000	-0.821706
	42.880000	-0.824929
	42.885000	-0.905513
	42.890000	-0.892620
	42.895000	-0.821706
	42.900000	-0.834599
	42.905000	-0.908736
	42.910000	-0.899066
	42.915000	-0.824929
	42.920000	-0.828152
	42.925000	-0.902290
	42.930000	-0.902290
	42.935000	-0.818482
	42.940000	-0.828152
	42.945000	-0.908736
	42.950000	-0.899066
	42.955000	-0.824929
	42.960000	-0.834599
	42.965000	-0.908736
	42.970000	-0.902290
	42.975000	-0.821706
	42.980000	-0.834599
	42.985000	-0.911960
	42.990000	-0.899066
	42.995000	-0.824929
	43.000000	-0.837823
	43.005000	-0.918407
	43.010000	-0.902290
	43.015000	-0.831376
	43.020000	-0.837823
	43.025000	-0.915183
	43.030000	-0.899066
	43.035000	-0.831376
	43.040000	-0.841046
	43.045000	-0.911960
	43.050000	-0.899066
	43.055000	-0.824929
	43.060000	-0.837823
	43.065000	-0.915183
	43.070000	-0.908736
	43.075000	-0.834599
	43.080000	-0.834599
	43.085000	-0.918407
	43.090000	-0.902290
	43.095000	-0.831376
	43.100000	-0.844269
	43.105000	-0.921630
	43.110000	-0.911960
	43.115000	-0.834599
	43.120000	-0.850716
	43.125000	-0.921630
	43.130000	-0.911960
	43.135000	-0.837823
	43.140000	-0.844269
	43.145000	-0.921630
	43.150000	-0.915183
	43.155000	-0.834599
	43.160000	-0.847493
	43.165000	-0.921630
	43.170000	-0.918407
	43.175000	-0.834599
	43.180000	-0.847493
	43.185000	-0.921630
	43.190000	-0.915183
	43.195000	-0.841046
	43.200000	-0.850716
	43.205000	-0.928077
	43.210000	-0.911960
	43.215000	-0.834599
	43.220000	-0.841046
	43.225000	-0.931300
	43.230000	-0.915183
	43.235000	-0.837823
	43.240000	-0.850716
	43.245000	-0.928077
	43.250000	-0.911960
	43.255000	-0.831376
	43.260000	-0.847493
	43.265000	-0.931300
	43.270000	-0.915183
	43.275000	-0.844269
	43.280000	-0.850716
	43.285000	-0.928077
	43.290000	-0.908736
	43.295000	-0.837823
	43.300000	-0.850716
	43.305000	-0.924853
	43.310000	-0.911960
	43.315000	-0.834599
	43.320000	-0.847493
	43.325000	-0.921630
	43.330000	-0.911960
	43.335000	-0.837823
	43.340000	-0.850716
	43.345000	-0.928077
	43.350000	-0.911960
	43.355000	-0.834599
	43.360000	-0.844269
	43.365000	-0.931300
	43.370000	-0.915183
	43.375000	-0.834599
	43.380000	-0.847493
	43.385000	-0.924853
	43.390000	-0.911960
	43.395000	-0.834599
	43.400000	-0.850716
	43.405000	-0.924853
	43.410000	-0.915183
	43.415000	-0.841046
	43.420000	-0.844269
	43.425000	-0.924853
	43.430000	-0.911960
	43.435000	-0.837823
	43.440000	-0.853939
	43.445000	-0.921630
	43.450000	-0.915183
	43.455000	-0.841046
	43.460000	-0.850716
	43.465000	-0.928077
	43.470000	-0.902290
	43.475000	-0.834599
	43.480000	-0.844269
	43.485000	-0.921630
	43.490000	-0.902290
	43.495000	-0.831376
	43.500000	-0.850716
	43.505000	-0.928077
	43.510000	-0.905513
	43.515000	-0.831376
	43.520000	-0.847493
	43.525000	-0.924853
	43.530000	-0.915183
	43.535000	-0.834599
	43.540000	-0.847493
	43.545000	-0.928077
	43.550000	-0.908736
	43.555000	-0.828152
	43.560000	-0.847493
	43.565000	-0.921630
	43.570000	-0.905513
	43.575000	-0.828152
	43.580000	-0.847493
	43.585000	-0.924853
	43.590000	-0.908736
	43.595000	-0.828152
	43.600000	-0.850716
	43.605000	-0.915183
	43.610000	-0.905513
	43.615000	-0.828152
	43.620000	-0.853939
	43.625000	-0.924853
	43.630000	-0.902290
	43.635000	-0.831376
	43.640000	-0.850716
	43.645000	-0.928077
	43.650000	-0.905513
	43.655000	-0.831376
	43.660000	-0.847493
	43.665000	-0.921630
	43.670000	-0.908736
	43.675000	-0.834599
	43.680000	-0.847493
	43.685000	-0.918407
	43.690000	-0.905513
	43.695000	-0.831376
	43.700000	-0.841046
	43.705000	-0.924853
	43.710000	-0.911960
	43.715000	-0.831376
	43.720000	-0.847493
	43.725000	-0.921630
	43.730000	-0.905513
	43.735000	-0.831376
	43.740000	-0.847493
	43.745000	-0.921630
	43.750000	-0.902290
	43.755000	-0.828152
	43.760000	-0.850716
	43.765000	-0.924853
	43.770000	-0.908736
	43.775000	-0.828152
	43.780000	-0.853939
	43.785000	-0.928077
	43.790000	-0.908736
	43.795000	-0.824929
	43.800000	-0.853939
	43.805000	-0.921630
	43.810000	-0.911960
	43.815000	-0.831376
	43.820000	-0.850716
	43.825000	-0.924853
	43.830000	-0.911960
	43.835000	-0.834599
	43.840000	-0.847493
	43.845000	-0.928077
	43.850000	-0.908736
	43.855000	-0.828152
	43.860000	-0.850716
	43.865000	-0.928077
	43.870000	-0.905513
	43.875000	-0.834599
	43.880000	-0.857163
	43.885000	-0.928077
	43.890000	-0.908736
	43.895000	-0.828152
	43.900000	-0.847493
	43.905000	-0.931300
	43.910000	-0.908736
	43.915000	-0.828152
	43.920000	-0.853939
	43.925000	-0.931300
	43.930000	-0.908736
	43.935000	-0.831376
	43.940000	-0.850716
	43.945000	-0.928077
	43.950000	-0.905513
	43.955000	-0.834599
	43.960000	-0.853939
	43.965000	-0.934523
	43.970000	-0.905513
	43.975000	-0.831376
	43.980000	-0.853939
	43.985000	-0.928077
	43.990000	-0.911960
	43.995000	-0.837823
	44.000000	-0.860386
	44.005000	-0.931300
	44.010000	-0.911960
	44.015000	-0.837823
	44.020000	-0.853939
	44.025000	-0.940970
	44.030000	-0.902290
	44.035000	-0.834599
	44.040000	-0.857163
	44.045000	-0.928077
	44.050000	-0.902290
	44.055000	-0.831376
	44.060000	-0.853939
	44.065000	-0.928077
	44.070000	-0.905513
	44.075000	-0.834599
	44.080000	-0.857163
	44.085000	-0.931300
	44.090000	-0.911960
	44.095000	-0.834599
	44.100000	-0.863609
	44.105000	-0.931300
	44.110000	-0.905513
	44.115000	-0.834599
	44.120000	-0.857163
	44.125000	-0.934523
	44.130000	-0.911960
	44.135000	-0.831376
	44.140000	-0.860386
	44.145000	-0.928077
	44.150000	-0.908736
	44.155000	-0.834599
	44.160000	-0.853939
	44.165000	-0.934523
	44.170000	-0.905513
	44.175000	-0.837823
	44.180000	-0.857163
	44.185000	-0.928077
	44.190000	-0.902290
	44.195000	-0.831376
	44.200000	-0.857163
	44.205000	-0.934523
	44.210000	-0.908736
	44.215000	-0.841046
	44.220000	-0.857163
	44.225000	-0.928077
	44.230000	-0.905513
	44.235000	-0.837823
	44.240000	-0.857163
	44.245000	-0.931300
	44.250000	-0.899066
	44.255000	-0.834599
	44.260000	-0.853939
	44.265000	-0.934523
	44.270000	-0.908736
	44.275000	-0.841046
	44.280000	-0.853939
	44.285000	-0.921630
	44.290000	-0.902290
	44.295000	-0.831376
	44.300000	-0.850716
	44.305000	-0.928077
	44.310000	-0.902290
	44.315000	-0.834599
	44.320000	-0.860386
	44.325000	-0.931300
	44.330000	-0.902290
	44.335000	-0.834599
	44.340000	-0.863609
	44.345000	-0.934523
	44.350000	-0.908736
	44.355000	-0.841046
	44.360000	-0.857163
	44.365000	-0.931300
	44.370000	-0.905513
	44.375000	-0.837823
	44.380000	-0.863609
	44.385000	-0.931300
	44.390000	-0.911960
	44.395000	-0.834599
	44.400000	-0.857163
	44.405000	-0.934523
	44.410000	-0.911960
	44.415000	-0.828152
	44.420000	-0.866833
	44.425000	-0.937747
	44.430000	-0.908736
	44.435000	-0.834599
	44.440000	-0.860386
	44.445000	-0.940970
	44.450000	-0.915183
	44.455000	-0.844269
	44.460000	-0.863609
	44.465000	-0.931300
	44.470000	-0.908736
	44.475000	-0.837823
	44.480000	-0.866833
	44.485000	-0.937747
	44.490000	-0.918407
	44.495000	-0.844269
	44.500000	-0.866833
	44.505000	-0.940970
	44.510000	-0.915183
	44.515000	-0.837823
	44.520000	-0.866833
	44.525000	-0.940970
	44.530000	-0.915183
	44.535000	-0.841046
	44.540000	-0.866833
	44.545000	-0.940970
	44.550000	-0.915183
	44.555000	-0.841046
	44.560000	-0.866833
	44.565000	-0.947417
	44.570000	-0.915183
	44.575000	-0.844269
	44.580000	-0.873280
	44.585000	-0.947417
	44.590000	-0.918407
	44.595000	-0.837823
	44.600000	-0.866833
	44.605000	-0.953863
	44.610000	-0.921630
	44.615000	-0.850716
	44.620000	-0.870056
	44.625000	-0.947417
	44.630000	-0.918407
	44.635000	-0.844269
	44.640000	-0.876503
	44.645000	-0.950640
	44.650000	-0.915183
	44.655000	-0.850716
	44.660000	-0.879726
	44.665000	-0.947417
	44.670000	-0.921630
	44.675000	-0.850716
	44.680000	-0.876503
	44.685000	-0.950640
	44.690000	-0.921630
	44.695000	-0.850716
	44.700000	-0.886173
	44.705000	-0.957087
	44.710000	-0.928077
	44.715000	-0.850716
	44.720000	-0.873280
	44.725000	-0.960310
	44.730000	-0.921630
	44.735000	-0.847493
	44.740000	-0.876503
	44.745000	-0.957087
	44.750000	-0.928077
	44.755000	-0.850716
	44.760000	-0.886173
	44.765000	-0.950640
