2024/7/11 	 15:10:30 
 This file comes from Vt only measurement 	 1.000000E-1 
 Voltage Sensitivity 	 0.000000E+0 
 Sampling rate 	 200 
 Number of samples per channel 	 -1 
 No filter from Labview 	 	 	 
 	 
 ***End_of_Header*** 
 	 Time 	  Voltage 	 Filtered Voltage 	 
	0.000000	-0.531603
	0.005000	-0.518710
	0.010000	-0.418786
	0.015000	-0.428456
	0.020000	-0.534827
	0.025000	-0.525157
	0.030000	-0.425233
	0.035000	-0.428456
	0.040000	-0.541274
	0.045000	-0.528380
	0.050000	-0.431679
	0.055000	-0.434903
	0.060000	-0.541274
	0.065000	-0.534827
	0.070000	-0.428456
	0.075000	-0.434903
	0.080000	-0.538050
	0.085000	-0.531603
	0.090000	-0.425233
	0.095000	-0.438126
	0.100000	-0.538050
	0.105000	-0.534827
	0.110000	-0.425233
	0.115000	-0.438126
	0.120000	-0.534827
	0.125000	-0.534827
	0.130000	-0.428456
	0.135000	-0.438126
	0.140000	-0.538050
	0.145000	-0.538050
	0.150000	-0.428456
	0.155000	-0.428456
	0.160000	-0.534827
	0.165000	-0.534827
	0.170000	-0.425233
	0.175000	-0.428456
	0.180000	-0.531603
	0.185000	-0.531603
	0.190000	-0.422009
	0.195000	-0.425233
	0.200000	-0.531603
	0.205000	-0.528380
	0.210000	-0.422009
	0.215000	-0.428456
	0.220000	-0.531603
	0.225000	-0.528380
	0.230000	-0.418786
	0.235000	-0.425233
	0.240000	-0.538050
	0.245000	-0.528380
	0.250000	-0.422009
	0.255000	-0.425233
	0.260000	-0.531603
	0.265000	-0.528380
	0.270000	-0.422009
	0.275000	-0.425233
	0.280000	-0.534827
	0.285000	-0.525157
	0.290000	-0.422009
	0.295000	-0.428456
	0.300000	-0.534827
	0.305000	-0.525157
	0.310000	-0.422009
	0.315000	-0.422009
	0.320000	-0.538050
	0.325000	-0.525157
	0.330000	-0.418786
	0.335000	-0.428456
	0.340000	-0.528380
	0.345000	-0.528380
	0.350000	-0.418786
	0.355000	-0.425233
	0.360000	-0.528380
	0.365000	-0.528380
	0.370000	-0.422009
	0.375000	-0.418786
	0.380000	-0.531603
	0.385000	-0.521933
	0.390000	-0.418786
	0.395000	-0.425233
	0.400000	-0.525157
	0.405000	-0.525157
	0.410000	-0.422009
	0.415000	-0.425233
	0.420000	-0.525157
	0.425000	-0.525157
	0.430000	-0.412339
	0.435000	-0.418786
	0.440000	-0.521933
	0.445000	-0.521933
	0.450000	-0.415563
	0.455000	-0.415563
	0.460000	-0.531603
	0.465000	-0.521933
	0.470000	-0.415563
	0.475000	-0.415563
	0.480000	-0.528380
	0.485000	-0.521933
	0.490000	-0.412339
	0.495000	-0.415563
	0.500000	-0.525157
	0.505000	-0.518710
	0.510000	-0.415563
	0.515000	-0.415563
	0.520000	-0.525157
	0.525000	-0.521933
	0.530000	-0.415563
	0.535000	-0.412339
	0.540000	-0.525157
	0.545000	-0.518710
	0.550000	-0.409116
	0.555000	-0.418786
	0.560000	-0.521933
	0.565000	-0.518710
	0.570000	-0.412339
	0.575000	-0.409116
	0.580000	-0.515487
	0.585000	-0.515487
	0.590000	-0.409116
	0.595000	-0.412339
	0.600000	-0.515487
	0.605000	-0.512263
	0.610000	-0.409116
	0.615000	-0.402669
	0.620000	-0.509040
	0.625000	-0.512263
	0.630000	-0.402669
	0.635000	-0.405892
	0.640000	-0.518710
	0.645000	-0.515487
	0.650000	-0.402669
	0.655000	-0.405892
	0.660000	-0.509040
	0.665000	-0.505817
	0.670000	-0.392999
	0.675000	-0.402669
	0.680000	-0.505817
	0.685000	-0.509040
	0.690000	-0.399446
	0.695000	-0.402669
	0.700000	-0.509040
	0.705000	-0.502593
	0.710000	-0.399446
	0.715000	-0.396222
	0.720000	-0.502593
	0.725000	-0.502593
	0.730000	-0.392999
	0.735000	-0.396222
	0.740000	-0.499370
	0.745000	-0.505817
	0.750000	-0.392999
	0.755000	-0.396222
	0.760000	-0.502593
	0.765000	-0.496147
	0.770000	-0.402669
	0.775000	-0.392999
	0.780000	-0.505817
	0.785000	-0.502593
	0.790000	-0.399446
	0.795000	-0.399446
	0.800000	-0.502593
	0.805000	-0.505817
	0.810000	-0.392999
	0.815000	-0.402669
	0.820000	-0.499370
	0.825000	-0.505817
	0.830000	-0.399446
	0.835000	-0.396222
	0.840000	-0.502593
	0.845000	-0.496147
	0.850000	-0.392999
	0.855000	-0.389776
	0.860000	-0.496147
	0.865000	-0.499370
	0.870000	-0.386552
	0.875000	-0.383329
	0.880000	-0.489700
	0.885000	-0.486476
	0.890000	-0.386552
	0.895000	-0.370436
	0.900000	-0.473583
	0.905000	-0.473583
	0.910000	-0.360765
	0.915000	-0.354319
	0.920000	-0.457466
	0.925000	-0.447796
	0.930000	-0.331755
	0.935000	-0.315638
	0.940000	-0.409116
	0.945000	-0.409116
	0.950000	-0.289852
	0.955000	-0.276958
	0.960000	-0.376882
	0.965000	-0.367212
	0.970000	-0.251171
	0.975000	-0.235054
	0.980000	-0.334979
	0.985000	-0.318862
	0.990000	-0.212491
	0.995000	-0.202821
	1.000000	-0.289852
	1.005000	-0.280181
	1.010000	-0.173811
	1.015000	-0.154470
	1.020000	-0.251171
	1.025000	-0.247948
	1.030000	-0.131907
	1.035000	-0.122237
	1.040000	-0.222161
	1.045000	-0.212491
	1.050000	-0.115790
	1.055000	-0.102897
	1.060000	-0.196374
	1.065000	-0.206044
	1.070000	-0.102897
	1.075000	-0.096450
	1.080000	-0.199597
	1.085000	-0.209268
	1.090000	-0.109343
	1.095000	-0.109343
	1.100000	-0.209268
	1.105000	-0.222161
	1.110000	-0.115790
	1.115000	-0.119014
	1.120000	-0.222161
	1.125000	-0.235054
	1.130000	-0.131907
	1.135000	-0.135130
	1.140000	-0.241501
	1.145000	-0.251171
	1.150000	-0.144800
	1.155000	-0.144800
	1.160000	-0.244725
	1.165000	-0.257618
	1.170000	-0.154470
	1.175000	-0.154470
	1.180000	-0.257618
	1.185000	-0.257618
	1.190000	-0.157694
	1.195000	-0.154470
	1.200000	-0.264065
	1.205000	-0.264065
	1.210000	-0.160917
	1.215000	-0.160917
	1.220000	-0.270511
	1.225000	-0.276958
	1.230000	-0.164141
	1.235000	-0.157694
	1.240000	-0.267288
	1.245000	-0.280181
	1.250000	-0.173811
	1.255000	-0.167364
	1.260000	-0.270511
	1.265000	-0.276958
	1.270000	-0.177034
	1.275000	-0.167364
	1.280000	-0.270511
	1.285000	-0.286628
	1.290000	-0.177034
	1.295000	-0.170587
	1.300000	-0.276958
	1.305000	-0.286628
	1.310000	-0.189927
	1.315000	-0.177034
	1.320000	-0.283405
	1.325000	-0.286628
	1.330000	-0.189927
	1.335000	-0.186704
	1.340000	-0.283405
	1.345000	-0.289852
	1.350000	-0.189927
	1.355000	-0.177034
	1.360000	-0.286628
	1.365000	-0.293075
	1.370000	-0.193151
	1.375000	-0.183481
	1.380000	-0.276958
	1.385000	-0.293075
	1.390000	-0.180257
	1.395000	-0.180257
	1.400000	-0.286628
	1.405000	-0.293075
	1.410000	-0.189927
	1.415000	-0.177034
	1.420000	-0.276958
	1.425000	-0.283405
	1.430000	-0.183481
	1.435000	-0.173811
	1.440000	-0.267288
	1.445000	-0.280181
	1.450000	-0.177034
	1.455000	-0.173811
	1.460000	-0.270511
	1.465000	-0.283405
	1.470000	-0.170587
	1.475000	-0.167364
	1.480000	-0.264065
	1.485000	-0.276958
	1.490000	-0.170587
	1.495000	-0.164141
	1.500000	-0.264065
	1.505000	-0.273735
	1.510000	-0.164141
	1.515000	-0.157694
	1.520000	-0.251171
	1.525000	-0.260841
	1.530000	-0.164141
	1.535000	-0.141577
	1.540000	-0.244725
	1.545000	-0.247948
	1.550000	-0.151247
	1.555000	-0.135130
	1.560000	-0.225384
	1.565000	-0.238278
	1.570000	-0.135130
	1.575000	-0.115790
	1.580000	-0.218938
	1.585000	-0.222161
	1.590000	-0.119014
	1.595000	-0.102897
	1.600000	-0.202821
	1.605000	-0.206044
	1.610000	-0.102897
	1.615000	-0.083557
	1.620000	-0.180257
	1.625000	-0.183481
	1.630000	-0.077110
	1.635000	-0.064216
	1.640000	-0.151247
	1.645000	-0.154470
	1.650000	-0.057770
	1.655000	-0.031983
	1.660000	-0.125460
	1.665000	-0.125460
	1.670000	-0.025536
	1.675000	0.000251
	1.680000	-0.086780
	1.685000	-0.099673
	1.690000	0.003474
	1.695000	0.026038
	1.700000	-0.067440
	1.705000	-0.077110
	1.710000	0.016368
	1.715000	0.022814
	1.720000	-0.073886
	1.725000	-0.080333
	1.730000	0.006697
	1.735000	0.009921
	1.740000	-0.093227
	1.745000	-0.119014
	1.750000	-0.038430
	1.755000	-0.038430
	1.760000	-0.148024
	1.765000	-0.167364
	1.770000	-0.093227
	1.775000	-0.086780
	1.780000	-0.202821
	1.785000	-0.225384
	1.790000	-0.131907
	1.795000	-0.131907
	1.800000	-0.241501
	1.805000	-0.260841
	1.810000	-0.173811
	1.815000	-0.177034
	1.820000	-0.276958
	1.825000	-0.299522
	1.830000	-0.206044
	1.835000	-0.202821
	1.840000	-0.302745
	1.845000	-0.322085
	1.850000	-0.231831
	1.855000	-0.215714
	1.860000	-0.328532
	1.865000	-0.334979
	1.870000	-0.244725
	1.875000	-0.235054
	1.880000	-0.338202
	1.885000	-0.347872
	1.890000	-0.251171
	1.895000	-0.241501
	1.900000	-0.347872
	1.905000	-0.363989
	1.910000	-0.264065
	1.915000	-0.247948
	1.920000	-0.347872
	1.925000	-0.367212
	1.930000	-0.273735
	1.935000	-0.257618
	1.940000	-0.360765
	1.945000	-0.376882
	1.950000	-0.276958
	1.955000	-0.264065
	1.960000	-0.363989
	1.965000	-0.376882
	1.970000	-0.289852
	1.975000	-0.270511
	1.980000	-0.373659
	1.985000	-0.386552
	1.990000	-0.289852
	1.995000	-0.273735
	2.000000	-0.370436
	2.005000	-0.392999
	2.010000	-0.299522
	2.015000	-0.273735
	2.020000	-0.380106
	2.025000	-0.399446
	2.030000	-0.293075
	2.035000	-0.280181
	2.040000	-0.376882
	2.045000	-0.402669
	2.050000	-0.296298
	2.055000	-0.283405
	2.060000	-0.386552
	2.065000	-0.402669
	2.070000	-0.302745
	2.075000	-0.293075
	2.080000	-0.383329
	2.085000	-0.405892
	2.090000	-0.305968
	2.095000	-0.293075
	2.100000	-0.392999
	2.105000	-0.412339
	2.110000	-0.312415
	2.115000	-0.296298
	2.120000	-0.396222
	2.125000	-0.415563
	2.130000	-0.315638
	2.135000	-0.299522
	2.140000	-0.399446
	2.145000	-0.409116
	2.150000	-0.325308
	2.155000	-0.302745
	2.160000	-0.399446
	2.165000	-0.422009
	2.170000	-0.322085
	2.175000	-0.309192
	2.180000	-0.402669
	2.185000	-0.428456
	2.190000	-0.325308
	2.195000	-0.309192
	2.200000	-0.409116
	2.205000	-0.425233
	2.210000	-0.331755
	2.215000	-0.312415
	2.220000	-0.409116
	2.225000	-0.428456
	2.230000	-0.328532
	2.235000	-0.305968
	2.240000	-0.409116
	2.245000	-0.428456
	2.250000	-0.325308
	2.255000	-0.305968
	2.260000	-0.415563
	2.265000	-0.438126
	2.270000	-0.331755
	2.275000	-0.309192
	2.280000	-0.409116
	2.285000	-0.431679
	2.290000	-0.328532
	2.295000	-0.312415
	2.300000	-0.412339
	2.305000	-0.431679
	2.310000	-0.331755
	2.315000	-0.302745
	2.320000	-0.409116
	2.325000	-0.428456
	2.330000	-0.331755
	2.335000	-0.302745
	2.340000	-0.412339
	2.345000	-0.431679
	2.350000	-0.328532
	2.355000	-0.305968
	2.360000	-0.412339
	2.365000	-0.425233
	2.370000	-0.322085
	2.375000	-0.309192
	2.380000	-0.409116
	2.385000	-0.422009
	2.390000	-0.325308
	2.395000	-0.296298
	2.400000	-0.405892
	2.405000	-0.425233
	2.410000	-0.328532
	2.415000	-0.296298
	2.420000	-0.399446
	2.425000	-0.422009
	2.430000	-0.312415
	2.435000	-0.299522
	2.440000	-0.399446
	2.445000	-0.425233
	2.450000	-0.322085
	2.455000	-0.293075
	2.460000	-0.399446
	2.465000	-0.418786
	2.470000	-0.312415
	2.475000	-0.293075
	2.480000	-0.389776
	2.485000	-0.422009
	2.490000	-0.309192
	2.495000	-0.293075
	2.500000	-0.392999
	2.505000	-0.415563
	2.510000	-0.312415
	2.515000	-0.293075
	2.520000	-0.386552
	2.525000	-0.409116
	2.530000	-0.312415
	2.535000	-0.286628
	2.540000	-0.386552
	2.545000	-0.405892
	2.550000	-0.309192
	2.555000	-0.283405
	2.560000	-0.380106
	2.565000	-0.415563
	2.570000	-0.299522
	2.575000	-0.276958
	2.580000	-0.380106
	2.585000	-0.409116
	2.590000	-0.302745
	2.595000	-0.270511
	2.600000	-0.380106
	2.605000	-0.405892
	2.610000	-0.296298
	2.615000	-0.276958
	2.620000	-0.383329
	2.625000	-0.402669
	2.630000	-0.296298
	2.635000	-0.270511
	2.640000	-0.376882
	2.645000	-0.399446
	2.650000	-0.296298
	2.655000	-0.270511
	2.660000	-0.373659
	2.665000	-0.396222
	2.670000	-0.293075
	2.675000	-0.270511
	2.680000	-0.373659
	2.685000	-0.392999
	2.690000	-0.299522
	2.695000	-0.264065
	2.700000	-0.370436
	2.705000	-0.392999
	2.710000	-0.293075
	2.715000	-0.270511
	2.720000	-0.370436
	2.725000	-0.392999
	2.730000	-0.293075
	2.735000	-0.264065
	2.740000	-0.367212
	2.745000	-0.392999
	2.750000	-0.296298
	2.755000	-0.260841
	2.760000	-0.363989
	2.765000	-0.396222
	2.770000	-0.283405
	2.775000	-0.264065
	2.780000	-0.370436
	2.785000	-0.389776
	2.790000	-0.289852
	2.795000	-0.260841
	2.800000	-0.363989
	2.805000	-0.389776
	2.810000	-0.289852
	2.815000	-0.257618
	2.820000	-0.367212
	2.825000	-0.383329
	2.830000	-0.283405
	2.835000	-0.257618
	2.840000	-0.367212
	2.845000	-0.380106
	2.850000	-0.289852
	2.855000	-0.257618
	2.860000	-0.357542
	2.865000	-0.389776
	2.870000	-0.286628
	2.875000	-0.260841
	2.880000	-0.360765
	2.885000	-0.383329
	2.890000	-0.280181
	2.895000	-0.251171
	2.900000	-0.360765
	2.905000	-0.383329
	2.910000	-0.283405
	2.915000	-0.257618
	2.920000	-0.354319
	2.925000	-0.383329
	2.930000	-0.286628
	2.935000	-0.251171
	2.940000	-0.357542
	2.945000	-0.380106
	2.950000	-0.283405
	2.955000	-0.254395
	2.960000	-0.360765
	2.965000	-0.380106
	2.970000	-0.286628
	2.975000	-0.251171
	2.980000	-0.354319
	2.985000	-0.380106
	2.990000	-0.280181
	2.995000	-0.251171
	3.000000	-0.357542
	3.005000	-0.380106
	3.010000	-0.276958
	3.015000	-0.254395
	3.020000	-0.351095
	3.025000	-0.383329
	3.030000	-0.286628
	3.035000	-0.260841
	3.040000	-0.354319
	3.045000	-0.383329
	3.050000	-0.286628
	3.055000	-0.260841
	3.060000	-0.363989
	3.065000	-0.386552
	3.070000	-0.286628
	3.075000	-0.260841
	3.080000	-0.360765
	3.085000	-0.386552
	3.090000	-0.296298
	3.095000	-0.260841
	3.100000	-0.360765
	3.105000	-0.392999
	3.110000	-0.296298
	3.115000	-0.260841
	3.120000	-0.360765
	3.125000	-0.383329
	3.130000	-0.293075
	3.135000	-0.264065
	3.140000	-0.360765
	3.145000	-0.392999
	3.150000	-0.286628
	3.155000	-0.264065
	3.160000	-0.363989
	3.165000	-0.392999
	3.170000	-0.296298
	3.175000	-0.264065
	3.180000	-0.360765
	3.185000	-0.392999
	3.190000	-0.293075
	3.195000	-0.257618
	3.200000	-0.360765
	3.205000	-0.392999
	3.210000	-0.293075
	3.215000	-0.260841
	3.220000	-0.360765
	3.225000	-0.396222
	3.230000	-0.296298
	3.235000	-0.257618
	3.240000	-0.360765
	3.245000	-0.389776
	3.250000	-0.289852
	3.255000	-0.254395
	3.260000	-0.354319
	3.265000	-0.383329
	3.270000	-0.289852
	3.275000	-0.254395
	3.280000	-0.357542
	3.285000	-0.383329
	3.290000	-0.280181
	3.295000	-0.251171
	3.300000	-0.347872
	3.305000	-0.370436
	3.310000	-0.267288
	3.315000	-0.231831
	3.320000	-0.338202
	3.325000	-0.363989
	3.330000	-0.270511
	3.335000	-0.225384
	3.340000	-0.328532
	3.345000	-0.357542
	3.350000	-0.254395
	3.355000	-0.218938
	3.360000	-0.318862
	3.365000	-0.351095
	3.370000	-0.244725
	3.375000	-0.209268
	3.380000	-0.305968
	3.385000	-0.338202
	3.390000	-0.235054
	3.395000	-0.199597
	3.400000	-0.289852
	3.405000	-0.315638
	3.410000	-0.215714
	3.415000	-0.180257
	3.420000	-0.283405
	3.425000	-0.312415
	3.430000	-0.199597
	3.435000	-0.167364
	3.440000	-0.260841
	3.445000	-0.286628
	3.450000	-0.183481
	3.455000	-0.148024
	3.460000	-0.238278
	3.465000	-0.270511
	3.470000	-0.167364
	3.475000	-0.115790
	3.480000	-0.215714
	3.485000	-0.247948
	3.490000	-0.141577
	3.495000	-0.099673
	3.500000	-0.189927
	3.505000	-0.218938
	3.510000	-0.109343
	3.515000	-0.070663
	3.520000	-0.151247
	3.525000	-0.173811
	3.530000	-0.064216
	3.535000	-0.012643
	3.540000	-0.102897
	3.545000	-0.128684
	3.550000	-0.015866
	3.555000	0.029261
	3.560000	-0.060993
	3.565000	-0.083557
	3.570000	0.013144
	3.575000	0.051825
	3.580000	-0.041653
	3.585000	-0.073886
	3.590000	0.019591
	3.595000	0.055048
	3.600000	-0.041653
	3.605000	-0.077110
	3.610000	0.013144
	3.615000	0.045378
	3.620000	-0.054546
	3.625000	-0.083557
	3.630000	0.000251
	3.635000	0.032484
	3.640000	-0.057770
	3.645000	-0.093227
	3.650000	-0.009419
	3.655000	0.026038
	3.660000	-0.070663
	3.665000	-0.106120
	3.670000	-0.009419
	3.675000	0.016368
	3.680000	-0.077110
	3.685000	-0.109343
	3.690000	-0.012643
	3.695000	0.013144
	3.700000	-0.070663
	3.705000	-0.106120
	3.710000	-0.022313
	3.715000	0.013144
	3.720000	-0.077110
	3.725000	-0.112567
	3.730000	-0.025536
	3.735000	0.006697
	3.740000	-0.083557
	3.745000	-0.115790
	3.750000	-0.022313
	3.755000	0.003474
	3.760000	-0.083557
	3.765000	-0.125460
	3.770000	-0.031983
	3.775000	0.003474
	3.780000	-0.090003
	3.785000	-0.128684
	3.790000	-0.038430
	3.795000	0.000251
	3.800000	-0.096450
	3.805000	-0.135130
	3.810000	-0.044876
	3.815000	-0.009419
	3.820000	-0.102897
	3.825000	-0.135130
	3.830000	-0.051323
	3.835000	-0.019089
	3.840000	-0.115790
	3.845000	-0.148024
	3.850000	-0.051323
	3.855000	-0.028759
	3.860000	-0.122237
	3.865000	-0.154470
	3.870000	-0.064216
	3.875000	-0.035206
	3.880000	-0.135130
	3.885000	-0.164141
	3.890000	-0.077110
	3.895000	-0.038430
	3.900000	-0.135130
	3.905000	-0.170587
	3.910000	-0.083557
	3.915000	-0.044876
	3.920000	-0.141577
	3.925000	-0.170587
	3.930000	-0.077110
	3.935000	-0.044876
	3.940000	-0.135130
	3.945000	-0.170587
	3.950000	-0.077110
	3.955000	-0.044876
	3.960000	-0.138354
	3.965000	-0.164141
	3.970000	-0.083557
	3.975000	-0.041653
	3.980000	-0.131907
	3.985000	-0.164141
	3.990000	-0.080333
	3.995000	-0.038430
	4.000000	-0.135130
	4.005000	-0.173811
	4.010000	-0.077110
	4.015000	-0.048100
	4.020000	-0.128684
	4.025000	-0.164141
	4.030000	-0.077110
	4.035000	-0.041653
	4.040000	-0.128684
	4.045000	-0.157694
	4.050000	-0.070663
	4.055000	-0.035206
	4.060000	-0.125460
	4.065000	-0.160917
	4.070000	-0.070663
	4.075000	-0.028759
	4.080000	-0.119014
	4.085000	-0.151247
	4.090000	-0.067440
	4.095000	-0.022313
	4.100000	-0.112567
	4.105000	-0.151247
	4.110000	-0.060993
	4.115000	-0.019089
	4.120000	-0.106120
	4.125000	-0.144800
	4.130000	-0.044876
	4.135000	-0.009419
	4.140000	-0.099673
	4.145000	-0.141577
	4.150000	-0.041653
	4.155000	-0.002973
	4.160000	-0.096450
	4.165000	-0.128684
	4.170000	-0.038430
	4.175000	-0.006196
	4.180000	-0.090003
	4.185000	-0.125460
	4.190000	-0.038430
	4.195000	-0.002973
	4.200000	-0.093227
	4.205000	-0.135130
	4.210000	-0.051323
	4.215000	-0.009419
	4.220000	-0.109343
	4.225000	-0.148024
	4.230000	-0.064216
	4.235000	-0.038430
	4.240000	-0.128684
	4.245000	-0.180257
	4.250000	-0.093227
	4.255000	-0.060993
	4.260000	-0.157694
	4.265000	-0.202821
	4.270000	-0.115790
	4.275000	-0.090003
	4.280000	-0.183481
	4.285000	-0.231831
	4.290000	-0.141577
	4.295000	-0.106120
	4.300000	-0.202821
	4.305000	-0.244725
	4.310000	-0.160917
	4.315000	-0.122237
	4.320000	-0.218938
	4.325000	-0.257618
	4.330000	-0.173811
	4.335000	-0.135130
	4.340000	-0.225384
	4.345000	-0.270511
	4.350000	-0.180257
	4.355000	-0.141577
	4.360000	-0.231831
	4.365000	-0.276958
	4.370000	-0.186704
	4.375000	-0.148024
	4.380000	-0.251171
	4.385000	-0.283405
	4.390000	-0.199597
	4.395000	-0.157694
	4.400000	-0.254395
	4.405000	-0.296298
	4.410000	-0.206044
	4.415000	-0.167364
	4.420000	-0.260841
	4.425000	-0.309192
	4.430000	-0.215714
	4.435000	-0.186704
	4.440000	-0.280181
	4.445000	-0.315638
	4.450000	-0.231831
	4.455000	-0.193151
	4.460000	-0.293075
	4.465000	-0.328532
	4.470000	-0.244725
	4.475000	-0.206044
	4.480000	-0.302745
	4.485000	-0.344649
	4.490000	-0.257618
	4.495000	-0.215714
	4.500000	-0.312415
	4.505000	-0.354319
	4.510000	-0.260841
	4.515000	-0.222161
	4.520000	-0.322085
	4.525000	-0.363989
	4.530000	-0.267288
	4.535000	-0.231831
	4.540000	-0.331755
	4.545000	-0.367212
	4.550000	-0.280181
	4.555000	-0.235054
	4.560000	-0.331755
	4.565000	-0.373659
	4.570000	-0.280181
	4.575000	-0.247948
	4.580000	-0.341425
	4.585000	-0.380106
	4.590000	-0.289852
	4.595000	-0.247948
	4.600000	-0.344649
	4.605000	-0.392999
	4.610000	-0.296298
	4.615000	-0.251171
	4.620000	-0.351095
	4.625000	-0.392999
	4.630000	-0.289852
	4.635000	-0.257618
	4.640000	-0.351095
	4.645000	-0.392999
	4.650000	-0.293075
	4.655000	-0.254395
	4.660000	-0.344649
	4.665000	-0.396222
	4.670000	-0.293075
	4.675000	-0.244725
	4.680000	-0.344649
	4.685000	-0.386552
	4.690000	-0.299522
	4.695000	-0.254395
	4.700000	-0.344649
	4.705000	-0.383329
	4.710000	-0.289852
	4.715000	-0.244725
	4.720000	-0.341425
	4.725000	-0.383329
	4.730000	-0.293075
	4.735000	-0.238278
	4.740000	-0.338202
	4.745000	-0.386552
	4.750000	-0.286628
	4.755000	-0.247948
	4.760000	-0.338202
	4.765000	-0.376882
	4.770000	-0.289852
	4.775000	-0.244725
	4.780000	-0.334979
	4.785000	-0.376882
	4.790000	-0.280181
	4.795000	-0.238278
	4.800000	-0.331755
	4.805000	-0.376882
	4.810000	-0.280181
	4.815000	-0.238278
	4.820000	-0.331755
	4.825000	-0.370436
	4.830000	-0.280181
	4.835000	-0.235054
	4.840000	-0.328532
	4.845000	-0.376882
	4.850000	-0.283405
	4.855000	-0.225384
	4.860000	-0.322085
	4.865000	-0.373659
	4.870000	-0.273735
	4.875000	-0.225384
	4.880000	-0.318862
	4.885000	-0.370436
	4.890000	-0.276958
	4.895000	-0.225384
	4.900000	-0.318862
	4.905000	-0.363989
	4.910000	-0.273735
	4.915000	-0.225384
	4.920000	-0.318862
	4.925000	-0.360765
	4.930000	-0.273735
	4.935000	-0.225384
	4.940000	-0.322085
	4.945000	-0.360765
	4.950000	-0.267288
	4.955000	-0.228608
	4.960000	-0.318862
	4.965000	-0.367212
	4.970000	-0.267288
	4.975000	-0.225384
	4.980000	-0.312415
	4.985000	-0.360765
	4.990000	-0.270511
	4.995000	-0.225384
	5.000000	-0.318862
	5.005000	-0.360765
	5.010000	-0.267288
	5.015000	-0.222161
	5.020000	-0.315638
	5.025000	-0.360765
	5.030000	-0.264065
	5.035000	-0.215714
	5.040000	-0.315638
	5.045000	-0.360765
	5.050000	-0.264065
	5.055000	-0.222161
	5.060000	-0.315638
	5.065000	-0.360765
	5.070000	-0.267288
	5.075000	-0.215714
	5.080000	-0.312415
	5.085000	-0.360765
	5.090000	-0.260841
	5.095000	-0.215714
	5.100000	-0.312415
	5.105000	-0.360765
	5.110000	-0.267288
	5.115000	-0.218938
	5.120000	-0.309192
	5.125000	-0.357542
	5.130000	-0.264065
	5.135000	-0.215714
	5.140000	-0.309192
	5.145000	-0.357542
	5.150000	-0.264065
	5.155000	-0.212491
	5.160000	-0.309192
	5.165000	-0.357542
	5.170000	-0.267288
	5.175000	-0.212491
	5.180000	-0.309192
	5.185000	-0.357542
	5.190000	-0.257618
	5.195000	-0.212491
	5.200000	-0.309192
	5.205000	-0.354319
	5.210000	-0.260841
	5.215000	-0.209268
	5.220000	-0.309192
	5.225000	-0.354319
	5.230000	-0.260841
	5.235000	-0.206044
	5.240000	-0.302745
	5.245000	-0.351095
	5.250000	-0.257618
	5.255000	-0.212491
	5.260000	-0.302745
	5.265000	-0.354319
	5.270000	-0.257618
	5.275000	-0.209268
	5.280000	-0.296298
	5.285000	-0.351095
	5.290000	-0.260841
	5.295000	-0.209268
	5.300000	-0.302745
	5.305000	-0.351095
	5.310000	-0.260841
	5.315000	-0.209268
	5.320000	-0.302745
	5.325000	-0.347872
	5.330000	-0.254395
	5.335000	-0.209268
	5.340000	-0.296298
	5.345000	-0.347872
	5.350000	-0.254395
	5.355000	-0.199597
	5.360000	-0.296298
	5.365000	-0.351095
	5.370000	-0.251171
	5.375000	-0.202821
	5.380000	-0.293075
	5.385000	-0.351095
	5.390000	-0.254395
	5.395000	-0.202821
	5.400000	-0.293075
	5.405000	-0.344649
	5.410000	-0.257618
	5.415000	-0.202821
	5.420000	-0.293075
	5.425000	-0.341425
	5.430000	-0.247948
	5.435000	-0.202821
	5.440000	-0.296298
	5.445000	-0.344649
	5.450000	-0.247948
	5.455000	-0.193151
	5.460000	-0.293075
	5.465000	-0.344649
	5.470000	-0.247948
	5.475000	-0.199597
	5.480000	-0.293075
	5.485000	-0.351095
	5.490000	-0.247948
	5.495000	-0.196374
	5.500000	-0.289852
	5.505000	-0.341425
	5.510000	-0.244725
	5.515000	-0.196374
	5.520000	-0.289852
	5.525000	-0.338202
	5.530000	-0.238278
	5.535000	-0.196374
	5.540000	-0.280181
	5.545000	-0.334979
	5.550000	-0.238278
	5.555000	-0.193151
	5.560000	-0.289852
	5.565000	-0.338202
	5.570000	-0.244725
	5.575000	-0.196374
	5.580000	-0.283405
	5.585000	-0.338202
	5.590000	-0.244725
	5.595000	-0.193151
	5.600000	-0.286628
	5.605000	-0.331755
	5.610000	-0.244725
	5.615000	-0.189927
	5.620000	-0.283405
	5.625000	-0.331755
	5.630000	-0.238278
	5.635000	-0.183481
	5.640000	-0.276958
	5.645000	-0.331755
	5.650000	-0.238278
	5.655000	-0.186704
	5.660000	-0.286628
	5.665000	-0.328532
	5.670000	-0.231831
	5.675000	-0.180257
	5.680000	-0.276958
	5.685000	-0.328532
	5.690000	-0.235054
	5.695000	-0.186704
	5.700000	-0.273735
	5.705000	-0.325308
	5.710000	-0.235054
	5.715000	-0.186704
	5.720000	-0.280181
	5.725000	-0.331755
	5.730000	-0.238278
	5.735000	-0.177034
	5.740000	-0.273735
	5.745000	-0.331755
	5.750000	-0.235054
	5.755000	-0.183481
	5.760000	-0.283405
	5.765000	-0.328532
	5.770000	-0.231831
	5.775000	-0.180257
	5.780000	-0.276958
	5.785000	-0.325308
	5.790000	-0.231831
	5.795000	-0.186704
	5.800000	-0.273735
	5.805000	-0.331755
	5.810000	-0.231831
	5.815000	-0.177034
	5.820000	-0.270511
	5.825000	-0.328532
	5.830000	-0.238278
	5.835000	-0.180257
	5.840000	-0.276958
	5.845000	-0.331755
	5.850000	-0.235054
	5.855000	-0.186704
	5.860000	-0.276958
	5.865000	-0.328532
	5.870000	-0.238278
	5.875000	-0.183481
	5.880000	-0.280181
	5.885000	-0.328532
	5.890000	-0.238278
	5.895000	-0.186704
	5.900000	-0.276958
	5.905000	-0.325308
	5.910000	-0.241501
	5.915000	-0.183481
	5.920000	-0.276958
	5.925000	-0.328532
	5.930000	-0.238278
	5.935000	-0.186704
	5.940000	-0.273735
	5.945000	-0.325308
	5.950000	-0.238278
	5.955000	-0.177034
	5.960000	-0.270511
	5.965000	-0.318862
	5.970000	-0.222161
	5.975000	-0.173811
	5.980000	-0.270511
	5.985000	-0.315638
	5.990000	-0.225384
	5.995000	-0.164141
	6.000000	-0.254395
	6.005000	-0.302745
	6.010000	-0.209268
	6.015000	-0.154470
	6.020000	-0.241501
	6.025000	-0.280181
	6.030000	-0.189927
	6.035000	-0.131907
	6.040000	-0.228608
	6.045000	-0.273735
	6.050000	-0.177034
	6.055000	-0.122237
	6.060000	-0.212491
	6.065000	-0.260841
	6.070000	-0.173811
	6.075000	-0.112567
	6.080000	-0.206044
	6.085000	-0.257618
	6.090000	-0.167364
	6.095000	-0.112567
	6.100000	-0.199597
	6.105000	-0.251171
	6.110000	-0.160917
	6.115000	-0.106120
	6.120000	-0.196374
	6.125000	-0.244725
	6.130000	-0.151247
	6.135000	-0.093227
	6.140000	-0.183481
	6.145000	-0.231831
	6.150000	-0.135130
	6.155000	-0.083557
	6.160000	-0.160917
	6.165000	-0.218938
	6.170000	-0.122237
	6.175000	-0.064216
	6.180000	-0.141577
	6.185000	-0.199597
	6.190000	-0.106120
	6.195000	-0.057770
	6.200000	-0.131907
	6.205000	-0.180257
	6.210000	-0.093227
	6.215000	-0.035206
	6.220000	-0.119014
	6.225000	-0.167364
	6.230000	-0.073886
	6.235000	-0.022313
	6.240000	-0.106120
	6.245000	-0.151247
	6.250000	-0.060993
	6.255000	-0.006196
	6.260000	-0.086780
	6.265000	-0.131907
	6.270000	-0.041653
	6.275000	0.009921
	6.280000	-0.067440
	6.285000	-0.119014
	6.290000	-0.019089
	6.295000	0.029261
	6.300000	-0.057770
	6.305000	-0.109343
	6.310000	-0.019089
	6.315000	0.038931
	6.320000	-0.048100
	6.325000	-0.096450
	6.330000	-0.012643
	6.335000	0.048601
	6.340000	-0.041653
	6.345000	-0.093227
	6.350000	-0.009419
	6.355000	0.045378
	6.360000	-0.038430
	6.365000	-0.086780
	6.370000	-0.002973
	6.375000	0.042154
	6.380000	-0.041653
	6.385000	-0.096450
	6.390000	-0.012643
	6.395000	0.042154
	6.400000	-0.044876
	6.405000	-0.102897
	6.410000	-0.015866
	6.415000	0.029261
	6.420000	-0.048100
	6.425000	-0.109343
	6.430000	-0.019089
	6.435000	0.022814
	6.440000	-0.060993
	6.445000	-0.115790
	6.450000	-0.038430
	6.455000	0.016368
	6.460000	-0.060993
	6.465000	-0.115790
	6.470000	-0.035206
	6.475000	0.013144
	6.480000	-0.070663
	6.485000	-0.125460
	6.490000	-0.038430
	6.495000	0.009921
	6.500000	-0.070663
	6.505000	-0.131907
	6.510000	-0.041653
	6.515000	0.013144
	6.520000	-0.070663
	6.525000	-0.128684
	6.530000	-0.044876
	6.535000	0.013144
	6.540000	-0.067440
	6.545000	-0.119014
	6.550000	-0.038430
	6.555000	0.016368
	6.560000	-0.067440
	6.565000	-0.122237
	6.570000	-0.038430
	6.575000	0.016368
	6.580000	-0.064216
	6.585000	-0.115790
	6.590000	-0.031983
	6.595000	0.016368
	6.600000	-0.060993
	6.605000	-0.109343
	6.610000	-0.028759
	6.615000	0.022814
	6.620000	-0.057770
	6.625000	-0.112567
	6.630000	-0.028759
	6.635000	0.019591
	6.640000	-0.057770
	6.645000	-0.112567
	6.650000	-0.031983
	6.655000	0.022814
	6.660000	-0.070663
	6.665000	-0.119014
	6.670000	-0.031983
	6.675000	0.019591
	6.680000	-0.060993
	6.685000	-0.115790
	6.690000	-0.035206
	6.695000	0.019591
	6.700000	-0.064216
	6.705000	-0.109343
	6.710000	-0.028759
	6.715000	0.022814
	6.720000	-0.064216
	6.725000	-0.119014
	6.730000	-0.035206
	6.735000	0.013144
	6.740000	-0.064216
	6.745000	-0.122237
	6.750000	-0.041653
	6.755000	0.009921
	6.760000	-0.070663
	6.765000	-0.128684
	6.770000	-0.044876
	6.775000	0.009921
	6.780000	-0.080333
	6.785000	-0.128684
	6.790000	-0.051323
	6.795000	0.000251
	6.800000	-0.083557
	6.805000	-0.138354
	6.810000	-0.057770
	6.815000	-0.002973
	6.820000	-0.093227
	6.825000	-0.148024
	6.830000	-0.067440
	6.835000	-0.015866
	6.840000	-0.106120
	6.845000	-0.154470
	6.850000	-0.083557
	6.855000	-0.038430
	6.860000	-0.122237
	6.865000	-0.177034
	6.870000	-0.102897
	6.875000	-0.060993
	6.880000	-0.141577
	6.885000	-0.209268
	6.890000	-0.122237
	6.895000	-0.086780
	6.900000	-0.173811
	6.905000	-0.235054
	6.910000	-0.154470
	6.915000	-0.106120
	6.920000	-0.202821
	6.925000	-0.260841
	6.930000	-0.186704
	6.935000	-0.138354
	6.940000	-0.225384
	6.945000	-0.283405
	6.950000	-0.202821
	6.955000	-0.154470
	6.960000	-0.247948
	6.965000	-0.302745
	6.970000	-0.212491
	6.975000	-0.164141
	6.980000	-0.257618
	6.985000	-0.305968
	6.990000	-0.228608
	6.995000	-0.170587
	7.000000	-0.257618
	7.005000	-0.318862
	7.010000	-0.235054
	7.015000	-0.177034
	7.020000	-0.267288
	7.025000	-0.325308
	7.030000	-0.235054
	7.035000	-0.189927
	7.040000	-0.273735
	7.045000	-0.325308
	7.050000	-0.241501
	7.055000	-0.189927
	7.060000	-0.280181
	7.065000	-0.334979
	7.070000	-0.247948
	7.075000	-0.189927
	7.080000	-0.280181
	7.085000	-0.338202
	7.090000	-0.247948
	7.095000	-0.196374
	7.100000	-0.283405
	7.105000	-0.341425
	7.110000	-0.244725
	7.115000	-0.193151
	7.120000	-0.286628
	7.125000	-0.341425
	7.130000	-0.254395
	7.135000	-0.202821
	7.140000	-0.286628
	7.145000	-0.334979
	7.150000	-0.251171
	7.155000	-0.199597
	7.160000	-0.289852
	7.165000	-0.341425
	7.170000	-0.254395
	7.175000	-0.202821
	7.180000	-0.286628
	7.185000	-0.341425
	7.190000	-0.254395
	7.195000	-0.209268
	7.200000	-0.289852
	7.205000	-0.344649
	7.210000	-0.254395
	7.215000	-0.199597
	7.220000	-0.283405
	7.225000	-0.351095
	7.230000	-0.254395
	7.235000	-0.202821
	7.240000	-0.283405
	7.245000	-0.344649
	7.250000	-0.264065
	7.255000	-0.202821
	7.260000	-0.289852
	7.265000	-0.338202
	7.270000	-0.254395
	7.275000	-0.202821
	7.280000	-0.283405
	7.285000	-0.344649
	7.290000	-0.260841
	7.295000	-0.196374
	7.300000	-0.280181
	7.305000	-0.338202
	7.310000	-0.251171
	7.315000	-0.199597
	7.320000	-0.280181
	7.325000	-0.338202
	7.330000	-0.251171
	7.335000	-0.196374
	7.340000	-0.276958
	7.345000	-0.338202
	7.350000	-0.241501
	7.355000	-0.189927
	7.360000	-0.273735
	7.365000	-0.334979
	7.370000	-0.247948
	7.375000	-0.186704
	7.380000	-0.280181
	7.385000	-0.331755
	7.390000	-0.241501
	7.395000	-0.186704
	7.400000	-0.270511
	7.405000	-0.331755
	7.410000	-0.244725
	7.415000	-0.186704
	7.420000	-0.270511
	7.425000	-0.328532
	7.430000	-0.241501
	7.435000	-0.189927
	7.440000	-0.267288
	7.445000	-0.325308
	7.450000	-0.241501
	7.455000	-0.183481
	7.460000	-0.270511
	7.465000	-0.328532
	7.470000	-0.241501
	7.475000	-0.180257
	7.480000	-0.267288
	7.485000	-0.318862
	7.490000	-0.235054
	7.495000	-0.173811
	7.500000	-0.264065
	7.505000	-0.325308
	7.510000	-0.241501
	7.515000	-0.180257
	7.520000	-0.257618
	7.525000	-0.315638
	7.530000	-0.228608
	7.535000	-0.177034
	7.540000	-0.264065
	7.545000	-0.318862
	7.550000	-0.231831
	7.555000	-0.167364
	7.560000	-0.264065
	7.565000	-0.318862
	7.570000	-0.231831
	7.575000	-0.177034
	7.580000	-0.260841
	7.585000	-0.322085
	7.590000	-0.235054
	7.595000	-0.173811
	7.600000	-0.260841
	7.605000	-0.315638
	7.610000	-0.231831
	7.615000	-0.170587
	7.620000	-0.257618
	7.625000	-0.312415
	7.630000	-0.228608
	7.635000	-0.173811
	7.640000	-0.254395
	7.645000	-0.312415
	7.650000	-0.225384
	7.655000	-0.167364
	7.660000	-0.257618
	7.665000	-0.315638
	7.670000	-0.228608
	7.675000	-0.160917
	7.680000	-0.251171
	7.685000	-0.305968
	7.690000	-0.218938
	7.695000	-0.164141
	7.700000	-0.251171
	7.705000	-0.309192
	7.710000	-0.222161
	7.715000	-0.164141
	7.720000	-0.251171
	7.725000	-0.315638
	7.730000	-0.225384
	7.735000	-0.167364
	7.740000	-0.254395
	7.745000	-0.312415
	7.750000	-0.222161
	7.755000	-0.167364
	7.760000	-0.251171
	7.765000	-0.309192
	7.770000	-0.218938
	7.775000	-0.167364
	7.780000	-0.251171
	7.785000	-0.312415
	7.790000	-0.218938
	7.795000	-0.170587
	7.800000	-0.251171
	7.805000	-0.305968
	7.810000	-0.222161
	7.815000	-0.157694
	7.820000	-0.244725
	7.825000	-0.309192
	7.830000	-0.222161
	7.835000	-0.160917
	7.840000	-0.251171
	7.845000	-0.305968
	7.850000	-0.222161
	7.855000	-0.167364
	7.860000	-0.247948
	7.865000	-0.315638
	7.870000	-0.222161
	7.875000	-0.154470
	7.880000	-0.247948
	7.885000	-0.309192
	7.890000	-0.212491
	7.895000	-0.154470
	7.900000	-0.244725
	7.905000	-0.309192
	7.910000	-0.225384
	7.915000	-0.157694
	7.920000	-0.244725
	7.925000	-0.305968
	7.930000	-0.218938
	7.935000	-0.151247
	7.940000	-0.251171
	7.945000	-0.309192
	7.950000	-0.225384
	7.955000	-0.154470
	7.960000	-0.244725
	7.965000	-0.305968
	7.970000	-0.218938
	7.975000	-0.154470
	7.980000	-0.241501
	7.985000	-0.305968
	7.990000	-0.218938
	7.995000	-0.157694
	8.000000	-0.238278
	8.005000	-0.302745
	8.010000	-0.215714
	8.015000	-0.154470
	8.020000	-0.244725
	8.025000	-0.293075
	8.030000	-0.218938
	8.035000	-0.157694
	8.040000	-0.238278
	8.045000	-0.302745
	8.050000	-0.215714
	8.055000	-0.154470
	8.060000	-0.241501
	8.065000	-0.296298
	8.070000	-0.218938
	8.075000	-0.148024
	8.080000	-0.238278
	8.085000	-0.299522
	8.090000	-0.218938
	8.095000	-0.151247
	8.100000	-0.244725
	8.105000	-0.305968
	8.110000	-0.218938
	8.115000	-0.151247
	8.120000	-0.241501
	8.125000	-0.299522
	8.130000	-0.212491
	8.135000	-0.154470
	8.140000	-0.235054
	8.145000	-0.305968
	8.150000	-0.212491
	8.155000	-0.148024
	8.160000	-0.238278
	8.165000	-0.305968
	8.170000	-0.209268
	8.175000	-0.157694
	8.180000	-0.244725
	8.185000	-0.302745
	8.190000	-0.209268
	8.195000	-0.157694
	8.200000	-0.241501
	8.205000	-0.299522
	8.210000	-0.212491
	8.215000	-0.148024
	8.220000	-0.244725
	8.225000	-0.305968
	8.230000	-0.209268
	8.235000	-0.157694
	8.240000	-0.241501
	8.245000	-0.299522
	8.250000	-0.212491
	8.255000	-0.154470
	8.260000	-0.244725
	8.265000	-0.299522
	8.270000	-0.209268
	8.275000	-0.151247
	8.280000	-0.238278
	8.285000	-0.302745
	8.290000	-0.215714
	8.295000	-0.154470
	8.300000	-0.238278
	8.305000	-0.296298
	8.310000	-0.206044
	8.315000	-0.154470
	8.320000	-0.231831
	8.325000	-0.293075
	8.330000	-0.206044
	8.335000	-0.144800
	8.340000	-0.235054
	8.345000	-0.299522
	8.350000	-0.209268
	8.355000	-0.148024
	8.360000	-0.228608
	8.365000	-0.293075
	8.370000	-0.209268
	8.375000	-0.144800
	8.380000	-0.235054
	8.385000	-0.293075
	8.390000	-0.202821
	8.395000	-0.148024
	8.400000	-0.225384
	8.405000	-0.283405
	8.410000	-0.199597
	8.415000	-0.141577
	8.420000	-0.228608
	8.425000	-0.286628
	8.430000	-0.199597
	8.435000	-0.141577
	8.440000	-0.222161
	8.445000	-0.289852
	8.450000	-0.196374
	8.455000	-0.141577
	8.460000	-0.225384
	8.465000	-0.289852
	8.470000	-0.202821
	8.475000	-0.138354
	8.480000	-0.222161
	8.485000	-0.283405
	8.490000	-0.199597
	8.495000	-0.135130
	8.500000	-0.218938
	8.505000	-0.286628
	8.510000	-0.193151
	8.515000	-0.131907
	8.520000	-0.218938
	8.525000	-0.286628
	8.530000	-0.199597
	8.535000	-0.135130
	8.540000	-0.222161
	8.545000	-0.276958
	8.550000	-0.196374
	8.555000	-0.135130
	8.560000	-0.218938
	8.565000	-0.286628
	8.570000	-0.199597
	8.575000	-0.135130
	8.580000	-0.222161
	8.585000	-0.289852
	8.590000	-0.202821
	8.595000	-0.138354
	8.600000	-0.225384
	8.605000	-0.289852
	8.610000	-0.196374
	8.615000	-0.144800
	8.620000	-0.228608
	8.625000	-0.286628
	8.630000	-0.199597
	8.635000	-0.138354
	8.640000	-0.225384
	8.645000	-0.286628
	8.650000	-0.196374
	8.655000	-0.135130
	8.660000	-0.209268
	8.665000	-0.273735
	8.670000	-0.180257
	8.675000	-0.125460
	8.680000	-0.199597
	8.685000	-0.260841
	8.690000	-0.167364
	8.695000	-0.102897
	8.700000	-0.186704
	8.705000	-0.247948
	8.710000	-0.160917
	8.715000	-0.093227
	8.720000	-0.177034
	8.725000	-0.238278
	8.730000	-0.135130
	8.735000	-0.073886
	8.740000	-0.154470
	8.745000	-0.212491
	8.750000	-0.122237
	8.755000	-0.057770
	8.760000	-0.135130
	8.765000	-0.199597
	8.770000	-0.109343
	8.775000	-0.044876
	8.780000	-0.122237
	8.785000	-0.180257
	8.790000	-0.090003
	8.795000	-0.015866
	8.800000	-0.096450
	8.805000	-0.148024
	8.810000	-0.060993
	8.815000	0.006697
	8.820000	-0.067440
	8.825000	-0.119014
	8.830000	-0.031983
	8.835000	0.038931
	8.840000	-0.035206
	8.845000	-0.080333
	8.850000	0.009921
	8.855000	0.071165
	8.860000	-0.009419
	8.865000	-0.057770
	8.870000	0.022814
	8.875000	0.087281
	8.880000	0.013144
	8.885000	-0.048100
	8.890000	0.042154
	8.895000	0.103398
	8.900000	0.016368
	8.905000	-0.035206
	8.910000	0.045378
	8.915000	0.103398
	8.920000	0.016368
	8.925000	-0.038430
	8.930000	0.042154
	8.935000	0.103398
	8.940000	0.022814
	8.945000	-0.038430
	8.950000	0.035708
	8.955000	0.100175
	8.960000	0.022814
	8.965000	-0.038430
	8.970000	0.038931
	8.975000	0.093728
	8.980000	0.022814
	8.985000	-0.038430
	8.990000	0.038931
	8.995000	0.090505
	9.000000	0.013144
	9.005000	-0.054546
	9.010000	0.032484
	9.015000	0.084058
	9.020000	0.013144
	9.025000	-0.044876
	9.030000	0.022814
	9.035000	0.087281
	9.040000	0.006697
	9.045000	-0.051323
	9.050000	0.022814
	9.055000	0.080835
	9.060000	0.006697
	9.065000	-0.054546
	9.070000	0.026038
	9.075000	0.080835
	9.080000	0.003474
	9.085000	-0.057770
	9.090000	0.032484
	9.095000	0.084058
	9.100000	0.006697
	9.105000	-0.057770
	9.110000	0.026038
	9.115000	0.080835
	9.120000	0.009921
	9.125000	-0.051323
	9.130000	0.026038
	9.135000	0.090505
	9.140000	0.009921
	9.145000	-0.044876
	9.150000	0.029261
	9.155000	0.090505
	9.160000	0.000251
	9.165000	-0.051323
	9.170000	0.022814
	9.175000	0.077611
	9.180000	0.003474
	9.185000	-0.057770
	9.190000	0.026038
	9.195000	0.077611
	9.200000	-0.002973
	9.205000	-0.060993
	9.210000	0.009921
	9.215000	0.067941
	9.220000	-0.006196
	9.225000	-0.060993
	9.230000	0.009921
	9.235000	0.067941
	9.240000	-0.015866
	9.245000	-0.073886
	9.250000	0.006697
	9.255000	0.061495
	9.260000	-0.019089
	9.265000	-0.080333
	9.270000	0.000251
	9.275000	0.058271
	9.280000	-0.019089
	9.285000	-0.086780
	9.290000	-0.002973
	9.295000	0.048601
	9.300000	-0.031983
	9.305000	-0.083557
	9.310000	-0.012643
	9.315000	0.042154
	9.320000	-0.044876
	9.325000	-0.106120
	9.330000	-0.025536
	9.335000	0.032484
	9.340000	-0.054546
	9.345000	-0.109343
	9.350000	-0.038430
	9.355000	0.013144
	9.360000	-0.073886
	9.365000	-0.138354
	9.370000	-0.064216
	9.375000	-0.009419
	9.380000	-0.099673
	9.385000	-0.160917
	9.390000	-0.086780
	9.395000	-0.041653
	9.400000	-0.125460
	9.405000	-0.186704
	9.410000	-0.112567
	9.415000	-0.060993
	9.420000	-0.141577
	9.425000	-0.209268
	9.430000	-0.135130
	9.435000	-0.083557
	9.440000	-0.170587
	9.445000	-0.231831
	9.450000	-0.160917
	9.455000	-0.102897
	9.460000	-0.186704
	9.465000	-0.251171
	9.470000	-0.170587
	9.475000	-0.115790
	9.480000	-0.202821
	9.485000	-0.264065
	9.490000	-0.189927
	9.495000	-0.131907
	9.500000	-0.209268
	9.505000	-0.273735
	9.510000	-0.199597
	9.515000	-0.138354
	9.520000	-0.222161
	9.525000	-0.283405
	9.530000	-0.206044
	9.535000	-0.148024
	9.540000	-0.225384
	9.545000	-0.293075
	9.550000	-0.212491
	9.555000	-0.151247
	9.560000	-0.231831
	9.565000	-0.296298
	9.570000	-0.212491
	9.575000	-0.154470
	9.580000	-0.231831
	9.585000	-0.289852
	9.590000	-0.206044
	9.595000	-0.144800
	9.600000	-0.235054
	9.605000	-0.293075
	9.610000	-0.209268
	9.615000	-0.144800
	9.620000	-0.228608
	9.625000	-0.293075
	9.630000	-0.209268
	9.635000	-0.151247
	9.640000	-0.235054
	9.645000	-0.296298
	9.650000	-0.202821
	9.655000	-0.144800
	9.660000	-0.231831
	9.665000	-0.296298
	9.670000	-0.209268
	9.675000	-0.148024
	9.680000	-0.228608
	9.685000	-0.283405
	9.690000	-0.202821
	9.695000	-0.138354
	9.700000	-0.222161
	9.705000	-0.286628
	9.710000	-0.202821
	9.715000	-0.141577
	9.720000	-0.225384
	9.725000	-0.276958
	9.730000	-0.193151
	9.735000	-0.131907
	9.740000	-0.212491
	9.745000	-0.276958
	9.750000	-0.193151
	9.755000	-0.125460
	9.760000	-0.209268
	9.765000	-0.267288
	9.770000	-0.186704
	9.775000	-0.125460
	9.780000	-0.202821
	9.785000	-0.264065
	9.790000	-0.180257
	9.795000	-0.119014
	9.800000	-0.202821
	9.805000	-0.264065
	9.810000	-0.186704
	9.815000	-0.119014
	9.820000	-0.209268
	9.825000	-0.270511
	9.830000	-0.186704
	9.835000	-0.119014
	9.840000	-0.199597
	9.845000	-0.267288
	9.850000	-0.180257
	9.855000	-0.122237
	9.860000	-0.206044
	9.865000	-0.270511
	9.870000	-0.180257
	9.875000	-0.122237
	9.880000	-0.202821
	9.885000	-0.264065
	9.890000	-0.183481
	9.895000	-0.119014
	9.900000	-0.209268
	9.905000	-0.270511
	9.910000	-0.186704
	9.915000	-0.119014
	9.920000	-0.209268
	9.925000	-0.270511
	9.930000	-0.183481
	9.935000	-0.122237
	9.940000	-0.206044
	9.945000	-0.267288
	9.950000	-0.193151
	9.955000	-0.125460
	9.960000	-0.209268
	9.965000	-0.276958
	9.970000	-0.183481
	9.975000	-0.125460
	9.980000	-0.209268
	9.985000	-0.273735
	9.990000	-0.186704
	9.995000	-0.122237
	10.000000	-0.209268
	10.005000	-0.267288
	10.010000	-0.177034
	10.015000	-0.122237
	10.020000	-0.202821
	10.025000	-0.273735
	10.030000	-0.183481
	10.035000	-0.119014
	10.040000	-0.202821
	10.045000	-0.270511
	10.050000	-0.186704
	10.055000	-0.115790
	10.060000	-0.202821
	10.065000	-0.267288
	10.070000	-0.183481
	10.075000	-0.119014
	10.080000	-0.196374
	10.085000	-0.267288
	10.090000	-0.177034
	10.095000	-0.122237
	10.100000	-0.199597
	10.105000	-0.267288
	10.110000	-0.183481
	10.115000	-0.115790
	10.120000	-0.202821
	10.125000	-0.264065
	10.130000	-0.183481
	10.135000	-0.119014
	10.140000	-0.202821
	10.145000	-0.270511
	10.150000	-0.180257
	10.155000	-0.119014
	10.160000	-0.199597
	10.165000	-0.257618
	10.170000	-0.180257
	10.175000	-0.115790
	10.180000	-0.193151
	10.185000	-0.260841
	10.190000	-0.177034
	10.195000	-0.119014
	10.200000	-0.202821
	10.205000	-0.267288
	10.210000	-0.180257
	10.215000	-0.112567
	10.220000	-0.202821
	10.225000	-0.264065
	10.230000	-0.180257
	10.235000	-0.115790
	10.240000	-0.199597
	10.245000	-0.257618
	10.250000	-0.177034
	10.255000	-0.112567
	10.260000	-0.196374
	10.265000	-0.264065
	10.270000	-0.177034
	10.275000	-0.109343
	10.280000	-0.199597
	10.285000	-0.260841
	10.290000	-0.173811
	10.295000	-0.109343
	10.300000	-0.196374
	10.305000	-0.260841
	10.310000	-0.173811
	10.315000	-0.106120
	10.320000	-0.199597
	10.325000	-0.260841
	10.330000	-0.177034
	10.335000	-0.106120
	10.340000	-0.196374
	10.345000	-0.264065
	10.350000	-0.177034
	10.355000	-0.112567
	10.360000	-0.193151
	10.365000	-0.260841
	10.370000	-0.177034
	10.375000	-0.109343
	10.380000	-0.202821
	10.385000	-0.257618
	10.390000	-0.177034
	10.395000	-0.109343
	10.400000	-0.196374
	10.405000	-0.257618
	10.410000	-0.167364
	10.415000	-0.119014
	10.420000	-0.199597
	10.425000	-0.264065
	10.430000	-0.177034
	10.435000	-0.115790
	10.440000	-0.193151
	10.445000	-0.264065
	10.450000	-0.173811
	10.455000	-0.109343
	10.460000	-0.202821
	10.465000	-0.260841
	10.470000	-0.177034
	10.475000	-0.115790
	10.480000	-0.199597
	10.485000	-0.260841
	10.490000	-0.177034
	10.495000	-0.112567
	10.500000	-0.196374
	10.505000	-0.257618
	10.510000	-0.173811
	10.515000	-0.109343
	10.520000	-0.199597
	10.525000	-0.260841
	10.530000	-0.170587
	10.535000	-0.109343
	10.540000	-0.199597
	10.545000	-0.260841
	10.550000	-0.177034
	10.555000	-0.106120
	10.560000	-0.202821
	10.565000	-0.260841
	10.570000	-0.177034
	10.575000	-0.109343
	10.580000	-0.193151
	10.585000	-0.251171
	10.590000	-0.177034
	10.595000	-0.106120
	10.600000	-0.193151
	10.605000	-0.260841
	10.610000	-0.170587
	10.615000	-0.109343
	10.620000	-0.193151
	10.625000	-0.254395
	10.630000	-0.170587
	10.635000	-0.112567
	10.640000	-0.189927
	10.645000	-0.257618
	10.650000	-0.170587
	10.655000	-0.109343
	10.660000	-0.193151
	10.665000	-0.260841
	10.670000	-0.167364
	10.675000	-0.109343
	10.680000	-0.193151
	10.685000	-0.257618
	10.690000	-0.170587
	10.695000	-0.109343
	10.700000	-0.189927
	10.705000	-0.254395
	10.710000	-0.167364
	10.715000	-0.106120
	10.720000	-0.196374
	10.725000	-0.254395
	10.730000	-0.167364
	10.735000	-0.106120
	10.740000	-0.193151
	10.745000	-0.251171
	10.750000	-0.164141
	10.755000	-0.106120
	10.760000	-0.193151
	10.765000	-0.251171
	10.770000	-0.167364
	10.775000	-0.109343
	10.780000	-0.196374
	10.785000	-0.251171
	10.790000	-0.167364
	10.795000	-0.102897
	10.800000	-0.193151
	10.805000	-0.251171
	10.810000	-0.173811
	10.815000	-0.102897
	10.820000	-0.193151
	10.825000	-0.257618
	10.830000	-0.164141
	10.835000	-0.109343
	10.840000	-0.189927
	10.845000	-0.251171
	10.850000	-0.167364
	10.855000	-0.099673
	10.860000	-0.189927
	10.865000	-0.247948
	10.870000	-0.164141
	10.875000	-0.102897
	10.880000	-0.193151
	10.885000	-0.251171
	10.890000	-0.164141
	10.895000	-0.099673
	10.900000	-0.186704
	10.905000	-0.251171
	10.910000	-0.160917
	10.915000	-0.099673
	10.920000	-0.180257
	10.925000	-0.254395
	10.930000	-0.157694
	10.935000	-0.099673
	10.940000	-0.183481
	10.945000	-0.244725
	10.950000	-0.160917
	10.955000	-0.093227
	10.960000	-0.183481
	10.965000	-0.241501
	10.970000	-0.157694
	10.975000	-0.096450
	10.980000	-0.173811
	10.985000	-0.244725
	10.990000	-0.157694
	10.995000	-0.093227
	11.000000	-0.177034
	11.005000	-0.241501
	11.010000	-0.151247
	11.015000	-0.093227
	11.020000	-0.177034
	11.025000	-0.241501
	11.030000	-0.148024
	11.035000	-0.090003
	11.040000	-0.170587
	11.045000	-0.238278
	11.050000	-0.148024
	11.055000	-0.086780
	11.060000	-0.167364
	11.065000	-0.231831
	11.070000	-0.148024
	11.075000	-0.090003
	11.080000	-0.170587
	11.085000	-0.238278
	11.090000	-0.148024
	11.095000	-0.083557
	11.100000	-0.183481
	11.105000	-0.235054
	11.110000	-0.154470
	11.115000	-0.086780
	11.120000	-0.177034
	11.125000	-0.244725
	11.130000	-0.151247
	11.135000	-0.096450
	11.140000	-0.177034
	11.145000	-0.241501
	11.150000	-0.154470
	11.155000	-0.093227
	11.160000	-0.180257
	11.165000	-0.244725
	11.170000	-0.157694
	11.175000	-0.093227
	11.180000	-0.186704
	11.185000	-0.251171
	11.190000	-0.154470
	11.195000	-0.096450
	11.200000	-0.186704
	11.205000	-0.244725
	11.210000	-0.157694
	11.215000	-0.096450
	11.220000	-0.180257
	11.225000	-0.247948
	11.230000	-0.157694
	11.235000	-0.093227
	11.240000	-0.183481
	11.245000	-0.238278
	11.250000	-0.157694
	11.255000	-0.083557
	11.260000	-0.177034
	11.265000	-0.241501
	11.270000	-0.154470
	11.275000	-0.090003
	11.280000	-0.173811
	11.285000	-0.235054
	11.290000	-0.148024
	11.295000	-0.083557
	11.300000	-0.164141
	11.305000	-0.231831
	11.310000	-0.144800
	11.315000	-0.077110
	11.320000	-0.160917
	11.325000	-0.228608
	11.330000	-0.135130
	11.335000	-0.073886
	11.340000	-0.154470
	11.345000	-0.218938
	11.350000	-0.138354
	11.355000	-0.073886
	11.360000	-0.151247
	11.365000	-0.212491
	11.370000	-0.122237
	11.375000	-0.057770
	11.380000	-0.141577
	11.385000	-0.209268
	11.390000	-0.112567
	11.395000	-0.057770
	11.400000	-0.135130
	11.405000	-0.199597
	11.410000	-0.102897
	11.415000	-0.044876
	11.420000	-0.122237
	11.425000	-0.186704
	11.430000	-0.099673
	11.435000	-0.038430
	11.440000	-0.115790
	11.445000	-0.170587
	11.450000	-0.086780
	11.455000	-0.028759
	11.460000	-0.106120
	11.465000	-0.164141
	11.470000	-0.077110
	11.475000	-0.012643
	11.480000	-0.096450
	11.485000	-0.151247
	11.490000	-0.060993
	11.495000	-0.002973
	11.500000	-0.080333
	11.505000	-0.148024
	11.510000	-0.057770
	11.515000	0.000251
	11.520000	-0.080333
	11.525000	-0.138354
	11.530000	-0.051323
	11.535000	0.006697
	11.540000	-0.073886
	11.545000	-0.131907
	11.550000	-0.044876
	11.555000	0.013144
	11.560000	-0.070663
	11.565000	-0.131907
	11.570000	-0.038430
	11.575000	0.019591
	11.580000	-0.064216
	11.585000	-0.122237
	11.590000	-0.038430
	11.595000	0.029261
	11.600000	-0.057770
	11.605000	-0.115790
	11.610000	-0.025536
	11.615000	0.035708
	11.620000	-0.041653
	11.625000	-0.099673
	11.630000	-0.012643
	11.635000	0.045378
	11.640000	-0.035206
	11.645000	-0.093227
	11.650000	-0.009419
	11.655000	0.055048
	11.660000	-0.031983
	11.665000	-0.083557
	11.670000	0.006697
	11.675000	0.067941
	11.680000	-0.012643
	11.685000	-0.077110
	11.690000	0.016368
	11.695000	0.074388
	11.700000	-0.009419
	11.705000	-0.067440
	11.710000	0.016368
	11.715000	0.080835
	11.720000	-0.002973
	11.725000	-0.060993
	11.730000	0.019591
	11.735000	0.077611
	11.740000	0.003474
	11.745000	-0.060993
	11.750000	0.022814
	11.755000	0.080835
	11.760000	-0.002973
	11.765000	-0.064216
	11.770000	0.019591
	11.775000	0.077611
	11.780000	-0.006196
	11.785000	-0.067440
	11.790000	0.019591
	11.795000	0.071165
	11.800000	-0.012643
	11.805000	-0.064216
	11.810000	0.019591
	11.815000	0.067941
	11.820000	-0.006196
	11.825000	-0.064216
	11.830000	0.009921
	11.835000	0.074388
	11.840000	0.000251
	11.845000	-0.060993
	11.850000	0.026038
	11.855000	0.077611
	11.860000	-0.006196
	11.865000	-0.064216
	11.870000	0.022814
	11.875000	0.074388
	11.880000	0.009921
	11.885000	-0.057770
	11.890000	0.022814
	11.895000	0.080835
	11.900000	-0.002973
	11.905000	-0.051323
	11.910000	0.029261
	11.915000	0.084058
	11.920000	0.006697
	11.925000	-0.054546
	11.930000	0.026038
	11.935000	0.087281
	11.940000	0.000251
	11.945000	-0.054546
	11.950000	0.026038
	11.955000	0.084058
	11.960000	-0.006196
	11.965000	-0.060993
	11.970000	0.029261
	11.975000	0.077611
	11.980000	0.003474
	11.985000	-0.057770
	11.990000	0.019591
	11.995000	0.084058
	12.000000	-0.006196
	12.005000	-0.057770
	12.010000	0.026038
	12.015000	0.077611
	12.020000	-0.006196
	12.025000	-0.067440
	12.030000	0.019591
	12.035000	0.074388
	12.040000	-0.009419
	12.045000	-0.064216
	12.050000	0.013144
	12.055000	0.064718
	12.060000	-0.006196
	12.065000	-0.067440
	12.070000	0.009921
	12.075000	0.064718
	12.080000	-0.012643
	12.085000	-0.070663
	12.090000	0.003474
	12.095000	0.058271
	12.100000	-0.022313
	12.105000	-0.080333
	12.110000	0.000251
	12.115000	0.051825
	12.120000	-0.031983
	12.125000	-0.093227
	12.130000	-0.015866
	12.135000	0.045378
	12.140000	-0.048100
	12.145000	-0.102897
	12.150000	-0.031983
	12.155000	0.019591
	12.160000	-0.060993
	12.165000	-0.128684
	12.170000	-0.054546
	12.175000	0.000251
	12.180000	-0.086780
	12.185000	-0.151247
	12.190000	-0.070663
	12.195000	-0.015866
	12.200000	-0.106120
	12.205000	-0.167364
	12.210000	-0.086780
	12.215000	-0.038430
	12.220000	-0.115790
	12.225000	-0.183481
	12.230000	-0.096450
	12.235000	-0.048100
	12.240000	-0.131907
	12.245000	-0.196374
	12.250000	-0.115790
	12.255000	-0.054546
	12.260000	-0.144800
	12.265000	-0.206044
	12.270000	-0.119014
	12.275000	-0.064216
	12.280000	-0.154470
	12.285000	-0.212491
	12.290000	-0.131907
	12.295000	-0.077110
	12.300000	-0.154470
	12.305000	-0.212491
	12.310000	-0.135130
	12.315000	-0.070663
	12.320000	-0.160917
	12.325000	-0.218938
	12.330000	-0.131907
	12.335000	-0.077110
	12.340000	-0.160917
	12.345000	-0.212491
	12.350000	-0.128684
	12.355000	-0.073886
	12.360000	-0.160917
	12.365000	-0.218938
	12.370000	-0.125460
	12.375000	-0.077110
	12.380000	-0.160917
	12.385000	-0.218938
	12.390000	-0.128684
	12.395000	-0.073886
	12.400000	-0.160917
	12.405000	-0.222161
	12.410000	-0.135130
	12.415000	-0.073886
	12.420000	-0.164141
	12.425000	-0.225384
	12.430000	-0.135130
	12.435000	-0.073886
	12.440000	-0.164141
	12.445000	-0.222161
	12.450000	-0.135130
	12.455000	-0.080333
	12.460000	-0.167364
	12.465000	-0.222161
	12.470000	-0.141577
	12.475000	-0.080333
	12.480000	-0.164141
	12.485000	-0.225384
	12.490000	-0.141577
	12.495000	-0.077110
	12.500000	-0.167364
	12.505000	-0.228608
	12.510000	-0.135130
	12.515000	-0.080333
	12.520000	-0.164141
	12.525000	-0.228608
	12.530000	-0.138354
	12.535000	-0.080333
	12.540000	-0.170587
	12.545000	-0.231831
	12.550000	-0.144800
	12.555000	-0.086780
	12.560000	-0.173811
	12.565000	-0.231831
	12.570000	-0.148024
	12.575000	-0.090003
	12.580000	-0.180257
	12.585000	-0.231831
	12.590000	-0.141577
	12.595000	-0.083557
	12.600000	-0.173811
	12.605000	-0.231831
	12.610000	-0.141577
	12.615000	-0.086780
	12.620000	-0.167364
	12.625000	-0.228608
	12.630000	-0.148024
	12.635000	-0.083557
	12.640000	-0.177034
	12.645000	-0.228608
	12.650000	-0.141577
	12.655000	-0.083557
	12.660000	-0.177034
	12.665000	-0.238278
	12.670000	-0.144800
	12.675000	-0.083557
	12.680000	-0.173811
	12.685000	-0.228608
	12.690000	-0.138354
	12.695000	-0.080333
	12.700000	-0.173811
	12.705000	-0.228608
	12.710000	-0.138354
	12.715000	-0.083557
	12.720000	-0.173811
	12.725000	-0.225384
	12.730000	-0.141577
	12.735000	-0.080333
	12.740000	-0.173811
	12.745000	-0.222161
	12.750000	-0.135130
	12.755000	-0.073886
	12.760000	-0.164141
	12.765000	-0.225384
	12.770000	-0.138354
	12.775000	-0.077110
	12.780000	-0.170587
	12.785000	-0.228608
	12.790000	-0.128684
	12.795000	-0.077110
	12.800000	-0.160917
	12.805000	-0.225384
	12.810000	-0.131907
	12.815000	-0.073886
	12.820000	-0.167364
	12.825000	-0.222161
	12.830000	-0.131907
	12.835000	-0.080333
	12.840000	-0.157694
	12.845000	-0.215714
	12.850000	-0.125460
	12.855000	-0.070663
	12.860000	-0.160917
	12.865000	-0.218938
	12.870000	-0.128684
	12.875000	-0.073886
	12.880000	-0.160917
	12.885000	-0.222161
	12.890000	-0.125460
	12.895000	-0.073886
	12.900000	-0.151247
	12.905000	-0.218938
	12.910000	-0.125460
	12.915000	-0.067440
	12.920000	-0.157694
	12.925000	-0.215714
	12.930000	-0.122237
	12.935000	-0.067440
	12.940000	-0.154470
	12.945000	-0.215714
	12.950000	-0.128684
	12.955000	-0.064216
	12.960000	-0.151247
	12.965000	-0.212491
	12.970000	-0.125460
	12.975000	-0.064216
	12.980000	-0.151247
	12.985000	-0.212491
	12.990000	-0.119014
	12.995000	-0.060993
	13.000000	-0.160917
	13.005000	-0.212491
	13.010000	-0.122237
	13.015000	-0.060993
	13.020000	-0.148024
	13.025000	-0.215714
	13.030000	-0.119014
	13.035000	-0.067440
	13.040000	-0.151247
	13.045000	-0.212491
	13.050000	-0.125460
	13.055000	-0.064216
	13.060000	-0.154470
	13.065000	-0.212491
	13.070000	-0.122237
	13.075000	-0.060993
	13.080000	-0.151247
	13.085000	-0.209268
	13.090000	-0.119014
	13.095000	-0.060993
	13.100000	-0.154470
	13.105000	-0.212491
	13.110000	-0.119014
	13.115000	-0.060993
	13.120000	-0.157694
	13.125000	-0.206044
	13.130000	-0.122237
	13.135000	-0.057770
	13.140000	-0.157694
	13.145000	-0.209268
	13.150000	-0.119014
	13.155000	-0.064216
	13.160000	-0.148024
	13.165000	-0.202821
	13.170000	-0.125460
	13.175000	-0.064216
	13.180000	-0.151247
	13.185000	-0.212491
	13.190000	-0.115790
	13.195000	-0.060993
	13.200000	-0.151247
	13.205000	-0.206044
	13.210000	-0.115790
	13.215000	-0.060993
	13.220000	-0.154470
	13.225000	-0.206044
	13.230000	-0.125460
	13.235000	-0.054546
	13.240000	-0.151247
	13.245000	-0.209268
	13.250000	-0.119014
	13.255000	-0.060993
	13.260000	-0.154470
	13.265000	-0.212491
	13.270000	-0.119014
	13.275000	-0.064216
	13.280000	-0.151247
	13.285000	-0.209268
	13.290000	-0.115790
	13.295000	-0.060993
	13.300000	-0.151247
	13.305000	-0.212491
	13.310000	-0.119014
	13.315000	-0.060993
	13.320000	-0.154470
	13.325000	-0.212491
	13.330000	-0.122237
	13.335000	-0.064216
	13.340000	-0.151247
	13.345000	-0.209268
	13.350000	-0.119014
	13.355000	-0.057770
	13.360000	-0.154470
	13.365000	-0.206044
	13.370000	-0.119014
	13.375000	-0.064216
	13.380000	-0.154470
	13.385000	-0.206044
	13.390000	-0.115790
	13.395000	-0.054546
	13.400000	-0.154470
	13.405000	-0.206044
	13.410000	-0.112567
	13.415000	-0.051323
	13.420000	-0.151247
	13.425000	-0.206044
	13.430000	-0.112567
	13.435000	-0.057770
	13.440000	-0.148024
	13.445000	-0.209268
	13.450000	-0.112567
	13.455000	-0.064216
	13.460000	-0.148024
	13.465000	-0.206044
	13.470000	-0.112567
	13.475000	-0.057770
	13.480000	-0.144800
	13.485000	-0.206044
	13.490000	-0.112567
	13.495000	-0.054546
	13.500000	-0.148024
	13.505000	-0.209268
	13.510000	-0.112567
	13.515000	-0.054546
	13.520000	-0.148024
	13.525000	-0.199597
	13.530000	-0.109343
	13.535000	-0.054546
	13.540000	-0.144800
	13.545000	-0.199597
	13.550000	-0.109343
	13.555000	-0.051323
	13.560000	-0.141577
	13.565000	-0.199597
	13.570000	-0.106120
	13.575000	-0.051323
	13.580000	-0.138354
	13.585000	-0.196374
	13.590000	-0.109343
	13.595000	-0.054546
	13.600000	-0.138354
	13.605000	-0.196374
	13.610000	-0.106120
	13.615000	-0.051323
	13.620000	-0.141577
	13.625000	-0.196374
	13.630000	-0.106120
	13.635000	-0.048100
	13.640000	-0.135130
	13.645000	-0.186704
	13.650000	-0.106120
	13.655000	-0.041653
	13.660000	-0.138354
	13.665000	-0.193151
	13.670000	-0.102897
	13.675000	-0.044876
	13.680000	-0.141577
	13.685000	-0.193151
	13.690000	-0.096450
	13.695000	-0.044876
	13.700000	-0.135130
	13.705000	-0.193151
	13.710000	-0.102897
	13.715000	-0.044876
	13.720000	-0.131907
	13.725000	-0.186704
	13.730000	-0.093227
	13.735000	-0.035206
	13.740000	-0.125460
	13.745000	-0.173811
	13.750000	-0.080333
	13.755000	-0.019089
	13.760000	-0.106120
	13.765000	-0.160917
	13.770000	-0.057770
	13.775000	0.003474
	13.780000	-0.083557
	13.785000	-0.131907
	13.790000	-0.025536
	13.795000	0.029261
	13.800000	-0.054546
	13.805000	-0.102897
	13.810000	-0.006196
	13.815000	0.048601
	13.820000	-0.038430
	13.825000	-0.080333
	13.830000	0.009921
	13.835000	0.067941
	13.840000	-0.022313
	13.845000	-0.067440
	13.850000	0.022814
	13.855000	0.090505
	13.860000	0.003474
	13.865000	-0.054546
	13.870000	0.045378
	13.875000	0.096952
	13.880000	0.022814
	13.885000	-0.022313
	13.890000	0.067941
	13.895000	0.122738
	13.900000	0.048601
	13.905000	-0.002973
	13.910000	0.087281
	13.915000	0.151749
	13.920000	0.061495
	13.925000	0.022814
	13.930000	0.106622
	13.935000	0.164642
	13.940000	0.080835
	13.945000	0.029261
	13.950000	0.119515
	13.955000	0.174312
	13.960000	0.080835
	13.965000	0.032484
	13.970000	0.116292
	13.975000	0.164642
	13.980000	0.084058
	13.985000	0.032484
	13.990000	0.116292
	13.995000	0.171089
	14.000000	0.084058
	14.005000	0.032484
	14.010000	0.116292
	14.015000	0.167865
	14.020000	0.077611
	14.025000	0.032484
	14.030000	0.109845
	14.035000	0.158195
	14.040000	0.080835
	14.045000	0.026038
	14.050000	0.113068
	14.055000	0.158195
	14.060000	0.071165
	14.065000	0.029261
	14.070000	0.116292
	14.075000	0.161419
	14.080000	0.074388
	14.085000	0.026038
	14.090000	0.106622
	14.095000	0.164642
	14.100000	0.074388
	14.105000	0.019591
	14.110000	0.109845
	14.115000	0.161419
	14.120000	0.067941
	14.125000	0.013144
	14.130000	0.103398
	14.135000	0.148525
	14.140000	0.064718
	14.145000	0.016368
	14.150000	0.100175
	14.155000	0.154972
	14.160000	0.061495
	14.165000	0.013144
	14.170000	0.096952
	14.175000	0.148525
	14.180000	0.058271
	14.185000	0.006697
	14.190000	0.096952
	14.195000	0.148525
	14.200000	0.058271
	14.205000	0.003474
	14.210000	0.087281
	14.215000	0.138855
	14.220000	0.048601
	14.225000	0.000251
	14.230000	0.090505
	14.235000	0.135632
	14.240000	0.048601
	14.245000	0.000251
	14.250000	0.084058
	14.255000	0.138855
	14.260000	0.045378
	14.265000	0.000251
	14.270000	0.084058
	14.275000	0.135632
	14.280000	0.048601
	14.285000	-0.002973
	14.290000	0.084058
	14.295000	0.132408
	14.300000	0.051825
	14.305000	0.003474
	14.310000	0.090505
	14.315000	0.135632
	14.320000	0.051825
	14.325000	0.003474
	14.330000	0.096952
	14.335000	0.148525
	14.340000	0.061495
	14.345000	0.013144
	14.350000	0.106622
	14.355000	0.158195
	14.360000	0.067941
	14.365000	0.016368
	14.370000	0.109845
	14.375000	0.158195
	14.380000	0.071165
	14.385000	0.022814
	14.390000	0.109845
	14.395000	0.158195
	14.400000	0.074388
	14.405000	0.022814
	14.410000	0.119515
	14.415000	0.164642
	14.420000	0.074388
	14.425000	0.026038
	14.430000	0.119515
	14.435000	0.171089
	14.440000	0.087281
	14.445000	0.035708
	14.450000	0.125962
	14.455000	0.180759
	14.460000	0.096952
	14.465000	0.048601
	14.470000	0.145302
	14.475000	0.193652
	14.480000	0.116292
	14.485000	0.064718
	14.490000	0.154972
	14.495000	0.209769
	14.500000	0.119515
	14.505000	0.074388
	14.510000	0.167865
	14.515000	0.222663
	14.520000	0.129185
	14.525000	0.084058
	14.530000	0.174312
	14.535000	0.229109
	14.540000	0.151749
	14.545000	0.096952
	14.550000	0.190429
	14.555000	0.238779
	14.560000	0.154972
	14.565000	0.103398
	14.570000	0.196876
	14.575000	0.248449
	14.580000	0.154972
	14.585000	0.103398
	14.590000	0.187206
	14.595000	0.225886
	14.600000	0.135632
	14.605000	0.084058
	14.610000	0.167865
	14.615000	0.206546
	14.620000	0.116292
	14.625000	0.055048
	14.630000	0.129185
	14.635000	0.177536
	14.640000	0.084058
	14.645000	0.026038
	14.650000	0.103398
	14.655000	0.138855
	14.660000	0.048601
	14.665000	-0.015866
	14.670000	0.067941
	14.675000	0.116292
	14.680000	0.016368
	14.685000	-0.031983
	14.690000	0.048601
	14.695000	0.090505
	14.700000	0.000251
	14.705000	-0.064216
	14.710000	0.022814
	14.715000	0.071165
	14.720000	-0.025536
	14.725000	-0.070663
	14.730000	0.013144
	14.735000	0.055048
	14.740000	-0.031983
	14.745000	-0.086780
	14.750000	0.000251
	14.755000	0.051825
	14.760000	-0.044876
	14.765000	-0.090003
	14.770000	-0.002973
	14.775000	0.042154
	14.780000	-0.044876
	14.785000	-0.096450
	14.790000	-0.012643
	14.795000	0.038931
	14.800000	-0.051323
	14.805000	-0.096450
	14.810000	-0.009419
	14.815000	0.029261
	14.820000	-0.048100
	14.825000	-0.106120
	14.830000	-0.015866
	14.835000	0.026038
	14.840000	-0.060993
	14.845000	-0.102897
	14.850000	-0.019089
	14.855000	0.032484
	14.860000	-0.057770
	14.865000	-0.112567
	14.870000	-0.022313
	14.875000	0.029261
	14.880000	-0.064216
	14.885000	-0.109343
	14.890000	-0.022313
	14.895000	0.026038
	14.900000	-0.067440
	14.905000	-0.115790
	14.910000	-0.028759
	14.915000	0.019591
	14.920000	-0.070663
	14.925000	-0.115790
	14.930000	-0.028759
	14.935000	0.022814
	14.940000	-0.067440
	14.945000	-0.119014
	14.950000	-0.031983
	14.955000	0.022814
	14.960000	-0.077110
	14.965000	-0.125460
	14.970000	-0.028759
	14.975000	0.013144
	14.980000	-0.080333
	14.985000	-0.138354
	14.990000	-0.035206
	14.995000	0.013144
	15.000000	-0.086780
	15.005000	-0.131907
	15.010000	-0.041653
	15.015000	0.009921
	15.020000	-0.083557
	15.025000	-0.131907
	15.030000	-0.044876
	15.035000	0.006697
	15.040000	-0.090003
	15.045000	-0.135130
	15.050000	-0.048100
	15.055000	0.000251
	15.060000	-0.093227
	15.065000	-0.138354
	15.070000	-0.048100
	15.075000	0.000251
	15.080000	-0.093227
	15.085000	-0.138354
	15.090000	-0.048100
	15.095000	0.003474
	15.100000	-0.093227
	15.105000	-0.141577
	15.110000	-0.051323
	15.115000	0.003474
	15.120000	-0.096450
	15.125000	-0.144800
	15.130000	-0.044876
	15.135000	-0.006196
	15.140000	-0.099673
	15.145000	-0.144800
	15.150000	-0.054546
	15.155000	-0.006196
	15.160000	-0.096450
	15.165000	-0.144800
	15.170000	-0.054546
	15.175000	-0.002973
	15.180000	-0.099673
	15.185000	-0.144800
	15.190000	-0.057770
	15.195000	-0.009419
	15.200000	-0.096450
	15.205000	-0.148024
	15.210000	-0.054546
	15.215000	-0.006196
	15.220000	-0.106120
	15.225000	-0.160917
	15.230000	-0.060993
	15.235000	-0.009419
	15.240000	-0.106120
	15.245000	-0.151247
	15.250000	-0.060993
	15.255000	-0.012643
	15.260000	-0.109343
	15.265000	-0.151247
	15.270000	-0.064216
	15.275000	-0.012643
	15.280000	-0.115790
	15.285000	-0.160917
	15.290000	-0.067440
	15.295000	-0.019089
	15.300000	-0.112567
	15.305000	-0.160917
	15.310000	-0.067440
	15.315000	-0.019089
	15.320000	-0.112567
	15.325000	-0.160917
	15.330000	-0.070663
	15.335000	-0.019089
	15.340000	-0.115790
	15.345000	-0.160917
	15.350000	-0.070663
	15.355000	-0.015866
	15.360000	-0.115790
	15.365000	-0.167364
	15.370000	-0.073886
	15.375000	-0.022313
	15.380000	-0.112567
	15.385000	-0.167364
	15.390000	-0.070663
	15.395000	-0.022313
	15.400000	-0.119014
	15.405000	-0.157694
	15.410000	-0.064216
	15.415000	-0.025536
	15.420000	-0.112567
	15.425000	-0.160917
	15.430000	-0.070663
	15.435000	-0.025536
	15.440000	-0.115790
	15.445000	-0.157694
	15.450000	-0.070663
	15.455000	-0.022313
	15.460000	-0.115790
	15.465000	-0.160917
	15.470000	-0.060993
	15.475000	-0.012643
	15.480000	-0.109343
	15.485000	-0.164141
	15.490000	-0.060993
	15.495000	-0.015866
	15.500000	-0.115790
	15.505000	-0.160917
	15.510000	-0.064216
	15.515000	-0.019089
	15.520000	-0.109343
	15.525000	-0.160917
	15.530000	-0.057770
	15.535000	-0.015866
	15.540000	-0.109343
	15.545000	-0.151247
	15.550000	-0.054546
	15.555000	-0.009419
	15.560000	-0.106120
	15.565000	-0.154470
	15.570000	-0.060993
	15.575000	-0.009419
	15.580000	-0.106120
	15.585000	-0.157694
	15.590000	-0.057770
	15.595000	-0.012643
	15.600000	-0.109343
	15.605000	-0.157694
	15.610000	-0.054546
	15.615000	-0.009419
	15.620000	-0.102897
	15.625000	-0.151247
	15.630000	-0.054546
	15.635000	-0.009419
	15.640000	-0.106120
	15.645000	-0.151247
	15.650000	-0.054546
	15.655000	-0.006196
	15.660000	-0.106120
	15.665000	-0.148024
	15.670000	-0.048100
	15.675000	-0.009419
	15.680000	-0.096450
	15.685000	-0.151247
	15.690000	-0.048100
	15.695000	-0.006196
	15.700000	-0.099673
	15.705000	-0.151247
	15.710000	-0.051323
	15.715000	-0.006196
	15.720000	-0.096450
	15.725000	-0.151247
	15.730000	-0.054546
	15.735000	-0.012643
	15.740000	-0.106120
	15.745000	-0.154470
	15.750000	-0.054546
	15.755000	-0.006196
	15.760000	-0.099673
	15.765000	-0.148024
	15.770000	-0.051323
	15.775000	-0.009419
	15.780000	-0.102897
	15.785000	-0.154470
	15.790000	-0.057770
	15.795000	-0.009419
	15.800000	-0.099673
	15.805000	-0.148024
	15.810000	-0.054546
	15.815000	-0.002973
	15.820000	-0.102897
	15.825000	-0.144800
	15.830000	-0.054546
	15.835000	0.000251
	15.840000	-0.093227
	15.845000	-0.144800
	15.850000	-0.054546
	15.855000	-0.006196
	15.860000	-0.102897
	15.865000	-0.148024
	15.870000	-0.051323
	15.875000	-0.006196
	15.880000	-0.102897
	15.885000	-0.151247
	15.890000	-0.044876
	15.895000	-0.006196
	15.900000	-0.102897
	15.905000	-0.151247
	15.910000	-0.054546
	15.915000	-0.009419
	15.920000	-0.102897
	15.925000	-0.151247
	15.930000	-0.051323
	15.935000	-0.002973
	15.940000	-0.099673
	15.945000	-0.144800
	15.950000	-0.054546
	15.955000	-0.009419
	15.960000	-0.106120
	15.965000	-0.157694
	15.970000	-0.057770
	15.975000	-0.002973
	15.980000	-0.106120
	15.985000	-0.151247
	15.990000	-0.057770
	15.995000	-0.009419
	16.000000	-0.102897
	16.005000	-0.144800
	16.010000	-0.054546
	16.015000	-0.006196
	16.020000	-0.102897
	16.025000	-0.148024
	16.030000	-0.054546
	16.035000	-0.002973
	16.040000	-0.102897
	16.045000	-0.151247
	16.050000	-0.054546
	16.055000	-0.002973
	16.060000	-0.102897
	16.065000	-0.148024
	16.070000	-0.051323
	16.075000	-0.006196
	16.080000	-0.109343
	16.085000	-0.151247
	16.090000	-0.051323
	16.095000	-0.012643
	16.100000	-0.106120
	16.105000	-0.151247
	16.110000	-0.057770
	16.115000	-0.009419
	16.120000	-0.115790
	16.125000	-0.154470
	16.130000	-0.057770
	16.135000	-0.012643
	16.140000	-0.106120
	16.145000	-0.148024
	16.150000	-0.048100
	16.155000	-0.006196
	16.160000	-0.099673
	16.165000	-0.138354
	16.170000	-0.044876
	16.175000	0.003474
	16.180000	-0.083557
	16.185000	-0.125460
	16.190000	-0.019089
	16.195000	0.026038
	16.200000	-0.070663
	16.205000	-0.115790
	16.210000	-0.002973
	16.215000	0.042154
	16.220000	-0.048100
	16.225000	-0.083557
	16.230000	0.013144
	16.235000	0.064718
	16.240000	-0.022313
	16.245000	-0.060993
	16.250000	0.038931
	16.255000	0.077611
	16.260000	-0.012643
	16.265000	-0.048100
	16.270000	0.045378
	16.275000	0.090505
	16.280000	-0.002973
	16.285000	-0.041653
	16.290000	0.058271
	16.295000	0.103398
	16.300000	0.006697
	16.305000	-0.022313
	16.310000	0.074388
	16.315000	0.122738
	16.320000	0.038931
	16.325000	0.003474
	16.330000	0.106622
	16.335000	0.161419
	16.340000	0.077611
	16.345000	0.035708
	16.350000	0.135632
	16.355000	0.183982
	16.360000	0.084058
	16.365000	0.048601
	16.370000	0.132408
	16.375000	0.171089
	16.380000	0.074388
	16.385000	0.035708
	16.390000	0.109845
	16.395000	0.151749
	16.400000	0.051825
	16.405000	0.016368
	16.410000	0.106622
	16.415000	0.138855
	16.420000	0.042154
	16.425000	0.000251
	16.430000	0.090505
	16.435000	0.135632
	16.440000	0.038931
	16.445000	-0.002973
	16.450000	0.087281
	16.455000	0.122738
	16.460000	0.035708
	16.465000	0.000251
	16.470000	0.084058
	16.475000	0.129185
	16.480000	0.035708
	16.485000	-0.006196
	16.490000	0.096952
	16.495000	0.129185
	16.500000	0.038931
	16.505000	-0.002973
	16.510000	0.093728
	16.515000	0.132408
	16.520000	0.038931
	16.525000	0.006697
	16.530000	0.087281
	16.535000	0.135632
	16.540000	0.045378
	16.545000	0.003474
	16.550000	0.096952
	16.555000	0.129185
	16.560000	0.042154
	16.565000	0.000251
	16.570000	0.093728
	16.575000	0.129185
	16.580000	0.035708
	16.585000	0.003474
	16.590000	0.100175
	16.595000	0.145302
	16.600000	0.048601
	16.605000	0.006697
	16.610000	0.100175
	16.615000	0.145302
	16.620000	0.045378
	16.625000	0.006697
	16.630000	0.093728
	16.635000	0.142079
	16.640000	0.045378
	16.645000	0.009921
	16.650000	0.100175
	16.655000	0.135632
	16.660000	0.048601
	16.665000	0.009921
	16.670000	0.106622
	16.675000	0.138855
	16.680000	0.048601
	16.685000	0.006697
	16.690000	0.106622
	16.695000	0.135632
	16.700000	0.042154
	16.705000	0.006697
	16.710000	0.100175
	16.715000	0.135632
	16.720000	0.038931
	16.725000	0.006697
	16.730000	0.100175
	16.735000	0.135632
	16.740000	0.038931
	16.745000	0.000251
	16.750000	0.096952
	16.755000	0.132408
	16.760000	0.042154
	16.765000	0.006697
	16.770000	0.096952
	16.775000	0.129185
	16.780000	0.042154
	16.785000	0.000251
	16.790000	0.090505
	16.795000	0.129185
	16.800000	0.035708
	16.805000	-0.002973
	16.810000	0.084058
	16.815000	0.132408
	16.820000	0.042154
	16.825000	0.006697
	16.830000	0.093728
	16.835000	0.132408
	16.840000	0.038931
	16.845000	0.006697
	16.850000	0.093728
	16.855000	0.135632
	16.860000	0.042154
	16.865000	0.006697
	16.870000	0.096952
	16.875000	0.142079
	16.880000	0.045378
	16.885000	0.009921
	16.890000	0.106622
	16.895000	0.145302
	16.900000	0.055048
	16.905000	0.019591
	16.910000	0.109845
	16.915000	0.148525
	16.920000	0.061495
	16.925000	0.029261
	16.930000	0.119515
	16.935000	0.154972
	16.940000	0.067941
	16.945000	0.035708
	16.950000	0.135632
	16.955000	0.174312
	16.960000	0.084058
	16.965000	0.051825
	16.970000	0.154972
	16.975000	0.196876
	16.980000	0.106622
	16.985000	0.084058
	16.990000	0.180759
	16.995000	0.222663
	17.000000	0.135632
	17.005000	0.106622
	17.010000	0.206546
	17.015000	0.251673
	17.020000	0.167865
	17.025000	0.138855
	17.030000	0.238779
	17.035000	0.283906
	17.040000	0.183982
	17.045000	0.164642
	17.050000	0.258119
	17.055000	0.293576
	17.060000	0.203322
	17.065000	0.171089
	17.070000	0.254896
	17.075000	0.283906
	17.080000	0.190429
	17.085000	0.148525
	17.090000	0.245226
	17.095000	0.258119
	17.100000	0.167865
	17.105000	0.122738
	17.110000	0.212992
	17.115000	0.235556
	17.120000	0.135632
	17.125000	0.090505
	17.130000	0.180759
	17.135000	0.209769
	17.140000	0.103398
	17.145000	0.061495
	17.150000	0.145302
	17.155000	0.180759
	17.160000	0.071165
	17.165000	0.032484
	17.170000	0.119515
	17.175000	0.145302
	17.180000	0.045378
	17.185000	0.009921
	17.190000	0.090505
	17.195000	0.119515
	17.200000	0.019591
	17.205000	-0.025536
	17.210000	0.064718
	17.215000	0.100175
	17.220000	0.003474
	17.225000	-0.038430
	17.230000	0.051825
	17.235000	0.080835
	17.240000	-0.015866
	17.245000	-0.048100
	17.250000	0.042154
	17.255000	0.071165
	17.260000	-0.022313
	17.265000	-0.064216
	17.270000	0.026038
	17.275000	0.061495
	17.280000	-0.031983
	17.285000	-0.070663
	17.290000	0.022814
	17.295000	0.048601
	17.300000	-0.041653
	17.305000	-0.077110
	17.310000	0.019591
	17.315000	0.058271
	17.320000	-0.041653
	17.325000	-0.077110
	17.330000	0.016368
	17.335000	0.055048
	17.340000	-0.051323
	17.345000	-0.083557
	17.350000	0.016368
	17.355000	0.042154
	17.360000	-0.048100
	17.365000	-0.083557
	17.370000	0.009921
	17.375000	0.042154
	17.380000	-0.057770
	17.385000	-0.090003
	17.390000	0.003474
	17.395000	0.042154
	17.400000	-0.060993
	17.405000	-0.096450
	17.410000	0.003474
	17.415000	0.035708
	17.420000	-0.070663
	17.425000	-0.102897
	17.430000	-0.006196
	17.435000	0.032484
	17.440000	-0.067440
	17.445000	-0.106120
	17.450000	-0.006196
	17.455000	0.029261
	17.460000	-0.080333
	17.465000	-0.099673
	17.470000	-0.009419
	17.475000	0.022814
	17.480000	-0.077110
	17.485000	-0.112567
	17.490000	-0.015866
	17.495000	0.019591
	17.500000	-0.083557
	17.505000	-0.122237
	17.510000	-0.015866
	17.515000	0.016368
	17.520000	-0.080333
	17.525000	-0.125460
	17.530000	-0.019089
	17.535000	0.019591
	17.540000	-0.090003
	17.545000	-0.125460
	17.550000	-0.019089
	17.555000	0.019591
	17.560000	-0.090003
	17.565000	-0.125460
	17.570000	-0.022313
	17.575000	0.006697
	17.580000	-0.090003
	17.585000	-0.128684
	17.590000	-0.031983
	17.595000	0.006697
	17.600000	-0.090003
	17.605000	-0.125460
	17.610000	-0.028759
	17.615000	0.003474
	17.620000	-0.090003
	17.625000	-0.125460
	17.630000	-0.025536
	17.635000	0.003474
	17.640000	-0.093227
	17.645000	-0.125460
	17.650000	-0.025536
	17.655000	0.003474
	17.660000	-0.096450
	17.665000	-0.131907
	17.670000	-0.028759
	17.675000	0.000251
	17.680000	-0.096450
	17.685000	-0.131907
	17.690000	-0.028759
	17.695000	0.003474
	17.700000	-0.093227
	17.705000	-0.128684
	17.710000	-0.028759
	17.715000	0.000251
	17.720000	-0.099673
	17.725000	-0.128684
	17.730000	-0.035206
	17.735000	0.006697
	17.740000	-0.102897
	17.745000	-0.138354
	17.750000	-0.025536
	17.755000	0.000251
	17.760000	-0.096450
	17.765000	-0.131907
	17.770000	-0.025536
	17.775000	0.006697
	17.780000	-0.099673
	17.785000	-0.128684
	17.790000	-0.028759
	17.795000	0.013144
	17.800000	-0.099673
	17.805000	-0.131907
	17.810000	-0.022313
	17.815000	0.003474
	17.820000	-0.093227
	17.825000	-0.128684
	17.830000	-0.028759
	17.835000	0.013144
	17.840000	-0.090003
	17.845000	-0.128684
	17.850000	-0.019089
	17.855000	0.009921
	17.860000	-0.096450
	17.865000	-0.122237
	17.870000	-0.019089
	17.875000	0.003474
	17.880000	-0.093227
	17.885000	-0.122237
	17.890000	-0.019089
	17.895000	0.009921
	17.900000	-0.090003
	17.905000	-0.128684
	17.910000	-0.015866
	17.915000	0.013144
	17.920000	-0.093227
	17.925000	-0.119014
	17.930000	-0.019089
	17.935000	0.009921
	17.940000	-0.093227
	17.945000	-0.125460
	17.950000	-0.022313
	17.955000	0.019591
	17.960000	-0.090003
	17.965000	-0.125460
	17.970000	-0.025536
	17.975000	0.009921
	17.980000	-0.093227
	17.985000	-0.115790
	17.990000	-0.015866
	17.995000	0.013144
	18.000000	-0.090003
	18.005000	-0.125460
	18.010000	-0.019089
	18.015000	0.006697
	18.020000	-0.086780
	18.025000	-0.125460
	18.030000	-0.019089
	18.035000	0.003474
	18.040000	-0.096450
	18.045000	-0.125460
	18.050000	-0.015866
	18.055000	0.006697
	18.060000	-0.096450
	18.065000	-0.122237
	18.070000	-0.019089
	18.075000	0.003474
	18.080000	-0.090003
	18.085000	-0.122237
	18.090000	-0.022313
	18.095000	0.009921
	18.100000	-0.096450
	18.105000	-0.122237
	18.110000	-0.019089
	18.115000	0.009921
	18.120000	-0.093227
	18.125000	-0.122237
	18.130000	-0.025536
	18.135000	0.009921
	18.140000	-0.093227
	18.145000	-0.122237
	18.150000	-0.019089
	18.155000	0.009921
	18.160000	-0.093227
	18.165000	-0.125460
	18.170000	-0.019089
	18.175000	0.013144
	18.180000	-0.090003
	18.185000	-0.122237
	18.190000	-0.025536
	18.195000	0.013144
	18.200000	-0.096450
	18.205000	-0.122237
	18.210000	-0.012643
	18.215000	0.009921
	18.220000	-0.093227
	18.225000	-0.119014
	18.230000	-0.019089
	18.235000	0.013144
	18.240000	-0.086780
	18.245000	-0.119014
	18.250000	-0.019089
	18.255000	0.013144
	18.260000	-0.090003
	18.265000	-0.122237
	18.270000	-0.019089
	18.275000	0.013144
	18.280000	-0.090003
	18.285000	-0.119014
	18.290000	-0.015866
	18.295000	0.016368
	18.300000	-0.090003
	18.305000	-0.115790
	18.310000	-0.009419
	18.315000	0.013144
	18.320000	-0.083557
	18.325000	-0.119014
	18.330000	-0.012643
	18.335000	0.009921
	18.340000	-0.086780
	18.345000	-0.112567
	18.350000	-0.009419
	18.355000	0.019591
	18.360000	-0.083557
	18.365000	-0.112567
	18.370000	-0.009419
	18.375000	0.016368
	18.380000	-0.083557
	18.385000	-0.112567
	18.390000	-0.002973
	18.395000	0.019591
	18.400000	-0.080333
	18.405000	-0.106120
	18.410000	0.003474
	18.415000	0.019591
	18.420000	-0.080333
	18.425000	-0.109343
	18.430000	-0.009419
	18.435000	0.022814
	18.440000	-0.083557
	18.445000	-0.106120
	18.450000	-0.002973
	18.455000	0.026038
	18.460000	-0.083557
	18.465000	-0.109343
	18.470000	0.003474
	18.475000	0.022814
	18.480000	-0.086780
	18.485000	-0.106120
	18.490000	-0.002973
	18.495000	0.026038
	18.500000	-0.077110
	18.505000	-0.099673
	18.510000	0.009921
	18.515000	0.035708
	18.520000	-0.067440
	18.525000	-0.093227
	18.530000	0.013144
	18.535000	0.045378
	18.540000	-0.051323
	18.545000	-0.077110
	18.550000	0.032484
	18.555000	0.055048
	18.560000	-0.044876
	18.565000	-0.067440
	18.570000	0.035708
	18.575000	0.071165
	18.580000	-0.031983
	18.585000	-0.051323
	18.590000	0.051825
	18.595000	0.084058
	18.600000	-0.022313
	18.605000	-0.044876
	18.610000	0.064718
	18.615000	0.093728
	18.620000	-0.009419
	18.625000	-0.031983
	18.630000	0.080835
	18.635000	0.116292
	18.640000	0.013144
	18.645000	-0.009419
	18.650000	0.100175
	18.655000	0.119515
	18.660000	0.019591
	18.665000	-0.006196
	18.670000	0.100175
	18.675000	0.125962
	18.680000	0.022814
	18.685000	-0.006196
	18.690000	0.100175
	18.695000	0.122738
	18.700000	0.026038
	18.705000	0.003474
	18.710000	0.106622
	18.715000	0.129185
	18.720000	0.026038
	18.725000	0.003474
	18.730000	0.109845
	18.735000	0.132408
	18.740000	0.038931
	18.745000	0.019591
	18.750000	0.116292
	18.755000	0.145302
	18.760000	0.048601
	18.765000	0.032484
	18.770000	0.138855
	18.775000	0.171089
	18.780000	0.067941
	18.785000	0.058271
	18.790000	0.161419
	18.795000	0.193652
	18.800000	0.096952
	18.805000	0.077611
	18.810000	0.171089
	18.815000	0.206546
	18.820000	0.106622
	18.825000	0.090505
	18.830000	0.190429
	18.835000	0.219439
	18.840000	0.122738
	18.845000	0.103398
	18.850000	0.206546
	18.855000	0.225886
	18.860000	0.129185
	18.865000	0.100175
	18.870000	0.209769
	18.875000	0.229109
	18.880000	0.122738
	18.885000	0.096952
	18.890000	0.203322
	18.895000	0.216216
	18.900000	0.109845
	18.905000	0.087281
	18.910000	0.187206
	18.915000	0.206546
	18.920000	0.096952
	18.925000	0.074388
	18.930000	0.167865
	18.935000	0.193652
	18.940000	0.090505
	18.945000	0.067941
	18.950000	0.171089
	18.955000	0.183982
	18.960000	0.090505
	18.965000	0.067941
	18.970000	0.167865
	18.975000	0.187206
	18.980000	0.090505
	18.985000	0.067941
	18.990000	0.167865
	18.995000	0.190429
	19.000000	0.084058
	19.005000	0.067941
	19.010000	0.161419
	19.015000	0.193652
	19.020000	0.087281
	19.025000	0.071165
	19.030000	0.167865
	19.035000	0.200099
	19.040000	0.093728
	19.045000	0.067941
	19.050000	0.171089
	19.055000	0.193652
	19.060000	0.093728
	19.065000	0.074388
	19.070000	0.180759
	19.075000	0.203322
	19.080000	0.100175
	19.085000	0.087281
	19.090000	0.183982
	19.095000	0.206546
	19.100000	0.103398
	19.105000	0.087281
	19.110000	0.190429
	19.115000	0.209769
	19.120000	0.106622
	19.125000	0.096952
	19.130000	0.203322
	19.135000	0.216216
	19.140000	0.116292
	19.145000	0.103398
	19.150000	0.196876
	19.155000	0.219439
	19.160000	0.106622
	19.165000	0.093728
	19.170000	0.190429
	19.175000	0.216216
	19.180000	0.109845
	19.185000	0.084058
	19.190000	0.180759
	19.195000	0.200099
	19.200000	0.096952
	19.205000	0.077611
	19.210000	0.171089
	19.215000	0.190429
	19.220000	0.087281
	19.225000	0.058271
	19.230000	0.154972
	19.235000	0.174312
	19.240000	0.067941
	19.245000	0.048601
	19.250000	0.138855
	19.255000	0.151749
	19.260000	0.045378
	19.265000	0.029261
	19.270000	0.125962
	19.275000	0.135632
	19.280000	0.042154
	19.285000	0.013144
	19.290000	0.109845
	19.295000	0.125962
	19.300000	0.016368
	19.305000	0.003474
	19.310000	0.103398
	19.315000	0.119515
	19.320000	0.009921
	19.325000	-0.009419
	19.330000	0.090505
	19.335000	0.109845
	19.340000	0.000251
	19.345000	-0.009419
	19.350000	0.084058
	19.355000	0.096952
	19.360000	0.000251
	19.365000	-0.019089
	19.370000	0.074388
	19.375000	0.090505
	19.380000	-0.006196
	19.385000	-0.025536
	19.390000	0.074388
	19.395000	0.087281
	19.400000	-0.012643
	19.405000	-0.035206
	19.410000	0.074388
	19.415000	0.087281
	19.420000	-0.019089
	19.425000	-0.035206
	19.430000	0.071165
	19.435000	0.084058
	19.440000	-0.019089
	19.445000	-0.035206
	19.450000	0.067941
	19.455000	0.077611
	19.460000	-0.019089
	19.465000	-0.031983
	19.470000	0.064718
	19.475000	0.080835
	19.480000	-0.022313
	19.485000	-0.038430
	19.490000	0.064718
	19.495000	0.080835
	19.500000	-0.022313
	19.505000	-0.041653
	19.510000	0.061495
	19.515000	0.074388
	19.520000	-0.031983
	19.525000	-0.035206
	19.530000	0.055048
	19.535000	0.077611
	19.540000	-0.028759
	19.545000	-0.041653
	19.550000	0.061495
	19.555000	0.071165
	19.560000	-0.028759
	19.565000	-0.054546
	19.570000	0.058271
	19.575000	0.074388
	19.580000	-0.035206
	19.585000	-0.048100
	19.590000	0.051825
	19.595000	0.064718
	19.600000	-0.035206
	19.605000	-0.048100
	19.610000	0.051825
	19.615000	0.067941
	19.620000	-0.031983
	19.625000	-0.051323
	19.630000	0.055048
	19.635000	0.067941
	19.640000	-0.031983
	19.645000	-0.051323
	19.650000	0.058271
	19.655000	0.071165
	19.660000	-0.025536
	19.665000	-0.038430
	19.670000	0.058271
	19.675000	0.077611
	19.680000	-0.031983
	19.685000	-0.035206
	19.690000	0.064718
	19.695000	0.074388
	19.700000	-0.031983
	19.705000	-0.041653
	19.710000	0.064718
	19.715000	0.077611
	19.720000	-0.028759
	19.725000	-0.038430
	19.730000	0.061495
	19.735000	0.074388
	19.740000	-0.031983
	19.745000	-0.041653
	19.750000	0.055048
	19.755000	0.071165
	19.760000	-0.041653
	19.765000	-0.044876
	19.770000	0.055048
	19.775000	0.064718
	19.780000	-0.041653
	19.785000	-0.048100
	19.790000	0.051825
	19.795000	0.064718
	19.800000	-0.044876
	19.805000	-0.057770
	19.810000	0.045378
	19.815000	0.061495
	19.820000	-0.048100
	19.825000	-0.064216
	19.830000	0.038931
	19.835000	0.058271
	19.840000	-0.054546
	19.845000	-0.064216
	19.850000	0.038931
	19.855000	0.045378
	19.860000	-0.054546
	19.865000	-0.067440
	19.870000	0.035708
	19.875000	0.048601
	19.880000	-0.054546
	19.885000	-0.077110
	19.890000	0.035708
	19.895000	0.045378
	19.900000	-0.070663
	19.905000	-0.073886
	19.910000	0.035708
	19.915000	0.042154
	19.920000	-0.057770
	19.925000	-0.070663
	19.930000	0.029261
	19.935000	0.042154
	19.940000	-0.067440
	19.945000	-0.073886
	19.950000	0.032484
	19.955000	0.038931
	19.960000	-0.067440
	19.965000	-0.080333
	19.970000	0.032484
	19.975000	0.048601
	19.980000	-0.064216
	19.985000	-0.073886
	19.990000	0.032484
	19.995000	0.042154
	20.000000	-0.064216
	20.005000	-0.077110
	20.010000	0.035708
	20.015000	0.035708
	20.020000	-0.067440
	20.025000	-0.077110
	20.030000	0.026038
	20.035000	0.032484
	20.040000	-0.070663
	20.045000	-0.080333
	20.050000	0.022814
	20.055000	0.038931
	20.060000	-0.073886
	20.065000	-0.083557
	20.070000	0.026038
	20.075000	0.038931
	20.080000	-0.073886
	20.085000	-0.080333
	20.090000	0.026038
	20.095000	0.035708
	20.100000	-0.067440
	20.105000	-0.080333
	20.110000	0.026038
	20.115000	0.038931
	20.120000	-0.073886
	20.125000	-0.073886
	20.130000	0.032484
	20.135000	0.038931
	20.140000	-0.073886
	20.145000	-0.083557
	20.150000	0.026038
	20.155000	0.029261
	20.160000	-0.070663
	20.165000	-0.083557
	20.170000	0.026038
	20.175000	0.038931
	20.180000	-0.064216
	20.185000	-0.073886
	20.190000	0.026038
	20.195000	0.038931
	20.200000	-0.070663
	20.205000	-0.083557
	20.210000	0.032484
	20.215000	0.035708
	20.220000	-0.064216
	20.225000	-0.070663
	20.230000	0.026038
	20.235000	0.038931
	20.240000	-0.070663
	20.245000	-0.073886
	20.250000	0.032484
	20.255000	0.042154
	20.260000	-0.070663
	20.265000	-0.077110
	20.270000	0.029261
	20.275000	0.038931
	20.280000	-0.067440
	20.285000	-0.073886
	20.290000	0.032484
	20.295000	0.032484
	20.300000	-0.067440
	20.305000	-0.073886
	20.310000	0.029261
	20.315000	0.035708
	20.320000	-0.064216
	20.325000	-0.073886
	20.330000	0.035708
	20.335000	0.035708
	20.340000	-0.070663
	20.345000	-0.083557
	20.350000	0.026038
	20.355000	0.038931
	20.360000	-0.067440
	20.365000	-0.083557
	20.370000	0.029261
	20.375000	0.038931
	20.380000	-0.067440
	20.385000	-0.073886
	20.390000	0.032484
	20.395000	0.038931
	20.400000	-0.067440
	20.405000	-0.080333
	20.410000	0.029261
	20.415000	0.038931
	20.420000	-0.067440
	20.425000	-0.073886
	20.430000	0.026038
	20.435000	0.035708
	20.440000	-0.073886
	20.445000	-0.080333
	20.450000	0.026038
	20.455000	0.035708
	20.460000	-0.073886
	20.465000	-0.073886
	20.470000	0.026038
	20.475000	0.029261
	20.480000	-0.080333
	20.485000	-0.073886
	20.490000	0.029261
	20.495000	0.035708
	20.500000	-0.073886
	20.505000	-0.077110
	20.510000	0.029261
	20.515000	0.038931
	20.520000	-0.077110
	20.525000	-0.077110
	20.530000	0.022814
	20.535000	0.035708
	20.540000	-0.073886
	20.545000	-0.077110
	20.550000	0.029261
	20.555000	0.029261
	20.560000	-0.077110
	20.565000	-0.080333
	20.570000	0.026038
	20.575000	0.035708
	20.580000	-0.077110
	20.585000	-0.083557
	20.590000	0.029261
	20.595000	0.035708
	20.600000	-0.070663
	20.605000	-0.077110
	20.610000	0.032484
	20.615000	0.035708
	20.620000	-0.077110
	20.625000	-0.080333
	20.630000	0.026038
	20.635000	0.032484
	20.640000	-0.080333
	20.645000	-0.073886
	20.650000	0.022814
	20.655000	0.029261
	20.660000	-0.073886
	20.665000	-0.073886
	20.670000	0.026038
	20.675000	0.038931
	20.680000	-0.073886
	20.685000	-0.077110
	20.690000	0.035708
	20.695000	0.035708
	20.700000	-0.070663
	20.705000	-0.077110
	20.710000	0.032484
	20.715000	0.032484
	20.720000	-0.067440
	20.725000	-0.073886
	20.730000	0.029261
	20.735000	0.038931
	20.740000	-0.070663
	20.745000	-0.067440
	20.750000	0.032484
	20.755000	0.035708
	20.760000	-0.073886
	20.765000	-0.077110
	20.770000	0.029261
	20.775000	0.029261
	20.780000	-0.073886
	20.785000	-0.070663
	20.790000	0.038931
	20.795000	0.038931
	20.800000	-0.070663
	20.805000	-0.077110
	20.810000	0.035708
	20.815000	0.038931
	20.820000	-0.070663
	20.825000	-0.070663
	20.830000	0.038931
	20.835000	0.042154
	20.840000	-0.073886
	20.845000	-0.073886
	20.850000	0.045378
	20.855000	0.038931
	20.860000	-0.067440
	20.865000	-0.073886
	20.870000	0.035708
	20.875000	0.038931
	20.880000	-0.064216
	20.885000	-0.070663
	20.890000	0.045378
	20.895000	0.045378
	20.900000	-0.067440
	20.905000	-0.064216
	20.910000	0.042154
	20.915000	0.042154
	20.920000	-0.060993
	20.925000	-0.064216
	20.930000	0.038931
	20.935000	0.045378
	20.940000	-0.057770
	20.945000	-0.064216
	20.950000	0.042154
	20.955000	0.045378
	20.960000	-0.064216
	20.965000	-0.064216
	20.970000	0.048601
	20.975000	0.045378
	20.980000	-0.064216
	20.985000	-0.070663
	20.990000	0.042154
	20.995000	0.045378
	21.000000	-0.067440
	21.005000	-0.057770
	21.010000	0.045378
	21.015000	0.045378
	21.020000	-0.064216
	21.025000	-0.060993
	21.030000	0.045378
	21.035000	0.048601
	21.040000	-0.060993
	21.045000	-0.060993
	21.050000	0.045378
	21.055000	0.045378
	21.060000	-0.067440
	21.065000	-0.057770
	21.070000	0.045378
	21.075000	0.048601
	21.080000	-0.064216
	21.085000	-0.064216
	21.090000	0.048601
	21.095000	0.045378
	21.100000	-0.060993
	21.105000	-0.057770
	21.110000	0.045378
	21.115000	0.048601
	21.120000	-0.057770
	21.125000	-0.060993
	21.130000	0.051825
	21.135000	0.051825
	21.140000	-0.057770
	21.145000	-0.064216
	21.150000	0.048601
	21.155000	0.048601
	21.160000	-0.057770
	21.165000	-0.054546
	21.170000	0.055048
	21.175000	0.048601
	21.180000	-0.060993
	21.185000	-0.054546
	21.190000	0.051825
	21.195000	0.051825
	21.200000	-0.057770
	21.205000	-0.051323
	21.210000	0.055048
	21.215000	0.051825
	21.220000	-0.057770
	21.225000	-0.057770
	21.230000	0.058271
	21.235000	0.055048
	21.240000	-0.051323
	21.245000	-0.044876
	21.250000	0.061495
	21.255000	0.055048
	21.260000	-0.048100
	21.265000	-0.044876
	21.270000	0.058271
	21.275000	0.058271
	21.280000	-0.048100
	21.285000	-0.038430
	21.290000	0.064718
	21.295000	0.055048
	21.300000	-0.048100
	21.305000	-0.041653
	21.310000	0.064718
	21.315000	0.055048
	21.320000	-0.044876
	21.325000	-0.038430
	21.330000	0.064718
	21.335000	0.064718
	21.340000	-0.048100
	21.345000	-0.044876
	21.350000	0.067941
	21.355000	0.071165
	21.360000	-0.044876
	21.365000	-0.038430
	21.370000	0.064718
	21.375000	0.067941
	21.380000	-0.044876
	21.385000	-0.035206
	21.390000	0.067941
	21.395000	0.064718
	21.400000	-0.038430
	21.405000	-0.035206
	21.410000	0.067941
	21.415000	0.071165
	21.420000	-0.041653
	21.425000	-0.035206
	21.430000	0.074388
	21.435000	0.071165
	21.440000	-0.038430
	21.445000	-0.035206
	21.450000	0.074388
	21.455000	0.074388
	21.460000	-0.035206
	21.465000	-0.035206
	21.470000	0.071165
	21.475000	0.067941
	21.480000	-0.035206
	21.485000	-0.031983
	21.490000	0.074388
	21.495000	0.074388
	21.500000	-0.038430
	21.505000	-0.025536
	21.510000	0.074388
	21.515000	0.071165
	21.520000	-0.035206
	21.525000	-0.028759
	21.530000	0.077611
	21.535000	0.071165
	21.540000	-0.038430
	21.545000	-0.028759
	21.550000	0.080835
	21.555000	0.071165
	21.560000	-0.035206
	21.565000	-0.025536
	21.570000	0.080835
	21.575000	0.074388
	21.580000	-0.038430
	21.585000	-0.031983
	21.590000	0.084058
	21.595000	0.071165
	21.600000	-0.038430
	21.605000	-0.031983
	21.610000	0.080835
	21.615000	0.067941
	21.620000	-0.038430
	21.625000	-0.028759
	21.630000	0.084058
	21.635000	0.074388
	21.640000	-0.035206
	21.645000	-0.019089
	21.650000	0.080835
	21.655000	0.071165
	21.660000	-0.038430
	21.665000	-0.025536
	21.670000	0.071165
	21.675000	0.074388
	21.680000	-0.035206
	21.685000	-0.031983
	21.690000	0.080835
	21.695000	0.074388
	21.700000	-0.038430
	21.705000	-0.028759
	21.710000	0.077611
	21.715000	0.077611
	21.720000	-0.038430
	21.725000	-0.022313
	21.730000	0.077611
	21.735000	0.067941
	21.740000	-0.038430
	21.745000	-0.022313
	21.750000	0.074388
	21.755000	0.071165
	21.760000	-0.041653
	21.765000	-0.025536
	21.770000	0.080835
	21.775000	0.071165
	21.780000	-0.038430
	21.785000	-0.025536
	21.790000	0.077611
	21.795000	0.067941
	21.800000	-0.031983
	21.805000	-0.028759
	21.810000	0.074388
	21.815000	0.064718
	21.820000	-0.035206
	21.825000	-0.031983
	21.830000	0.077611
	21.835000	0.061495
	21.840000	-0.044876
	21.845000	-0.028759
	21.850000	0.080835
	21.855000	0.067941
	21.860000	-0.035206
	21.865000	-0.035206
	21.870000	0.074388
	21.875000	0.064718
	21.880000	-0.041653
	21.885000	-0.028759
	21.890000	0.080835
	21.895000	0.064718
	21.900000	-0.041653
	21.905000	-0.025536
	21.910000	0.077611
	21.915000	0.064718
	21.920000	-0.041653
	21.925000	-0.028759
	21.930000	0.077611
	21.935000	0.064718
	21.940000	-0.035206
	21.945000	-0.025536
	21.950000	0.084058
	21.955000	0.071165
	21.960000	-0.038430
	21.965000	-0.025536
	21.970000	0.080835
	21.975000	0.067941
	21.980000	-0.038430
	21.985000	-0.025536
	21.990000	0.074388
	21.995000	0.061495
	22.000000	-0.038430
	22.005000	-0.025536
	22.010000	0.080835
	22.015000	0.067941
	22.020000	-0.035206
	22.025000	-0.031983
	22.030000	0.080835
	22.035000	0.061495
	22.040000	-0.035206
	22.045000	-0.028759
	22.050000	0.080835
	22.055000	0.067941
	22.060000	-0.031983
	22.065000	-0.028759
	22.070000	0.080835
	22.075000	0.064718
	22.080000	-0.038430
	22.085000	-0.022313
	22.090000	0.077611
	22.095000	0.071165
	22.100000	-0.041653
	22.105000	-0.019089
	22.110000	0.084058
	22.115000	0.071165
	22.120000	-0.038430
	22.125000	-0.025536
	22.130000	0.080835
	22.135000	0.071165
	22.140000	-0.044876
	22.145000	-0.022313
	22.150000	0.080835
	22.155000	0.071165
	22.160000	-0.028759
	22.165000	-0.015866
	22.170000	0.080835
	22.175000	0.077611
	22.180000	-0.028759
	22.185000	-0.019089
	22.190000	0.084058
	22.195000	0.071165
	22.200000	-0.028759
	22.205000	-0.019089
	22.210000	0.087281
	22.215000	0.071165
	22.220000	-0.031983
	22.225000	-0.022313
	22.230000	0.084058
	22.235000	0.077611
	22.240000	-0.035206
	22.245000	-0.022313
	22.250000	0.090505
	22.255000	0.074388
	22.260000	-0.035206
	22.265000	-0.019089
	22.270000	0.080835
	22.275000	0.067941
	22.280000	-0.031983
	22.285000	-0.019089
	22.290000	0.084058
	22.295000	0.077611
	22.300000	-0.041653
	22.305000	-0.019089
	22.310000	0.090505
	22.315000	0.074388
	22.320000	-0.031983
	22.325000	-0.019089
	22.330000	0.084058
	22.335000	0.071165
	22.340000	-0.035206
	22.345000	-0.019089
	22.350000	0.090505
	22.355000	0.071165
	22.360000	-0.031983
	22.365000	-0.015866
	22.370000	0.087281
	22.375000	0.074388
	22.380000	-0.031983
	22.385000	-0.015866
	22.390000	0.087281
	22.395000	0.071165
	22.400000	-0.038430
	22.405000	-0.022313
	22.410000	0.084058
	22.415000	0.074388
	22.420000	-0.035206
	22.425000	-0.015866
	22.430000	0.087281
	22.435000	0.067941
	22.440000	-0.038430
	22.445000	-0.015866
	22.450000	0.084058
	22.455000	0.067941
	22.460000	-0.038430
	22.465000	-0.015866
	22.470000	0.084058
	22.475000	0.067941
	22.480000	-0.035206
	22.485000	-0.019089
	22.490000	0.090505
	22.495000	0.067941
	22.500000	-0.038430
	22.505000	-0.019089
	22.510000	0.087281
	22.515000	0.074388
	22.520000	-0.038430
	22.525000	-0.022313
	22.530000	0.080835
	22.535000	0.071165
	22.540000	-0.035206
	22.545000	-0.015866
	22.550000	0.084058
	22.555000	0.067941
	22.560000	-0.041653
	22.565000	-0.019089
	22.570000	0.084058
	22.575000	0.067941
	22.580000	-0.031983
	22.585000	-0.019089
	22.590000	0.087281
	22.595000	0.064718
	22.600000	-0.035206
	22.605000	-0.015866
	22.610000	0.084058
	22.615000	0.067941
	22.620000	-0.041653
	22.625000	-0.022313
	22.630000	0.080835
	22.635000	0.064718
	22.640000	-0.038430
	22.645000	-0.022313
	22.650000	0.080835
	22.655000	0.061495
	22.660000	-0.041653
	22.665000	-0.022313
	22.670000	0.084058
	22.675000	0.061495
	22.680000	-0.038430
	22.685000	-0.022313
	22.690000	0.084058
	22.695000	0.064718
	22.700000	-0.048100
	22.705000	-0.022313
	22.710000	0.084058
	22.715000	0.064718
	22.720000	-0.044876
	22.725000	-0.022313
	22.730000	0.084058
	22.735000	0.064718
	22.740000	-0.038430
	22.745000	-0.025536
	22.750000	0.080835
	22.755000	0.058271
	22.760000	-0.044876
	22.765000	-0.015866
	22.770000	0.084058
	22.775000	0.064718
	22.780000	-0.038430
	22.785000	-0.022313
	22.790000	0.087281
	22.795000	0.071165
	22.800000	-0.035206
	22.805000	-0.015866
	22.810000	0.090505
	22.815000	0.071165
	22.820000	-0.035206
	22.825000	-0.009419
	22.830000	0.093728
	22.835000	0.074388
	22.840000	-0.035206
	22.845000	-0.009419
	22.850000	0.090505
	22.855000	0.067941
	22.860000	-0.031983
	22.865000	-0.012643
	22.870000	0.100175
	22.875000	0.074388
	22.880000	-0.038430
	22.885000	-0.006196
	22.890000	0.096952
	22.895000	0.067941
	22.900000	-0.038430
	22.905000	-0.009419
	22.910000	0.096952
	22.915000	0.064718
	22.920000	-0.035206
	22.925000	-0.006196
	22.930000	0.100175
	22.935000	0.071165
	22.940000	-0.028759
	22.945000	-0.002973
	22.950000	0.109845
	22.955000	0.080835
	22.960000	-0.019089
	22.965000	0.009921
	22.970000	0.125962
	22.975000	0.096952
	22.980000	0.003474
	22.985000	0.035708
	22.990000	0.138855
	22.995000	0.125962
	23.000000	0.022814
	23.005000	0.051825
	23.010000	0.161419
	23.015000	0.138855
	23.020000	0.042154
	23.025000	0.071165
	23.030000	0.174312
	23.035000	0.142079
	23.040000	0.045378
	23.045000	0.077611
	23.050000	0.180759
	23.055000	0.158195
	23.060000	0.058271
	23.065000	0.087281
	23.070000	0.200099
	23.075000	0.187206
	23.080000	0.100175
	23.085000	0.122738
	23.090000	0.242003
	23.095000	0.216216
	23.100000	0.125962
	23.105000	0.145302
	23.110000	0.248449
	23.115000	0.219439
	23.120000	0.119515
	23.125000	0.145302
	23.130000	0.235556
	23.135000	0.206546
	23.140000	0.109845
	23.145000	0.135632
	23.150000	0.232333
	23.155000	0.200099
	23.160000	0.093728
	23.165000	0.129185
	23.170000	0.219439
	23.175000	0.196876
	23.180000	0.090505
	23.185000	0.119515
	23.190000	0.222663
	23.195000	0.200099
	23.200000	0.096952
	23.205000	0.122738
	23.210000	0.222663
	23.215000	0.203322
	23.220000	0.100175
	23.225000	0.125962
	23.230000	0.229109
	23.235000	0.206546
	23.240000	0.109845
	23.245000	0.138855
	23.250000	0.238779
	23.255000	0.216216
	23.260000	0.122738
	23.265000	0.148525
	23.270000	0.251673
	23.275000	0.225886
	23.280000	0.129185
	23.285000	0.154972
	23.290000	0.258119
	23.295000	0.232333
	23.300000	0.135632
	23.305000	0.164642
	23.310000	0.258119
	23.315000	0.235556
	23.320000	0.145302
	23.325000	0.174312
	23.330000	0.264566
	23.335000	0.245226
	23.340000	0.142079
	23.345000	0.180759
	23.350000	0.277460
	23.355000	0.251673
	23.360000	0.158195
	23.365000	0.187206
	23.370000	0.283906
	23.375000	0.261343
	23.380000	0.164642
	23.385000	0.200099
	23.390000	0.290353
	23.395000	0.267790
	23.400000	0.174312
	23.405000	0.206546
	23.410000	0.300023
	23.415000	0.264566
	23.420000	0.171089
	23.425000	0.206546
	23.430000	0.303247
	23.435000	0.274236
	23.440000	0.180759
	23.445000	0.212992
	23.450000	0.303247
	23.455000	0.274236
	23.460000	0.174312
	23.465000	0.209769
	23.470000	0.303247
	23.475000	0.267790
	23.480000	0.171089
	23.485000	0.206546
	23.490000	0.296800
	23.495000	0.267790
	23.500000	0.171089
	23.505000	0.196876
	23.510000	0.296800
	23.515000	0.261343
	23.520000	0.161419
	23.525000	0.193652
	23.530000	0.287130
	23.535000	0.254896
	23.540000	0.154972
	23.545000	0.193652
	23.550000	0.280683
	23.555000	0.245226
	23.560000	0.151749
	23.565000	0.177536
	23.570000	0.274236
	23.575000	0.245226
	23.580000	0.145302
	23.585000	0.183982
	23.590000	0.277460
	23.595000	0.238779
	23.600000	0.148525
	23.605000	0.180759
	23.610000	0.271013
	23.615000	0.238779
	23.620000	0.142079
	23.625000	0.180759
	23.630000	0.277460
	23.635000	0.242003
	23.640000	0.138855
	23.645000	0.177536
	23.650000	0.264566
	23.655000	0.235556
	23.660000	0.138855
	23.665000	0.171089
	23.670000	0.267790
	23.675000	0.232333
	23.680000	0.138855
	23.685000	0.167865
	23.690000	0.261343
	23.695000	0.235556
	23.700000	0.138855
	23.705000	0.174312
	23.710000	0.274236
	23.715000	0.232333
	23.720000	0.135632
	23.725000	0.167865
	23.730000	0.267790
	23.735000	0.232333
	23.740000	0.135632
	23.745000	0.167865
	23.750000	0.261343
	23.755000	0.229109
	23.760000	0.138855
	23.765000	0.171089
	23.770000	0.258119
	23.775000	0.235556
	23.780000	0.135632
	23.785000	0.174312
	23.790000	0.261343
	23.795000	0.232333
	23.800000	0.135632
	23.805000	0.177536
	23.810000	0.261343
	23.815000	0.225886
	23.820000	0.138855
	23.825000	0.164642
	23.830000	0.261343
	23.835000	0.219439
	23.840000	0.129185
	23.845000	0.158195
	23.850000	0.248449
	23.855000	0.203322
	23.860000	0.113068
	23.865000	0.145302
	23.870000	0.222663
	23.875000	0.190429
	23.880000	0.090505
	23.885000	0.119515
	23.890000	0.203322
	23.895000	0.174312
	23.900000	0.067941
	23.905000	0.106622
	23.910000	0.190429
	23.915000	0.148525
	23.920000	0.051825
	23.925000	0.087281
	23.930000	0.171089
	23.935000	0.132408
	23.940000	0.035708
	23.945000	0.071165
	23.950000	0.154972
	23.955000	0.116292
	23.960000	0.016368
	23.965000	0.051825
	23.970000	0.145302
	23.975000	0.103398
	23.980000	0.003474
	23.985000	0.048601
	23.990000	0.132408
	23.995000	0.093728
	24.000000	-0.002973
	24.005000	0.026038
	24.010000	0.116292
	24.015000	0.071165
	24.020000	-0.019089
	24.025000	0.016368
	24.030000	0.109845
	24.035000	0.064718
	24.040000	-0.028759
	24.045000	0.013144
	24.050000	0.103398
	24.055000	0.064718
	24.060000	-0.038430
	24.065000	0.003474
	24.070000	0.093728
	24.075000	0.048601
	24.080000	-0.044876
	24.085000	-0.006196
	24.090000	0.087281
	24.095000	0.042154
	24.100000	-0.051323
	24.105000	-0.015866
	24.110000	0.077611
	24.115000	0.045378
	24.120000	-0.060993
	24.125000	-0.019089
	24.130000	0.074388
	24.135000	0.026038
	24.140000	-0.060993
	24.145000	-0.019089
	24.150000	0.064718
	24.155000	0.029261
	24.160000	-0.064216
	24.165000	-0.022313
	24.170000	0.067941
	24.175000	0.032484
	24.180000	-0.064216
	24.185000	-0.019089
	24.190000	0.067941
	24.195000	0.032484
	24.200000	-0.060993
	24.205000	-0.015866
	24.210000	0.074388
	24.215000	0.035708
	24.220000	-0.067440
	24.225000	-0.015866
	24.230000	0.077611
	24.235000	0.032484
	24.240000	-0.060993
	24.245000	-0.019089
	24.250000	0.071165
	24.255000	0.038931
	24.260000	-0.064216
	24.265000	-0.022313
	24.270000	0.074388
	24.275000	0.029261
	24.280000	-0.060993
	24.285000	-0.009419
	24.290000	0.077611
	24.295000	0.035708
	24.300000	-0.060993
	24.305000	-0.019089
	24.310000	0.077611
	24.315000	0.038931
	24.320000	-0.060993
	24.325000	-0.009419
	24.330000	0.077611
	24.335000	0.038931
	24.340000	-0.057770
	24.345000	-0.012643
	24.350000	0.084058
	24.355000	0.032484
	24.360000	-0.051323
	24.365000	-0.006196
	24.370000	0.090505
	24.375000	0.035708
	24.380000	-0.051323
	24.385000	-0.002973
	24.390000	0.087281
	24.395000	0.038931
	24.400000	-0.051323
	24.405000	-0.009419
	24.410000	0.090505
	24.415000	0.048601
	24.420000	-0.048100
	24.425000	-0.002973
	24.430000	0.100175
	24.435000	0.045378
	24.440000	-0.044876
	24.445000	0.003474
	24.450000	0.090505
	24.455000	0.051825
	24.460000	-0.044876
	24.465000	0.006697
	24.470000	0.096952
	24.475000	0.051825
	24.480000	-0.044876
	24.485000	0.009921
	24.490000	0.103398
	24.495000	0.055048
	24.500000	-0.041653
	24.505000	0.009921
	24.510000	0.103398
	24.515000	0.055048
	24.520000	-0.038430
	24.525000	0.009921
	24.530000	0.096952
	24.535000	0.058271
	24.540000	-0.038430
	24.545000	0.019591
	24.550000	0.103398
	24.555000	0.055048
	24.560000	-0.035206
	24.565000	0.009921
	24.570000	0.109845
	24.575000	0.055048
	24.580000	-0.041653
	24.585000	0.016368
	24.590000	0.109845
	24.595000	0.051825
	24.600000	-0.031983
	24.605000	0.013144
	24.610000	0.109845
	24.615000	0.055048
	24.620000	-0.035206
	24.625000	0.019591
	24.630000	0.100175
	24.635000	0.058271
	24.640000	-0.035206
	24.645000	0.016368
	24.650000	0.113068
	24.655000	0.061495
	24.660000	-0.035206
	24.665000	0.016368
	24.670000	0.113068
	24.675000	0.064718
	24.680000	-0.031983
	24.685000	0.013144
	24.690000	0.113068
	24.695000	0.064718
	24.700000	-0.035206
	24.705000	0.019591
	24.710000	0.109845
	24.715000	0.061495
	24.720000	-0.031983
	24.725000	0.016368
	24.730000	0.113068
	24.735000	0.058271
	24.740000	-0.035206
	24.745000	0.022814
	24.750000	0.109845
	24.755000	0.058271
	24.760000	-0.035206
	24.765000	0.019591
	24.770000	0.113068
	24.775000	0.058271
	24.780000	-0.031983
	24.785000	0.016368
	24.790000	0.113068
	24.795000	0.061495
	24.800000	-0.035206
	24.805000	0.019591
	24.810000	0.109845
	24.815000	0.061495
	24.820000	-0.028759
	24.825000	0.022814
	24.830000	0.113068
	24.835000	0.061495
	24.840000	-0.031983
	24.845000	0.022814
	24.850000	0.109845
	24.855000	0.058271
	24.860000	-0.028759
	24.865000	0.019591
	24.870000	0.116292
	24.875000	0.058271
	24.880000	-0.038430
	24.885000	0.026038
	24.890000	0.116292
	24.895000	0.061495
	24.900000	-0.035206
	24.905000	0.029261
	24.910000	0.119515
	24.915000	0.051825
	24.920000	-0.031983
	24.925000	0.026038
	24.930000	0.109845
	24.935000	0.051825
	24.940000	-0.035206
	24.945000	0.019591
	24.950000	0.119515
	24.955000	0.058271
	24.960000	-0.031983
	24.965000	0.022814
	24.970000	0.113068
	24.975000	0.058271
	24.980000	-0.031983
	24.985000	0.019591
	24.990000	0.109845
	24.995000	0.058271
	25.000000	-0.038430
	25.005000	0.019591
	25.010000	0.119515
	25.015000	0.058271
	25.020000	-0.031983
	25.025000	0.019591
	25.030000	0.109845
	25.035000	0.058271
	25.040000	-0.035206
	25.045000	0.026038
	25.050000	0.113068
	25.055000	0.051825
	25.060000	-0.038430
	25.065000	0.019591
	25.070000	0.116292
	25.075000	0.055048
	25.080000	-0.035206
	25.085000	0.026038
	25.090000	0.106622
	25.095000	0.048601
	25.100000	-0.044876
	25.105000	0.022814
	25.110000	0.109845
	25.115000	0.058271
	25.120000	-0.035206
	25.125000	0.026038
	25.130000	0.113068
	25.135000	0.055048
	25.140000	-0.038430
	25.145000	0.022814
	25.150000	0.106622
	25.155000	0.051825
	25.160000	-0.035206
	25.165000	0.026038
	25.170000	0.109845
	25.175000	0.045378
	25.180000	-0.035206
	25.185000	0.022814
	25.190000	0.109845
	25.195000	0.055048
	25.200000	-0.031983
	25.205000	0.019591
	25.210000	0.119515
	25.215000	0.058271
	25.220000	-0.031983
	25.225000	0.026038
	25.230000	0.106622
	25.235000	0.051825
	25.240000	-0.038430
	25.245000	0.022814
	25.250000	0.113068
	25.255000	0.051825
	25.260000	-0.035206
	25.265000	0.022814
	25.270000	0.109845
	25.275000	0.051825
	25.280000	-0.028759
	25.285000	0.019591
	25.290000	0.119515
	25.295000	0.055048
	25.300000	-0.031983
	25.305000	0.032484
	25.310000	0.119515
	25.315000	0.061495
	25.320000	-0.028759
	25.325000	0.038931
	25.330000	0.122738
	25.335000	0.058271
	25.340000	-0.028759
	25.345000	0.035708
	25.350000	0.116292
	25.355000	0.058271
	25.360000	-0.025536
	25.365000	0.032484
	25.370000	0.119515
	25.375000	0.064718
	25.380000	-0.025536
	25.385000	0.042154
	25.390000	0.129185
	25.395000	0.064718
	25.400000	-0.022313
	25.405000	0.038931
	25.410000	0.125962
	25.415000	0.061495
	25.420000	-0.019089
	25.425000	0.045378
	25.430000	0.132408
	25.435000	0.064718
	25.440000	-0.022313
	25.445000	0.042154
	25.450000	0.132408
	25.455000	0.067941
	25.460000	-0.012643
	25.465000	0.048601
	25.470000	0.132408
	25.475000	0.071165
	25.480000	-0.012643
	25.485000	0.048601
	25.490000	0.135632
	25.495000	0.071165
	25.500000	-0.015866
	25.505000	0.051825
	25.510000	0.135632
	25.515000	0.071165
	25.520000	-0.006196
	25.525000	0.051825
	25.530000	0.135632
	25.535000	0.080835
	25.540000	-0.006196
	25.545000	0.055048
	25.550000	0.142079
	25.555000	0.074388
	25.560000	-0.009419
	25.565000	0.058271
	25.570000	0.148525
	25.575000	0.080835
	25.580000	-0.006196
	25.585000	0.055048
	25.590000	0.142079
	25.595000	0.074388
	25.600000	-0.009419
	25.605000	0.055048
	25.610000	0.138855
	25.615000	0.071165
	25.620000	-0.009419
	25.625000	0.064718
	25.630000	0.148525
	25.635000	0.077611
	25.640000	-0.009419
	25.645000	0.058271
	25.650000	0.142079
	25.655000	0.077611
	25.660000	0.000251
	25.665000	0.064718
	25.670000	0.138855
	25.675000	0.080835
	25.680000	-0.006196
	25.685000	0.067941
	25.690000	0.142079
	25.695000	0.080835
	25.700000	0.000251
	25.705000	0.064718
	25.710000	0.142079
	25.715000	0.074388
	25.720000	0.000251
	25.725000	0.064718
	25.730000	0.148525
	25.735000	0.087281
	25.740000	0.000251
	25.745000	0.064718
	25.750000	0.148525
	25.755000	0.084058
	25.760000	-0.006196
	25.765000	0.064718
	25.770000	0.145302
	25.775000	0.084058
	25.780000	0.000251
	25.785000	0.067941
	25.790000	0.142079
	25.795000	0.077611
	25.800000	-0.002973
	25.805000	0.064718
	25.810000	0.142079
	25.815000	0.077611
	25.820000	-0.002973
	25.825000	0.064718
	25.830000	0.145302
	25.835000	0.077611
	25.840000	0.000251
	25.845000	0.067941
	25.850000	0.151749
	25.855000	0.080835
	25.860000	-0.002973
	25.865000	0.064718
	25.870000	0.145302
	25.875000	0.077611
	25.880000	-0.002973
	25.885000	0.067941
	25.890000	0.148525
	25.895000	0.077611
	25.900000	-0.006196
	25.905000	0.067941
	25.910000	0.145302
	25.915000	0.077611
	25.920000	-0.009419
	25.925000	0.067941
	25.930000	0.145302
	25.935000	0.074388
	25.940000	-0.002973
	25.945000	0.067941
	25.950000	0.142079
	25.955000	0.067941
	25.960000	-0.012643
	25.965000	0.067941
	25.970000	0.148525
	25.975000	0.074388
	25.980000	-0.009419
	25.985000	0.064718
	25.990000	0.145302
	25.995000	0.077611
	26.000000	-0.002973
	26.005000	0.067941
	26.010000	0.138855
	26.015000	0.064718
	26.020000	-0.006196
	26.025000	0.058271
	26.030000	0.142079
	26.035000	0.071165
	26.040000	-0.009419
	26.045000	0.064718
	26.050000	0.142079
	26.055000	0.067941
	26.060000	-0.006196
	26.065000	0.061495
	26.070000	0.142079
	26.075000	0.077611
	26.080000	-0.002973
	26.085000	0.061495
	26.090000	0.138855
	26.095000	0.074388
	26.100000	-0.009419
	26.105000	0.061495
	26.110000	0.142079
	26.115000	0.071165
	26.120000	-0.006196
	26.125000	0.064718
	26.130000	0.132408
	26.135000	0.067941
	26.140000	-0.015866
	26.145000	0.067941
	26.150000	0.138855
	26.155000	0.064718
	26.160000	-0.006196
	26.165000	0.064718
	26.170000	0.142079
	26.175000	0.067941
	26.180000	-0.006196
	26.185000	0.061495
	26.190000	0.142079
	26.195000	0.067941
	26.200000	-0.012643
	26.205000	0.071165
	26.210000	0.138855
	26.215000	0.067941
	26.220000	-0.006196
	26.225000	0.067941
	26.230000	0.142079
	26.235000	0.061495
	26.240000	-0.006196
	26.245000	0.074388
	26.250000	0.148525
	26.255000	0.067941
	26.260000	-0.006196
	26.265000	0.071165
	26.270000	0.142079
	26.275000	0.061495
	26.280000	-0.009419
	26.285000	0.061495
	26.290000	0.145302
	26.295000	0.067941
	26.300000	-0.009419
	26.305000	0.061495
	26.310000	0.145302
	26.315000	0.061495
	26.320000	-0.009419
	26.325000	0.067941
	26.330000	0.142079
	26.335000	0.067941
	26.340000	-0.006196
	26.345000	0.071165
	26.350000	0.145302
	26.355000	0.071165
	26.360000	-0.002973
	26.365000	0.074388
	26.370000	0.138855
	26.375000	0.067941
	26.380000	-0.002973
	26.385000	0.074388
	26.390000	0.148525
	26.395000	0.074388
	26.400000	0.003474
	26.405000	0.077611
	26.410000	0.151749
	26.415000	0.074388
	26.420000	0.000251
	26.425000	0.074388
	26.430000	0.154972
	26.435000	0.071165
	26.440000	0.000251
	26.445000	0.071165
	26.450000	0.148525
	26.455000	0.064718
	26.460000	0.006697
	26.465000	0.077611
	26.470000	0.151749
	26.475000	0.074388
	26.480000	0.003474
	26.485000	0.080835
	26.490000	0.151749
	26.495000	0.067941
	26.500000	-0.006196
	26.505000	0.077611
	26.510000	0.151749
	26.515000	0.064718
	26.520000	0.003474
	26.525000	0.071165
	26.530000	0.142079
	26.535000	0.067941
	26.540000	0.000251
	26.545000	0.084058
	26.550000	0.142079
	26.555000	0.071165
	26.560000	0.000251
	26.565000	0.077611
	26.570000	0.151749
	26.575000	0.071165
	26.580000	0.006697
	26.585000	0.084058
	26.590000	0.148525
	26.595000	0.071165
	26.600000	0.003474
	26.605000	0.080835
	26.610000	0.148525
	26.615000	0.074388
	26.620000	0.006697
	26.625000	0.084058
	26.630000	0.151749
	26.635000	0.067941
	26.640000	0.003474
	26.645000	0.077611
	26.650000	0.151749
	26.655000	0.071165
	26.660000	0.006697
	26.665000	0.080835
	26.670000	0.158195
	26.675000	0.077611
	26.680000	0.006697
	26.685000	0.090505
	26.690000	0.154972
	26.695000	0.074388
	26.700000	0.003474
	26.705000	0.087281
	26.710000	0.154972
	26.715000	0.074388
	26.720000	0.009921
	26.725000	0.093728
	26.730000	0.161419
	26.735000	0.084058
	26.740000	0.019591
	26.745000	0.103398
	26.750000	0.174312
	26.755000	0.090505
	26.760000	0.029261
	26.765000	0.106622
	26.770000	0.177536
	26.775000	0.096952
	26.780000	0.029261
	26.785000	0.109845
	26.790000	0.171089
	26.795000	0.090505
	26.800000	0.029261
	26.805000	0.113068
	26.810000	0.180759
	26.815000	0.100175
	26.820000	0.038931
	26.825000	0.119515
	26.830000	0.183982
	26.835000	0.109845
	26.840000	0.038931
	26.845000	0.125962
	26.850000	0.190429
	26.855000	0.109845
	26.860000	0.048601
	26.865000	0.129185
	26.870000	0.193652
	26.875000	0.106622
	26.880000	0.042154
	26.885000	0.132408
	26.890000	0.193652
	26.895000	0.106622
	26.900000	0.045378
	26.905000	0.125962
	26.910000	0.200099
	26.915000	0.116292
	26.920000	0.055048
	26.925000	0.138855
	26.930000	0.203322
	26.935000	0.129185
	26.940000	0.067941
	26.945000	0.154972
	26.950000	0.222663
	26.955000	0.148525
	26.960000	0.087281
	26.965000	0.180759
	26.970000	0.245226
	26.975000	0.167865
	26.980000	0.109845
	26.985000	0.196876
	26.990000	0.267790
	26.995000	0.190429
	27.000000	0.129185
	27.005000	0.212992
	27.010000	0.287130
	27.015000	0.206546
	27.020000	0.151749
	27.025000	0.229109
	27.030000	0.300023
	27.035000	0.222663
	27.040000	0.164642
	27.045000	0.245226
	27.050000	0.312917
	27.055000	0.232333
	27.060000	0.177536
	27.065000	0.254896
	27.070000	0.325810
	27.075000	0.245226
	27.080000	0.187206
	27.085000	0.271013
	27.090000	0.325810
	27.095000	0.248449
	27.100000	0.193652
	27.105000	0.274236
	27.110000	0.329033
	27.115000	0.251673
	27.120000	0.193652
	27.125000	0.267790
	27.130000	0.332257
	27.135000	0.251673
	27.140000	0.193652
	27.145000	0.274236
	27.150000	0.325810
	27.155000	0.242003
	27.160000	0.187206
	27.165000	0.264566
	27.170000	0.319363
	27.175000	0.242003
	27.180000	0.177536
	27.185000	0.258119
	27.190000	0.312917
	27.195000	0.232333
	27.200000	0.171089
	27.205000	0.251673
	27.210000	0.306470
	27.215000	0.225886
	27.220000	0.171089
	27.225000	0.248449
	27.230000	0.306470
	27.235000	0.222663
	27.240000	0.164642
	27.245000	0.245226
	27.250000	0.296800
	27.255000	0.212992
	27.260000	0.161419
	27.265000	0.245226
	27.270000	0.300023
	27.275000	0.212992
	27.280000	0.161419
	27.285000	0.238779
	27.290000	0.296800
	27.295000	0.206546
	27.300000	0.151749
	27.305000	0.235556
	27.310000	0.287130
	27.315000	0.203322
	27.320000	0.142079
	27.325000	0.225886
	27.330000	0.277460
	27.335000	0.203322
	27.340000	0.142079
	27.345000	0.219439
	27.350000	0.267790
	27.355000	0.193652
	27.360000	0.129185
	27.365000	0.212992
	27.370000	0.267790
	27.375000	0.177536
	27.380000	0.119515
	27.385000	0.200099
	27.390000	0.254896
	27.395000	0.171089
	27.400000	0.116292
	27.405000	0.196876
	27.410000	0.245226
	27.415000	0.164642
	27.420000	0.109845
	27.425000	0.190429
	27.430000	0.242003
	27.435000	0.161419
	27.440000	0.109845
	27.445000	0.187206
	27.450000	0.232333
	27.455000	0.158195
	27.460000	0.100175
	27.465000	0.187206
	27.470000	0.242003
	27.475000	0.154972
	27.480000	0.103398
	27.485000	0.187206
	27.490000	0.242003
	27.495000	0.161419
	27.500000	0.106622
	27.505000	0.187206
	27.510000	0.245226
	27.515000	0.145302
	27.520000	0.106622
	27.525000	0.187206
	27.530000	0.235556
	27.535000	0.154972
	27.540000	0.100175
	27.545000	0.193652
	27.550000	0.242003
	27.555000	0.161419
	27.560000	0.106622
	27.565000	0.187206
	27.570000	0.235556
	27.575000	0.151749
	27.580000	0.096952
	27.585000	0.183982
	27.590000	0.232333
	27.595000	0.154972
	27.600000	0.100175
	27.605000	0.190429
	27.610000	0.238779
	27.615000	0.154972
	27.620000	0.100175
	27.625000	0.187206
	27.630000	0.242003
	27.635000	0.154972
	27.640000	0.103398
	27.645000	0.183982
	27.650000	0.232333
	27.655000	0.154972
	27.660000	0.103398
	27.665000	0.187206
	27.670000	0.235556
	27.675000	0.154972
	27.680000	0.096952
	27.685000	0.183982
	27.690000	0.238779
	27.695000	0.154972
	27.700000	0.103398
	27.705000	0.190429
	27.710000	0.238779
	27.715000	0.154972
	27.720000	0.103398
	27.725000	0.190429
	27.730000	0.238779
	27.735000	0.148525
	27.740000	0.109845
	27.745000	0.193652
	27.750000	0.245226
	27.755000	0.158195
	27.760000	0.106622
	27.765000	0.190429
	27.770000	0.245226
	27.775000	0.154972
	27.780000	0.106622
	27.785000	0.193652
	27.790000	0.238779
	27.795000	0.154972
	27.800000	0.100175
	27.805000	0.193652
	27.810000	0.232333
	27.815000	0.154972
	27.820000	0.103398
	27.825000	0.187206
	27.830000	0.229109
	27.835000	0.145302
	27.840000	0.096952
	27.845000	0.174312
	27.850000	0.225886
	27.855000	0.132408
	27.860000	0.077611
	27.865000	0.164642
	27.870000	0.206546
	27.875000	0.116292
	27.880000	0.061495
	27.885000	0.148525
	27.890000	0.183982
	27.895000	0.096952
	27.900000	0.042154
	27.905000	0.122738
	27.910000	0.171089
	27.915000	0.077611
	27.920000	0.026038
	27.925000	0.103398
	27.930000	0.148525
	27.935000	0.058271
	27.940000	0.003474
	27.945000	0.090505
	27.950000	0.135632
	27.955000	0.032484
	27.960000	-0.009419
	27.965000	0.074388
	27.970000	0.119515
	27.975000	0.029261
	27.980000	-0.019089
	27.985000	0.058271
	27.990000	0.106622
	27.995000	0.009921
	28.000000	-0.041653
	28.005000	0.055048
	28.010000	0.090505
	28.015000	-0.002973
	28.020000	-0.041653
	28.025000	0.048601
	28.030000	0.087281
	28.035000	-0.009419
	28.040000	-0.051323
	28.045000	0.042154
	28.050000	0.084058
	28.055000	-0.012643
	28.060000	-0.057770
	28.065000	0.038931
	28.070000	0.084058
	28.075000	-0.012643
	28.080000	-0.057770
	28.085000	0.032484
	28.090000	0.074388
	28.095000	-0.019089
	28.100000	-0.064216
	28.105000	0.026038
	28.110000	0.061495
	28.115000	-0.022313
	28.120000	-0.070663
	28.125000	0.019591
	28.130000	0.071165
	28.135000	-0.025536
	28.140000	-0.073886
	28.145000	0.022814
	28.150000	0.074388
	28.155000	-0.022313
	28.160000	-0.067440
	28.165000	0.022814
	28.170000	0.067941
	28.175000	-0.025536
	28.180000	-0.067440
	28.185000	0.026038
	28.190000	0.071165
	28.195000	-0.025536
	28.200000	-0.073886
	28.205000	0.029261
	28.210000	0.067941
	28.215000	-0.031983
	28.220000	-0.070663
	28.225000	0.022814
	28.230000	0.067941
	28.235000	-0.025536
	28.240000	-0.067440
	28.245000	0.029261
	28.250000	0.067941
	28.255000	-0.022313
	28.260000	-0.060993
	28.265000	0.032484
	28.270000	0.067941
	28.275000	-0.022313
	28.280000	-0.060993
	28.285000	0.029261
	28.290000	0.071165
	28.295000	-0.015866
	28.300000	-0.064216
	28.305000	0.038931
	28.310000	0.074388
	28.315000	-0.019089
	28.320000	-0.060993
	28.325000	0.038931
	28.330000	0.080835
	28.335000	-0.015866
	28.340000	-0.057770
	28.345000	0.038931
	28.350000	0.084058
	28.355000	-0.019089
	28.360000	-0.054546
	28.365000	0.038931
	28.370000	0.080835
	28.375000	-0.015866
	28.380000	-0.054546
	28.385000	0.042154
	28.390000	0.087281
	28.395000	-0.009419
	28.400000	-0.051323
	28.405000	0.045378
	28.410000	0.090505
	28.415000	-0.009419
	28.420000	-0.048100
	28.425000	0.051825
	28.430000	0.096952
	28.435000	-0.009419
	28.440000	-0.044876
	28.445000	0.051825
	28.450000	0.096952
	28.455000	0.003474
	28.460000	-0.044876
	28.465000	0.055048
	28.470000	0.096952
	28.475000	-0.002973
	28.480000	-0.038430
	28.485000	0.058271
	28.490000	0.093728
	28.495000	-0.006196
	28.500000	-0.044876
	28.505000	0.058271
	28.510000	0.100175
	28.515000	0.003474
	28.520000	-0.038430
	28.525000	0.061495
	28.530000	0.096952
	28.535000	0.000251
	28.540000	-0.035206
	28.545000	0.067941
	28.550000	0.100175
	28.555000	-0.002973
	28.560000	-0.038430
	28.565000	0.055048
	28.570000	0.090505
	28.575000	0.000251
	28.580000	-0.038430
	28.585000	0.064718
	28.590000	0.100175
	28.595000	-0.002973
	28.600000	-0.035206
	28.605000	0.064718
	28.610000	0.096952
	28.615000	0.003474
	28.620000	-0.035206
	28.625000	0.064718
	28.630000	0.103398
	28.635000	0.000251
	28.640000	-0.038430
	28.645000	0.067941
	28.650000	0.096952
	28.655000	-0.002973
	28.660000	-0.035206
	28.665000	0.064718
	28.670000	0.103398
	28.675000	0.006697
	28.680000	-0.038430
	28.685000	0.067941
	28.690000	0.109845
	28.695000	0.003474
	28.700000	-0.035206
	28.705000	0.071165
	28.710000	0.103398
	28.715000	0.000251
	28.720000	-0.028759
	28.725000	0.077611
	28.730000	0.100175
	28.735000	0.006697
	28.740000	-0.031983
	28.745000	0.071165
	28.750000	0.100175
	28.755000	0.003474
	28.760000	-0.038430
	28.765000	0.071165
	28.770000	0.103398
	28.775000	0.003474
	28.780000	-0.035206
	28.785000	0.071165
	28.790000	0.100175
	28.795000	-0.006196
	28.800000	-0.031983
	28.805000	0.071165
	28.810000	0.103398
	28.815000	0.003474
	28.820000	-0.031983
	28.825000	0.067941
	28.830000	0.109845
	28.835000	0.003474
	28.840000	-0.038430
	28.845000	0.074388
	28.850000	0.103398
	28.855000	0.003474
	28.860000	-0.028759
	28.865000	0.077611
	28.870000	0.106622
	28.875000	-0.002973
	28.880000	-0.028759
	28.885000	0.080835
	28.890000	0.106622
	28.895000	0.003474
	28.900000	-0.028759
	28.905000	0.074388
	28.910000	0.106622
	28.915000	0.000251
	28.920000	-0.022313
	28.925000	0.080835
	28.930000	0.100175
	28.935000	-0.002973
	28.940000	-0.028759
	28.945000	0.077611
	28.950000	0.106622
	28.955000	0.006697
	28.960000	-0.022313
	28.965000	0.084058
	28.970000	0.109845
	28.975000	0.000251
	28.980000	-0.019089
	28.985000	0.084058
	28.990000	0.109845
	28.995000	0.003474
	29.000000	-0.019089
	29.005000	0.084058
	29.010000	0.109845
	29.015000	0.006697
	29.020000	-0.022313
	29.025000	0.084058
	29.030000	0.106622
	29.035000	0.006697
	29.040000	-0.019089
	29.045000	0.087281
	29.050000	0.113068
	29.055000	0.009921
	29.060000	-0.012643
	29.065000	0.084058
	29.070000	0.113068
	29.075000	0.013144
	29.080000	-0.019089
	29.085000	0.093728
	29.090000	0.116292
	29.095000	0.009921
	29.100000	-0.012643
	29.105000	0.090505
	29.110000	0.122738
	29.115000	0.009921
	29.120000	-0.009419
	29.125000	0.096952
	29.130000	0.116292
	29.135000	0.016368
	29.140000	-0.006196
	29.145000	0.100175
	29.150000	0.116292
	29.155000	0.019591
	29.160000	-0.002973
	29.165000	0.100175
	29.170000	0.125962
	29.175000	0.019591
	29.180000	-0.006196
	29.185000	0.106622
	29.190000	0.122738
	29.195000	0.019591
	29.200000	0.000251
	29.205000	0.103398
	29.210000	0.129185
	29.215000	0.022814
	29.220000	0.000251
	29.225000	0.106622
	29.230000	0.132408
	29.235000	0.026038
	29.240000	0.006697
	29.245000	0.103398
	29.250000	0.135632
	29.255000	0.032484
	29.260000	0.006697
	29.265000	0.116292
	29.270000	0.135632
	29.275000	0.026038
	29.280000	0.013144
	29.285000	0.116292
	29.290000	0.138855
	29.295000	0.038931
	29.300000	0.009921
	29.305000	0.122738
	29.310000	0.138855
	29.315000	0.032484
	29.320000	0.016368
	29.325000	0.116292
	29.330000	0.142079
	29.335000	0.042154
	29.340000	0.019591
	29.345000	0.122738
	29.350000	0.142079
	29.355000	0.038931
	29.360000	0.019591
	29.365000	0.129185
	29.370000	0.142079
	29.375000	0.042154
	29.380000	0.022814
	29.385000	0.129185
	29.390000	0.151749
	29.395000	0.042154
	29.400000	0.029261
	29.405000	0.125962
	29.410000	0.148525
	29.415000	0.045378
	29.420000	0.026038
	29.425000	0.129185
	29.430000	0.148525
	29.435000	0.045378
	29.440000	0.022814
	29.445000	0.129185
	29.450000	0.151749
	29.455000	0.042154
	29.460000	0.026038
	29.465000	0.135632
	29.470000	0.151749
	29.475000	0.042154
	29.480000	0.029261
	29.485000	0.138855
	29.490000	0.148525
	29.495000	0.042154
	29.500000	0.029261
	29.505000	0.132408
	29.510000	0.148525
	29.515000	0.042154
	29.520000	0.022814
	29.525000	0.132408
	29.530000	0.158195
	29.535000	0.042154
	29.540000	0.026038
	29.545000	0.132408
	29.550000	0.151749
	29.555000	0.038931
	29.560000	0.022814
	29.565000	0.135632
	29.570000	0.148525
	29.575000	0.045378
	29.580000	0.022814
	29.585000	0.132408
	29.590000	0.148525
	29.595000	0.042154
	29.600000	0.032484
	29.605000	0.132408
	29.610000	0.151749
	29.615000	0.029261
	29.620000	0.019591
	29.625000	0.129185
	29.630000	0.145302
	29.635000	0.038931
	29.640000	0.038931
	29.645000	0.135632
	29.650000	0.148525
	29.655000	0.038931
	29.660000	0.026038
	29.665000	0.135632
	29.670000	0.138855
	29.675000	0.042154
	29.680000	0.032484
	29.685000	0.132408
	29.690000	0.151749
	29.695000	0.045378
	29.700000	0.029261
	29.705000	0.135632
	29.710000	0.151749
	29.715000	0.038931
	29.720000	0.029261
	29.725000	0.129185
	29.730000	0.148525
	29.735000	0.038931
	29.740000	0.026038
	29.745000	0.138855
	29.750000	0.151749
	29.755000	0.042154
	29.760000	0.032484
	29.765000	0.129185
	29.770000	0.148525
	29.775000	0.035708
	29.780000	0.029261
	29.785000	0.132408
	29.790000	0.145302
	29.795000	0.035708
	29.800000	0.038931
	29.805000	0.142079
	29.810000	0.154972
	29.815000	0.038931
	29.820000	0.032484
	29.825000	0.138855
	29.830000	0.148525
	29.835000	0.045378
	29.840000	0.026038
	29.845000	0.142079
	29.850000	0.151749
	29.855000	0.038931
	29.860000	0.029261
	29.865000	0.145302
	29.870000	0.151749
	29.875000	0.045378
	29.880000	0.032484
	29.885000	0.138855
	29.890000	0.151749
	29.895000	0.045378
	29.900000	0.038931
	29.905000	0.142079
	29.910000	0.145302
	29.915000	0.035708
	29.920000	0.038931
	29.925000	0.148525
	29.930000	0.151749
	29.935000	0.042154
	29.940000	0.035708
	29.945000	0.145302
	29.950000	0.154972
	29.955000	0.051825
	29.960000	0.042154
	29.965000	0.148525
	29.970000	0.151749
	29.975000	0.045378
	29.980000	0.045378
	29.985000	0.148525
	29.990000	0.154972
	29.995000	0.048601
	30.000000	0.038931
	30.005000	0.151749
	30.010000	0.145302
	30.015000	0.045378
	30.020000	0.045378
	30.025000	0.151749
	30.030000	0.158195
	30.035000	0.042154
	30.040000	0.038931
	30.045000	0.151749
	30.050000	0.148525
	30.055000	0.045378
	30.060000	0.038931
	30.065000	0.148525
	30.070000	0.154972
	30.075000	0.048601
	30.080000	0.038931
	30.085000	0.148525
	30.090000	0.151749
	30.095000	0.042154
	30.100000	0.042154
	30.105000	0.151749
	30.110000	0.154972
	30.115000	0.042154
	30.120000	0.048601
	30.125000	0.148525
	30.130000	0.148525
	30.135000	0.042154
	30.140000	0.038931
	30.145000	0.151749
	30.150000	0.148525
	30.155000	0.042154
	30.160000	0.038931
	30.165000	0.142079
	30.170000	0.145302
	30.175000	0.032484
	30.180000	0.035708
	30.185000	0.151749
	30.190000	0.148525
	30.195000	0.038931
	30.200000	0.038931
	30.205000	0.145302
	30.210000	0.145302
	30.215000	0.038931
	30.220000	0.035708
	30.225000	0.148525
	30.230000	0.145302
	30.235000	0.042154
	30.240000	0.042154
	30.245000	0.145302
	30.250000	0.138855
	30.255000	0.032484
	30.260000	0.038931
	30.265000	0.145302
	30.270000	0.145302
	30.275000	0.038931
	30.280000	0.035708
	30.285000	0.145302
	30.290000	0.145302
	30.295000	0.035708
	30.300000	0.035708
	30.305000	0.148525
	30.310000	0.142079
	30.315000	0.035708
	30.320000	0.042154
	30.325000	0.148525
	30.330000	0.145302
	30.335000	0.035708
	30.340000	0.038931
	30.345000	0.145302
	30.350000	0.145302
	30.355000	0.035708
	30.360000	0.042154
	30.365000	0.151749
	30.370000	0.142079
	30.375000	0.035708
	30.380000	0.038931
	30.385000	0.148525
	30.390000	0.142079
	30.395000	0.038931
	30.400000	0.045378
	30.405000	0.154972
	30.410000	0.145302
	30.415000	0.035708
	30.420000	0.038931
	30.425000	0.145302
	30.430000	0.148525
	30.435000	0.038931
	30.440000	0.038931
	30.445000	0.151749
	30.450000	0.142079
	30.455000	0.035708
	30.460000	0.042154
	30.465000	0.145302
	30.470000	0.148525
	30.475000	0.035708
	30.480000	0.045378
	30.485000	0.151749
	30.490000	0.145302
	30.495000	0.029261
	30.500000	0.048601
	30.505000	0.154972
	30.510000	0.145302
	30.515000	0.038931
	30.520000	0.042154
	30.525000	0.151749
	30.530000	0.145302
	30.535000	0.042154
	30.540000	0.038931
	30.545000	0.151749
	30.550000	0.138855
	30.555000	0.038931
	30.560000	0.042154
	30.565000	0.148525
	30.570000	0.145302
	30.575000	0.035708
	30.580000	0.042154
	30.585000	0.151749
	30.590000	0.145302
	30.595000	0.035708
	30.600000	0.042154
	30.605000	0.148525
	30.610000	0.142079
	30.615000	0.038931
	30.620000	0.048601
	30.625000	0.151749
	30.630000	0.145302
	30.635000	0.032484
	30.640000	0.038931
	30.645000	0.151749
	30.650000	0.145302
	30.655000	0.032484
	30.660000	0.045378
	30.665000	0.154972
	30.670000	0.138855
	30.675000	0.029261
	30.680000	0.048601
	30.685000	0.154972
	30.690000	0.135632
	30.695000	0.026038
	30.700000	0.042154
	30.705000	0.151749
	30.710000	0.135632
	30.715000	0.029261
	30.720000	0.045378
	30.725000	0.151749
	30.730000	0.138855
	30.735000	0.038931
	30.740000	0.038931
	30.745000	0.154972
	30.750000	0.138855
	30.755000	0.029261
	30.760000	0.045378
	30.765000	0.154972
	30.770000	0.138855
	30.775000	0.032484
	30.780000	0.045378
	30.785000	0.148525
	30.790000	0.138855
	30.795000	0.032484
	30.800000	0.042154
	30.805000	0.148525
	30.810000	0.142079
	30.815000	0.026038
	30.820000	0.045378
	30.825000	0.148525
	30.830000	0.135632
	30.835000	0.032484
	30.840000	0.042154
	30.845000	0.154972
	30.850000	0.135632
	30.855000	0.029261
	30.860000	0.045378
	30.865000	0.151749
	30.870000	0.132408
	30.875000	0.029261
	30.880000	0.045378
	30.885000	0.151749
	30.890000	0.135632
	30.895000	0.029261
	30.900000	0.045378
	30.905000	0.158195
	30.910000	0.145302
	30.915000	0.029261
	30.920000	0.051825
	30.925000	0.151749
	30.930000	0.142079
	30.935000	0.029261
	30.940000	0.055048
	30.945000	0.158195
	30.950000	0.138855
	30.955000	0.032484
	30.960000	0.051825
	30.965000	0.154972
	30.970000	0.142079
	30.975000	0.032484
	30.980000	0.058271
	30.985000	0.167865
	30.990000	0.142079
	30.995000	0.035708
	31.000000	0.051825
	31.005000	0.171089
	31.010000	0.148525
	31.015000	0.042154
	31.020000	0.061495
	31.025000	0.174312
	31.030000	0.154972
	31.035000	0.048601
	31.040000	0.067941
	31.045000	0.180759
	31.050000	0.154972
	31.055000	0.055048
	31.060000	0.080835
	31.065000	0.190429
	31.070000	0.174312
	31.075000	0.061495
	31.080000	0.096952
	31.085000	0.206546
	31.090000	0.196876
	31.095000	0.093728
	31.100000	0.116292
	31.105000	0.222663
	31.110000	0.206546
	31.115000	0.106622
	31.120000	0.122738
	31.125000	0.238779
	31.130000	0.216216
	31.135000	0.116292
	31.140000	0.135632
	31.145000	0.245226
	31.150000	0.232333
	31.155000	0.129185
	31.160000	0.151749
	31.165000	0.264566
	31.170000	0.254896
	31.175000	0.151749
	31.180000	0.180759
	31.185000	0.283906
	31.190000	0.264566
	31.195000	0.171089
	31.200000	0.200099
	31.205000	0.303247
	31.210000	0.287130
	31.215000	0.187206
	31.220000	0.222663
	31.225000	0.322587
	31.230000	0.309693
	31.235000	0.212992
	31.240000	0.232333
	31.245000	0.335480
	31.250000	0.322587
	31.255000	0.225886
	31.260000	0.248449
	31.265000	0.345150
	31.270000	0.329033
	31.275000	0.229109
	31.280000	0.251673
	31.285000	0.348374
	31.290000	0.332257
	31.295000	0.229109
	31.300000	0.248449
	31.305000	0.348374
	31.310000	0.322587
	31.315000	0.212992
	31.320000	0.242003
	31.325000	0.338703
	31.330000	0.309693
	31.335000	0.209769
	31.340000	0.232333
	31.345000	0.325810
	31.350000	0.303247
	31.355000	0.200099
	31.360000	0.232333
	31.365000	0.325810
	31.370000	0.296800
	31.375000	0.203322
	31.380000	0.229109
	31.385000	0.325810
	31.390000	0.303247
	31.395000	0.193652
	31.400000	0.222663
	31.405000	0.325810
	31.410000	0.300023
	31.415000	0.196876
	31.420000	0.222663
	31.425000	0.322587
	31.430000	0.290353
	31.435000	0.193652
	31.440000	0.216216
	31.445000	0.319363
	31.450000	0.280683
	31.455000	0.190429
	31.460000	0.216216
	31.465000	0.312917
	31.470000	0.280683
	31.475000	0.187206
	31.480000	0.216216
	31.485000	0.306470
	31.490000	0.277460
	31.495000	0.183982
	31.500000	0.212992
	31.505000	0.316140
	31.510000	0.287130
	31.515000	0.190429
	31.520000	0.219439
	31.525000	0.312917
	31.530000	0.287130
	31.535000	0.183982
	31.540000	0.219439
	31.545000	0.316140
	31.550000	0.287130
	31.555000	0.200099
	31.560000	0.222663
	31.565000	0.316140
	31.570000	0.290353
	31.575000	0.196876
	31.580000	0.222663
	31.585000	0.322587
	31.590000	0.293576
	31.595000	0.200099
	31.600000	0.229109
	31.605000	0.332257
	31.610000	0.309693
	31.615000	0.209769
	31.620000	0.245226
	31.625000	0.341927
	31.630000	0.309693
	31.635000	0.219439
	31.640000	0.254896
	31.645000	0.354820
	31.650000	0.325810
	31.655000	0.232333
	31.660000	0.261343
	31.665000	0.358044
	31.670000	0.325810
	31.675000	0.238779
	31.680000	0.261343
	31.685000	0.358044
	31.690000	0.332257
	31.695000	0.235556
	31.700000	0.261343
	31.705000	0.361267
	31.710000	0.325810
	31.715000	0.235556
	31.720000	0.264566
	31.725000	0.354820
	31.730000	0.329033
	31.735000	0.232333
	31.740000	0.264566
	31.745000	0.354820
	31.750000	0.325810
	31.755000	0.238779
	31.760000	0.264566
	31.765000	0.361267
	31.770000	0.329033
	31.775000	0.235556
	31.780000	0.267790
	31.785000	0.364490
	31.790000	0.319363
	31.795000	0.235556
	31.800000	0.267790
	31.805000	0.358044
	31.810000	0.329033
	31.815000	0.235556
	31.820000	0.264566
	31.825000	0.354820
	31.830000	0.325810
	31.835000	0.229109
	31.840000	0.264566
	31.845000	0.351597
	31.850000	0.322587
	31.855000	0.225886
	31.860000	0.261343
	31.865000	0.351597
	31.870000	0.319363
	31.875000	0.235556
	31.880000	0.261343
	31.885000	0.358044
	31.890000	0.312917
	31.895000	0.225886
	31.900000	0.264566
	31.905000	0.345150
	31.910000	0.316140
	31.915000	0.219439
	31.920000	0.258119
	31.925000	0.338703
	31.930000	0.309693
	31.935000	0.212992
	31.940000	0.248449
	31.945000	0.335480
	31.950000	0.296800
	31.955000	0.200099
	31.960000	0.235556
	31.965000	0.322587
	31.970000	0.283906
	31.975000	0.193652
	31.980000	0.222663
	31.985000	0.303247
	31.990000	0.264566
	31.995000	0.161419
	32.000000	0.193652
	32.005000	0.274236
	32.010000	0.235556
	32.015000	0.135632
	32.020000	0.161419
	32.025000	0.251673
	32.030000	0.212992
	32.035000	0.116292
	32.040000	0.142079
	32.045000	0.232333
	32.050000	0.190429
	32.055000	0.090505
	32.060000	0.122738
	32.065000	0.209769
	32.070000	0.167865
	32.075000	0.071165
	32.080000	0.103398
	32.085000	0.196876
	32.090000	0.145302
	32.095000	0.058271
	32.100000	0.096952
	32.105000	0.183982
	32.110000	0.142079
	32.115000	0.051825
	32.120000	0.077611
	32.125000	0.177536
	32.130000	0.125962
	32.135000	0.035708
	32.140000	0.074388
	32.145000	0.161419
	32.150000	0.119515
	32.155000	0.026038
	32.160000	0.067941
	32.165000	0.161419
	32.170000	0.113068
	32.175000	0.022814
	32.180000	0.058271
	32.185000	0.148525
	32.190000	0.113068
	32.195000	0.016368
	32.200000	0.058271
	32.205000	0.148525
	32.210000	0.109845
	32.215000	0.009921
	32.220000	0.048601
	32.225000	0.145302
	32.230000	0.100175
	32.235000	0.006697
	32.240000	0.051825
	32.245000	0.145302
	32.250000	0.096952
	32.255000	0.006697
	32.260000	0.048601
	32.265000	0.142079
	32.270000	0.090505
	32.275000	0.003474
	32.280000	0.051825
	32.285000	0.138855
	32.290000	0.093728
	32.295000	-0.006196
	32.300000	0.038931
	32.305000	0.142079
	32.310000	0.087281
	32.315000	-0.009419
	32.320000	0.038931
	32.325000	0.132408
	32.330000	0.087281
	32.335000	-0.006196
	32.340000	0.042154
	32.345000	0.129185
	32.350000	0.090505
	32.355000	-0.012643
	32.360000	0.035708
	32.365000	0.125962
	32.370000	0.090505
	32.375000	-0.009419
	32.380000	0.038931
	32.385000	0.129185
	32.390000	0.084058
	32.395000	-0.012643
	32.400000	0.042154
	32.405000	0.125962
	32.410000	0.077611
	32.415000	-0.006196
	32.420000	0.038931
	32.425000	0.129185
	32.430000	0.087281
	32.435000	-0.006196
	32.440000	0.038931
	32.445000	0.138855
	32.450000	0.084058
	32.455000	0.000251
	32.460000	0.045378
	32.465000	0.135632
	32.470000	0.084058
	32.475000	-0.006196
	32.480000	0.045378
	32.485000	0.138855
	32.490000	0.090505
	32.495000	-0.006196
	32.500000	0.045378
	32.505000	0.138855
	32.510000	0.087281
	32.515000	-0.006196
	32.520000	0.045378
	32.525000	0.142079
	32.530000	0.096952
	32.535000	0.000251
	32.540000	0.042154
	32.545000	0.132408
	32.550000	0.090505
	32.555000	-0.009419
	32.560000	0.051825
	32.565000	0.138855
	32.570000	0.090505
	32.575000	-0.006196
	32.580000	0.045378
	32.585000	0.142079
	32.590000	0.093728
	32.595000	-0.012643
	32.600000	0.051825
	32.605000	0.138855
	32.610000	0.084058
	32.615000	-0.006196
	32.620000	0.051825
	32.625000	0.145302
	32.630000	0.087281
	32.635000	0.000251
	32.640000	0.051825
	32.645000	0.148525
	32.650000	0.087281
	32.655000	0.000251
	32.660000	0.051825
	32.665000	0.145302
	32.670000	0.093728
	32.675000	-0.009419
	32.680000	0.058271
	32.685000	0.138855
	32.690000	0.093728
	32.695000	-0.002973
	32.700000	0.055048
	32.705000	0.151749
	32.710000	0.084058
	32.715000	-0.002973
	32.720000	0.055048
	32.725000	0.142079
	32.730000	0.090505
	32.735000	0.003474
	32.740000	0.055048
	32.745000	0.148525
	32.750000	0.087281
	32.755000	-0.002973
	32.760000	0.061495
	32.765000	0.151749
	32.770000	0.090505
	32.775000	-0.002973
	32.780000	0.058271
	32.785000	0.148525
	32.790000	0.093728
	32.795000	0.003474
	32.800000	0.055048
	32.805000	0.145302
	32.810000	0.093728
	32.815000	-0.002973
	32.820000	0.058271
	32.825000	0.151749
	32.830000	0.084058
	32.835000	0.000251
	32.840000	0.058271
	32.845000	0.148525
	32.850000	0.093728
	32.855000	0.006697
	32.860000	0.061495
	32.865000	0.151749
	32.870000	0.087281
	32.875000	0.000251
	32.880000	0.064718
	32.885000	0.148525
	32.890000	0.093728
	32.895000	0.003474
	32.900000	0.067941
	32.905000	0.148525
	32.910000	0.093728
	32.915000	-0.002973
	32.920000	0.064718
	32.925000	0.151749
	32.930000	0.090505
	32.935000	-0.002973
	32.940000	0.061495
	32.945000	0.148525
	32.950000	0.093728
	32.955000	-0.006196
	32.960000	0.055048
	32.965000	0.151749
	32.970000	0.090505
	32.975000	0.000251
	32.980000	0.061495
	32.985000	0.148525
	32.990000	0.087281
	32.995000	-0.002973
	33.000000	0.064718
	33.005000	0.151749
	33.010000	0.090505
	33.015000	-0.002973
	33.020000	0.061495
	33.025000	0.151749
	33.030000	0.080835
	33.035000	0.003474
	33.040000	0.061495
	33.045000	0.145302
	33.050000	0.080835
	33.055000	0.000251
	33.060000	0.064718
	33.065000	0.148525
	33.070000	0.087281
	33.075000	-0.002973
	33.080000	0.061495
	33.085000	0.154972
	33.090000	0.084058
	33.095000	0.000251
	33.100000	0.061495
	33.105000	0.148525
	33.110000	0.090505
	33.115000	0.003474
	33.120000	0.061495
	33.125000	0.148525
	33.130000	0.093728
	33.135000	0.000251
	33.140000	0.064718
	33.145000	0.151749
	33.150000	0.087281
	33.155000	0.003474
	33.160000	0.064718
	33.165000	0.148525
	33.170000	0.084058
	33.175000	-0.002973
	33.180000	0.061495
	33.185000	0.151749
	33.190000	0.084058
	33.195000	0.000251
	33.200000	0.067941
	33.205000	0.145302
	33.210000	0.087281
	33.215000	-0.002973
	33.220000	0.064718
	33.225000	0.158195
	33.230000	0.090505
	33.235000	0.003474
	33.240000	0.064718
	33.245000	0.151749
	33.250000	0.084058
	33.255000	0.006697
	33.260000	0.071165
	33.265000	0.154972
	33.270000	0.087281
	33.275000	0.006697
	33.280000	0.071165
	33.285000	0.151749
	33.290000	0.087281
	33.295000	0.006697
	33.300000	0.067941
	33.305000	0.154972
	33.310000	0.087281
	33.315000	0.000251
	33.320000	0.071165
	33.325000	0.158195
	33.330000	0.084058
	33.335000	0.000251
	33.340000	0.071165
	33.345000	0.154972
	33.350000	0.090505
	33.355000	0.006697
	33.360000	0.074388
	33.365000	0.154972
	33.370000	0.090505
	33.375000	-0.002973
	33.380000	0.074388
	33.385000	0.154972
	33.390000	0.090505
	33.395000	0.003474
	33.400000	0.074388
	33.405000	0.154972
	33.410000	0.090505
	33.415000	0.000251
	33.420000	0.071165
	33.425000	0.151749
	33.430000	0.087281
	33.435000	0.000251
	33.440000	0.071165
	33.445000	0.154972
	33.450000	0.090505
	33.455000	0.009921
	33.460000	0.071165
	33.465000	0.154972
	33.470000	0.084058
	33.475000	0.003474
	33.480000	0.074388
	33.485000	0.154972
	33.490000	0.090505
	33.495000	0.003474
	33.500000	0.071165
	33.505000	0.161419
	33.510000	0.080835
	33.515000	0.003474
	33.520000	0.080835
	33.525000	0.154972
	33.530000	0.087281
	33.535000	0.009921
	33.540000	0.077611
	33.545000	0.158195
	33.550000	0.087281
	33.555000	0.006697
	33.560000	0.084058
	33.565000	0.161419
	33.570000	0.090505
	33.575000	0.009921
	33.580000	0.077611
	33.585000	0.161419
	33.590000	0.093728
	33.595000	0.009921
	33.600000	0.080835
	33.605000	0.158195
	33.610000	0.087281
	33.615000	0.006697
	33.620000	0.084058
	33.625000	0.164642
	33.630000	0.087281
	33.635000	0.013144
	33.640000	0.080835
	33.645000	0.167865
	33.650000	0.090505
	33.655000	0.016368
	33.660000	0.087281
	33.665000	0.171089
	33.670000	0.090505
	33.675000	0.013144
	33.680000	0.090505
	33.685000	0.164642
	33.690000	0.087281
	33.695000	0.019591
	33.700000	0.087281
	33.705000	0.164642
	33.710000	0.093728
	33.715000	0.009921
	33.720000	0.090505
	33.725000	0.171089
	33.730000	0.096952
	33.735000	0.019591
	33.740000	0.093728
	33.745000	0.171089
	33.750000	0.093728
	33.755000	0.019591
	33.760000	0.096952
	33.765000	0.174312
	33.770000	0.093728
	33.775000	0.016368
	33.780000	0.096952
	33.785000	0.171089
	33.790000	0.096952
	33.795000	0.022814
	33.800000	0.103398
	33.805000	0.167865
	33.810000	0.093728
	33.815000	0.022814
	33.820000	0.100175
	33.825000	0.177536
	33.830000	0.100175
	33.835000	0.022814
	33.840000	0.103398
	33.845000	0.174312
	33.850000	0.103398
	33.855000	0.022814
	33.860000	0.113068
	33.865000	0.180759
	33.870000	0.106622
	33.875000	0.022814
	33.880000	0.106622
	33.885000	0.180759
	33.890000	0.103398
	33.895000	0.026038
	33.900000	0.100175
	33.905000	0.177536
	33.910000	0.103398
	33.915000	0.026038
	33.920000	0.106622
	33.925000	0.177536
	33.930000	0.096952
	33.935000	0.026038
	33.940000	0.106622
	33.945000	0.171089
	33.950000	0.103398
	33.955000	0.029261
	33.960000	0.106622
	33.965000	0.187206
	33.970000	0.103398
	33.975000	0.026038
	33.980000	0.106622
	33.985000	0.180759
	33.990000	0.093728
	33.995000	0.029261
	34.000000	0.106622
	34.005000	0.177536
	34.010000	0.100175
	34.015000	0.029261
	34.020000	0.109845
	34.025000	0.183982
	34.030000	0.096952
	34.035000	0.032484
	34.040000	0.106622
	34.045000	0.180759
	34.050000	0.103398
	34.055000	0.022814
	34.060000	0.113068
	34.065000	0.180759
	34.070000	0.100175
	34.075000	0.026038
	34.080000	0.106622
	34.085000	0.177536
	34.090000	0.090505
	34.095000	0.029261
	34.100000	0.103398
	34.105000	0.177536
	34.110000	0.100175
	34.115000	0.026038
	34.120000	0.109845
	34.125000	0.177536
	34.130000	0.096952
	34.135000	0.026038
	34.140000	0.106622
	34.145000	0.183982
	34.150000	0.100175
	34.155000	0.019591
	34.160000	0.109845
	34.165000	0.180759
	34.170000	0.096952
	34.175000	0.029261
	34.180000	0.113068
	34.185000	0.177536
	34.190000	0.096952
	34.195000	0.029261
	34.200000	0.113068
	34.205000	0.177536
	34.210000	0.093728
	34.215000	0.026038
	34.220000	0.109845
	34.225000	0.183982
	34.230000	0.096952
	34.235000	0.026038
	34.240000	0.106622
	34.245000	0.177536
	34.250000	0.096952
	34.255000	0.032484
	34.260000	0.116292
	34.265000	0.183982
	34.270000	0.100175
	34.275000	0.032484
	34.280000	0.113068
	34.285000	0.183982
	34.290000	0.093728
	34.295000	0.038931
	34.300000	0.113068
	34.305000	0.183982
	34.310000	0.096952
	34.315000	0.035708
	34.320000	0.116292
	34.325000	0.187206
	34.330000	0.100175
	34.335000	0.032484
	34.340000	0.116292
	34.345000	0.187206
	34.350000	0.093728
	34.355000	0.032484
	34.360000	0.113068
	34.365000	0.187206
	34.370000	0.096952
	34.375000	0.042154
	34.380000	0.119515
	34.385000	0.177536
	34.390000	0.096952
	34.395000	0.029261
	34.400000	0.119515
	34.405000	0.177536
	34.410000	0.100175
	34.415000	0.032484
	34.420000	0.119515
	34.425000	0.180759
	34.430000	0.100175
	34.435000	0.029261
	34.440000	0.119515
	34.445000	0.180759
	34.450000	0.090505
	34.455000	0.038931
	34.460000	0.116292
	34.465000	0.183982
	34.470000	0.093728
	34.475000	0.038931
	34.480000	0.116292
	34.485000	0.180759
	34.490000	0.093728
	34.495000	0.029261
	34.500000	0.116292
	34.505000	0.180759
	34.510000	0.100175
	34.515000	0.032484
	34.520000	0.116292
	34.525000	0.183982
	34.530000	0.096952
	34.535000	0.032484
	34.540000	0.119515
	34.545000	0.187206
	34.550000	0.096952
	34.555000	0.032484
	34.560000	0.122738
	34.565000	0.180759
	34.570000	0.096952
	34.575000	0.035708
	34.580000	0.116292
	34.585000	0.183982
	34.590000	0.093728
	34.595000	0.032484
	34.600000	0.122738
	34.605000	0.180759
	34.610000	0.093728
	34.615000	0.032484
	34.620000	0.119515
	34.625000	0.183982
	34.630000	0.100175
	34.635000	0.029261
	34.640000	0.116292
	34.645000	0.183982
	34.650000	0.096952
	34.655000	0.032484
	34.660000	0.122738
	34.665000	0.180759
	34.670000	0.090505
	34.675000	0.035708
	34.680000	0.122738
	34.685000	0.174312
	34.690000	0.096952
	34.695000	0.035708
	34.700000	0.119515
	34.705000	0.180759
	34.710000	0.087281
	34.715000	0.032484
	34.720000	0.116292
	34.725000	0.180759
	34.730000	0.096952
	34.735000	0.035708
	34.740000	0.125962
	34.745000	0.177536
	34.750000	0.090505
	34.755000	0.026038
	34.760000	0.122738
	34.765000	0.180759
	34.770000	0.093728
	34.775000	0.026038
	34.780000	0.122738
	34.785000	0.177536
	34.790000	0.087281
	34.795000	0.026038
	34.800000	0.119515
	34.805000	0.180759
	34.810000	0.093728
	34.815000	0.032484
	34.820000	0.119515
	34.825000	0.180759
	34.830000	0.087281
	34.835000	0.029261
	34.840000	0.122738
	34.845000	0.180759
	34.850000	0.093728
	34.855000	0.029261
	34.860000	0.122738
	34.865000	0.180759
	34.870000	0.090505
	34.875000	0.032484
	34.880000	0.129185
	34.885000	0.190429
	34.890000	0.090505
	34.895000	0.035708
	34.900000	0.119515
	34.905000	0.183982
	34.910000	0.084058
	34.915000	0.029261
	34.920000	0.129185
	34.925000	0.180759
	34.930000	0.090505
	34.935000	0.035708
	34.940000	0.129185
	34.945000	0.183982
	34.950000	0.090505
	34.955000	0.035708
	34.960000	0.129185
	34.965000	0.180759
	34.970000	0.090505
	34.975000	0.038931
	34.980000	0.132408
	34.985000	0.180759
	34.990000	0.087281
	34.995000	0.038931
	35.000000	0.129185
	35.005000	0.187206
	35.010000	0.090505
	35.015000	0.035708
	35.020000	0.125962
	35.025000	0.187206
	35.030000	0.090505
	35.035000	0.035708
	35.040000	0.132408
	35.045000	0.183982
	35.050000	0.100175
	35.055000	0.035708
	35.060000	0.138855
	35.065000	0.183982
	35.070000	0.090505
	35.075000	0.038931
	35.080000	0.135632
	35.085000	0.180759
	35.090000	0.090505
	35.095000	0.042154
	35.100000	0.132408
	35.105000	0.183982
	35.110000	0.093728
	35.115000	0.035708
	35.120000	0.135632
	35.125000	0.183982
	35.130000	0.090505
	35.135000	0.038931
	35.140000	0.132408
	35.145000	0.183982
	35.150000	0.090505
	35.155000	0.045378
	35.160000	0.132408
	35.165000	0.183982
	35.170000	0.084058
	35.175000	0.038931
	35.180000	0.135632
	35.185000	0.180759
	35.190000	0.084058
	35.195000	0.045378
	35.200000	0.135632
	35.205000	0.183982
	35.210000	0.090505
	35.215000	0.032484
	35.220000	0.129185
	35.225000	0.187206
	35.230000	0.084058
	35.235000	0.038931
	35.240000	0.129185
	35.245000	0.177536
	35.250000	0.090505
	35.255000	0.035708
	35.260000	0.132408
	35.265000	0.177536
	35.270000	0.084058
	35.275000	0.029261
	35.280000	0.129185
	35.285000	0.180759
	35.290000	0.080835
	35.295000	0.035708
	35.300000	0.129185
	35.305000	0.180759
	35.310000	0.084058
	35.315000	0.035708
	35.320000	0.132408
	35.325000	0.174312
	35.330000	0.087281
	35.335000	0.035708
	35.340000	0.129185
	35.345000	0.180759
	35.350000	0.080835
	35.355000	0.035708
	35.360000	0.129185
	35.365000	0.183982
	35.370000	0.084058
	35.375000	0.035708
	35.380000	0.135632
	35.385000	0.174312
	35.390000	0.084058
	35.395000	0.038931
	35.400000	0.125962
	35.405000	0.180759
	35.410000	0.080835
	35.415000	0.032484
	35.420000	0.138855
	35.425000	0.180759
	35.430000	0.080835
	35.435000	0.029261
	35.440000	0.132408
	35.445000	0.180759
	35.450000	0.080835
	35.455000	0.035708
	35.460000	0.135632
	35.465000	0.177536
	35.470000	0.080835
	35.475000	0.035708
	35.480000	0.132408
	35.485000	0.177536
	35.490000	0.077611
	35.495000	0.032484
	35.500000	0.138855
	35.505000	0.177536
	35.510000	0.080835
	35.515000	0.029261
	35.520000	0.132408
	35.525000	0.180759
	35.530000	0.080835
	35.535000	0.035708
	35.540000	0.135632
	35.545000	0.171089
	35.550000	0.077611
	35.555000	0.038931
	35.560000	0.138855
	35.565000	0.180759
	35.570000	0.077611
	35.575000	0.035708
	35.580000	0.138855
	35.585000	0.183982
	35.590000	0.077611
	35.595000	0.035708
	35.600000	0.138855
	35.605000	0.180759
	35.610000	0.071165
	35.615000	0.038931
	35.620000	0.138855
	35.625000	0.177536
	35.630000	0.074388
	35.635000	0.035708
	35.640000	0.135632
	35.645000	0.174312
	35.650000	0.077611
	35.655000	0.038931
	35.660000	0.135632
	35.665000	0.171089
	35.670000	0.077611
	35.675000	0.038931
	35.680000	0.145302
	35.685000	0.174312
	35.690000	0.077611
	35.695000	0.035708
	35.700000	0.135632
	35.705000	0.177536
	35.710000	0.074388
	35.715000	0.038931
	35.720000	0.135632
	35.725000	0.180759
	35.730000	0.077611
	35.735000	0.035708
	35.740000	0.135632
	35.745000	0.177536
	35.750000	0.077611
	35.755000	0.038931
	35.760000	0.132408
	35.765000	0.177536
	35.770000	0.077611
	35.775000	0.035708
	35.780000	0.145302
	35.785000	0.174312
	35.790000	0.077611
	35.795000	0.035708
	35.800000	0.142079
	35.805000	0.174312
	35.810000	0.071165
	35.815000	0.032484
	35.820000	0.138855
	35.825000	0.174312
	35.830000	0.071165
	35.835000	0.038931
	35.840000	0.138855
	35.845000	0.167865
	35.850000	0.074388
	35.855000	0.038931
	35.860000	0.142079
	35.865000	0.171089
	35.870000	0.067941
	35.875000	0.042154
	35.880000	0.138855
	35.885000	0.171089
	35.890000	0.071165
	35.895000	0.038931
	35.900000	0.142079
	35.905000	0.167865
	35.910000	0.071165
	35.915000	0.032484
	35.920000	0.138855
	35.925000	0.171089
	35.930000	0.067941
	35.935000	0.042154
	35.940000	0.142079
	35.945000	0.171089
	35.950000	0.071165
	35.955000	0.035708
	35.960000	0.135632
	35.965000	0.167865
	35.970000	0.064718
	35.975000	0.035708
	35.980000	0.132408
	35.985000	0.167865
	35.990000	0.064718
	35.995000	0.038931
	36.000000	0.148525
	36.005000	0.177536
	36.010000	0.071165
	36.015000	0.032484
	36.020000	0.138855
	36.025000	0.171089
	36.030000	0.061495
	36.035000	0.042154
	36.040000	0.142079
	36.045000	0.174312
	36.050000	0.071165
	36.055000	0.032484
	36.060000	0.138855
	36.065000	0.167865
	36.070000	0.071165
	36.075000	0.038931
	36.080000	0.142079
	36.085000	0.167865
	36.090000	0.064718
	36.095000	0.035708
	36.100000	0.142079
	36.105000	0.174312
	36.110000	0.071165
	36.115000	0.038931
	36.120000	0.145302
	36.125000	0.174312
	36.130000	0.061495
	36.135000	0.035708
	36.140000	0.148525
	36.145000	0.167865
	36.150000	0.067941
	36.155000	0.048601
	36.160000	0.151749
	36.165000	0.180759
	36.170000	0.064718
	36.175000	0.042154
	36.180000	0.145302
	36.185000	0.177536
	36.190000	0.071165
	36.195000	0.045378
	36.200000	0.148525
	36.205000	0.180759
	36.210000	0.071165
	36.215000	0.038931
	36.220000	0.154972
	36.225000	0.177536
	36.230000	0.077611
	36.235000	0.045378
	36.240000	0.154972
	36.245000	0.180759
	36.250000	0.074388
	36.255000	0.051825
	36.260000	0.154972
	36.265000	0.174312
	36.270000	0.077611
	36.275000	0.051825
	36.280000	0.154972
	36.285000	0.177536
	36.290000	0.077611
	36.295000	0.051825
	36.300000	0.158195
	36.305000	0.183982
	36.310000	0.067941
	36.315000	0.045378
	36.320000	0.158195
	36.325000	0.180759
	36.330000	0.071165
	36.335000	0.051825
	36.340000	0.161419
	36.345000	0.180759
	36.350000	0.077611
	36.355000	0.051825
	36.360000	0.158195
	36.365000	0.177536
	36.370000	0.071165
	36.375000	0.048601
	36.380000	0.161419
	36.385000	0.190429
	36.390000	0.074388
	36.395000	0.055048
	36.400000	0.164642
	36.405000	0.180759
	36.410000	0.071165
	36.415000	0.055048
	36.420000	0.164642
	36.425000	0.180759
	36.430000	0.074388
	36.435000	0.055048
	36.440000	0.164642
	36.445000	0.177536
	36.450000	0.074388
	36.455000	0.055048
	36.460000	0.161419
	36.465000	0.174312
	36.470000	0.064718
	36.475000	0.055048
	36.480000	0.148525
	36.485000	0.177536
	36.490000	0.064718
	36.495000	0.051825
	36.500000	0.161419
	36.505000	0.183982
	36.510000	0.074388
	36.515000	0.058271
	36.520000	0.167865
	36.525000	0.190429
	36.530000	0.084058
	36.535000	0.071165
	36.540000	0.177536
	36.545000	0.200099
	36.550000	0.096952
	36.555000	0.084058
	36.560000	0.206546
	36.565000	0.219439
	36.570000	0.129185
	36.575000	0.116292
	36.580000	0.229109
	36.585000	0.248449
	36.590000	0.142079
	36.595000	0.132408
	36.600000	0.245226
	36.605000	0.261343
	36.610000	0.158195
	36.615000	0.148525
	36.620000	0.251673
	36.625000	0.271013
	36.630000	0.171089
	36.635000	0.161419
	36.640000	0.274236
	36.645000	0.296800
	36.650000	0.206546
	36.655000	0.203322
	36.660000	0.309693
	36.665000	0.335480
	36.670000	0.242003
	36.675000	0.232333
	36.680000	0.338703
	36.685000	0.364490
	36.690000	0.267790
	36.695000	0.264566
	36.700000	0.370937
	36.705000	0.387054
	36.710000	0.287130
	36.715000	0.277460
	36.720000	0.380607
	36.725000	0.390277
	36.730000	0.290353
	36.735000	0.280683
	36.740000	0.387054
	36.745000	0.396724
	36.750000	0.293576
	36.755000	0.277460
	36.760000	0.374160
	36.765000	0.390277
	36.770000	0.287130
	36.775000	0.280683
	36.780000	0.374160
	36.785000	0.383830
	36.790000	0.283906
	36.795000	0.277460
	36.800000	0.377384
	36.805000	0.390277
	36.810000	0.287130
	36.815000	0.274236
	36.820000	0.377384
	36.825000	0.390277
	36.830000	0.287130
	36.835000	0.274236
	36.840000	0.377384
	36.845000	0.380607
	36.850000	0.283906
	36.855000	0.271013
	36.860000	0.367714
	36.865000	0.380607
	36.870000	0.274236
	36.875000	0.261343
	36.880000	0.364490
	36.885000	0.367714
	36.890000	0.267790
	36.895000	0.254896
	36.900000	0.358044
	36.905000	0.364490
	36.910000	0.267790
	36.915000	0.254896
	36.920000	0.358044
	36.925000	0.358044
	36.930000	0.261343
	36.935000	0.251673
	36.940000	0.351597
	36.945000	0.354820
	36.950000	0.258119
	36.955000	0.242003
	36.960000	0.348374
	36.965000	0.351597
	36.970000	0.254896
	36.975000	0.245226
	36.980000	0.335480
	36.985000	0.348374
	36.990000	0.251673
	36.995000	0.242003
	37.000000	0.335480
	37.005000	0.341927
	37.010000	0.251673
	37.015000	0.238779
	37.020000	0.341927
	37.025000	0.348374
	37.030000	0.251673
	37.035000	0.248449
	37.040000	0.338703
	37.045000	0.354820
	37.050000	0.254896
	37.055000	0.258119
	37.060000	0.358044
	37.065000	0.358044
	37.070000	0.264566
	37.075000	0.261343
	37.080000	0.370937
	37.085000	0.377384
	37.090000	0.277460
	37.095000	0.277460
	37.100000	0.377384
	37.105000	0.377384
	37.110000	0.287130
	37.115000	0.290353
	37.120000	0.377384
	37.125000	0.387054
	37.130000	0.290353
	37.135000	0.290353
	37.140000	0.387054
	37.145000	0.390277
	37.150000	0.290353
	37.155000	0.293576
	37.160000	0.387054
	37.165000	0.396724
	37.170000	0.293576
	37.175000	0.293576
	37.180000	0.387054
	37.185000	0.387054
	37.190000	0.293576
	37.195000	0.280683
	37.200000	0.383830
	37.205000	0.377384
	37.210000	0.280683
	37.215000	0.274236
	37.220000	0.374160
	37.225000	0.367714
	37.230000	0.264566
	37.235000	0.264566
	37.240000	0.364490
	37.245000	0.358044
	37.250000	0.254896
	37.255000	0.261343
	37.260000	0.351597
	37.265000	0.351597
	37.270000	0.248449
	37.275000	0.248449
	37.280000	0.348374
	37.285000	0.338703
	37.290000	0.238779
	37.295000	0.229109
	37.300000	0.325810
	37.305000	0.325810
	37.310000	0.219439
	37.315000	0.216216
	37.320000	0.309693
	37.325000	0.303247
	37.330000	0.193652
	37.335000	0.193652
	37.340000	0.280683
	37.345000	0.277460
	37.350000	0.167865
	37.355000	0.164642
	37.360000	0.254896
	37.365000	0.242003
	37.370000	0.135632
	37.375000	0.138855
	37.380000	0.242003
	37.385000	0.232333
	37.390000	0.122738
	37.395000	0.119515
	37.400000	0.222663
	37.405000	0.209769
	37.410000	0.113068
	37.415000	0.109845
	37.420000	0.209769
	37.425000	0.196876
	37.430000	0.093728
	37.435000	0.100175
	37.440000	0.196876
	37.445000	0.196876
	37.450000	0.084058
	37.455000	0.093728
	37.460000	0.193652
	37.465000	0.183982
	37.470000	0.077611
	37.475000	0.087281
	37.480000	0.187206
	37.485000	0.177536
	37.490000	0.074388
	37.495000	0.077611
	37.500000	0.180759
	37.505000	0.177536
	37.510000	0.074388
	37.515000	0.077611
	37.520000	0.174312
	37.525000	0.167865
	37.530000	0.067941
	37.535000	0.077611
	37.540000	0.174312
	37.545000	0.164642
	37.550000	0.064718
	37.555000	0.061495
	37.560000	0.177536
	37.565000	0.164642
	37.570000	0.058271
	37.575000	0.071165
	37.580000	0.167865
	37.585000	0.164642
	37.590000	0.055048
	37.595000	0.061495
	37.600000	0.177536
	37.605000	0.164642
	37.610000	0.055048
	37.615000	0.064718
	37.620000	0.164642
	37.625000	0.154972
	37.630000	0.055048
	37.635000	0.061495
	37.640000	0.158195
	37.645000	0.154972
	37.650000	0.045378
	37.655000	0.055048
	37.660000	0.164642
	37.665000	0.148525
	37.670000	0.038931
	37.675000	0.058271
	37.680000	0.161419
	37.685000	0.148525
	37.690000	0.042154
	37.695000	0.051825
	37.700000	0.154972
	37.705000	0.145302
	37.710000	0.042154
	37.715000	0.051825
	37.720000	0.154972
	37.725000	0.138855
	37.730000	0.038931
	37.735000	0.051825
	37.740000	0.148525
	37.745000	0.138855
	37.750000	0.035708
	37.755000	0.048601
	37.760000	0.148525
	37.765000	0.142079
	37.770000	0.029261
	37.775000	0.048601
	37.780000	0.145302
	37.785000	0.135632
	37.790000	0.032484
	37.795000	0.042154
	37.800000	0.142079
	37.805000	0.129185
	37.810000	0.026038
	37.815000	0.048601
	37.820000	0.145302
	37.825000	0.129185
	37.830000	0.026038
	37.835000	0.042154
	37.840000	0.142079
	37.845000	0.129185
	37.850000	0.022814
	37.855000	0.042154
	37.860000	0.142079
	37.865000	0.125962
	37.870000	0.022814
	37.875000	0.038931
	37.880000	0.145302
	37.885000	0.125962
	37.890000	0.022814
	37.895000	0.038931
	37.900000	0.145302
	37.905000	0.122738
	37.910000	0.016368
	37.915000	0.038931
	37.920000	0.145302
	37.925000	0.129185
	37.930000	0.013144
	37.935000	0.038931
	37.940000	0.138855
	37.945000	0.122738
	37.950000	0.022814
	37.955000	0.038931
	37.960000	0.145302
	37.965000	0.119515
	37.970000	0.019591
	37.975000	0.038931
	37.980000	0.142079
	37.985000	0.129185
	37.990000	0.022814
	37.995000	0.038931
	38.000000	0.145302
	38.005000	0.119515
	38.010000	0.016368
	38.015000	0.038931
	38.020000	0.138855
	38.025000	0.119515
	38.030000	0.019591
	38.035000	0.038931
	38.040000	0.138855
	38.045000	0.122738
	38.050000	0.019591
	38.055000	0.035708
	38.060000	0.145302
	38.065000	0.116292
	38.070000	0.016368
	38.075000	0.035708
	38.080000	0.148525
	38.085000	0.116292
	38.090000	0.019591
	38.095000	0.038931
	38.100000	0.148525
	38.105000	0.119515
	38.110000	0.016368
	38.115000	0.035708
	38.120000	0.145302
	38.125000	0.125962
	38.130000	0.019591
	38.135000	0.042154
	38.140000	0.142079
	38.145000	0.119515
	38.150000	0.013144
	38.155000	0.038931
	38.160000	0.148525
	38.165000	0.122738
	38.170000	0.022814
	38.175000	0.042154
	38.180000	0.148525
	38.185000	0.125962
	38.190000	0.022814
	38.195000	0.045378
	38.200000	0.145302
	38.205000	0.132408
	38.210000	0.019591
	38.215000	0.051825
	38.220000	0.151749
	38.225000	0.129185
	38.230000	0.026038
	38.235000	0.048601
	38.240000	0.151749
	38.245000	0.132408
	38.250000	0.022814
	38.255000	0.055048
	38.260000	0.154972
	38.265000	0.132408
	38.270000	0.032484
	38.275000	0.051825
	38.280000	0.154972
	38.285000	0.132408
	38.290000	0.032484
	38.295000	0.055048
	38.300000	0.158195
	38.305000	0.125962
	38.310000	0.029261
	38.315000	0.058271
	38.320000	0.161419
	38.325000	0.138855
	38.330000	0.029261
	38.335000	0.058271
	38.340000	0.161419
	38.345000	0.135632
	38.350000	0.026038
	38.355000	0.051825
	38.360000	0.164642
	38.365000	0.132408
	38.370000	0.032484
	38.375000	0.058271
	38.380000	0.164642
	38.385000	0.135632
	38.390000	0.035708
	38.395000	0.061495
	38.400000	0.164642
	38.405000	0.142079
	38.410000	0.035708
	38.415000	0.061495
	38.420000	0.167865
	38.425000	0.142079
	38.430000	0.032484
	38.435000	0.064718
	38.440000	0.171089
	38.445000	0.142079
	38.450000	0.032484
	38.455000	0.064718
	38.460000	0.164642
	38.465000	0.135632
	38.470000	0.029261
	38.475000	0.067941
	38.480000	0.167865
	38.485000	0.135632
	38.490000	0.035708
	38.495000	0.064718
	38.500000	0.171089
	38.505000	0.145302
	38.510000	0.032484
	38.515000	0.067941
	38.520000	0.167865
	38.525000	0.135632
	38.530000	0.032484
	38.535000	0.061495
	38.540000	0.171089
	38.545000	0.135632
	38.550000	0.032484
	38.555000	0.061495
	38.560000	0.167865
	38.565000	0.138855
	38.570000	0.035708
	38.575000	0.067941
	38.580000	0.171089
	38.585000	0.132408
	38.590000	0.029261
	38.595000	0.064718
	38.600000	0.174312
	38.605000	0.138855
	38.610000	0.029261
	38.615000	0.067941
	38.620000	0.164642
	38.625000	0.132408
	38.630000	0.035708
	38.635000	0.064718
	38.640000	0.167865
	38.645000	0.132408
	38.650000	0.035708
	38.655000	0.074388
	38.660000	0.171089
	38.665000	0.142079
	38.670000	0.038931
	38.675000	0.071165
	38.680000	0.171089
	38.685000	0.142079
	38.690000	0.029261
	38.695000	0.067941
	38.700000	0.171089
	38.705000	0.142079
	38.710000	0.035708
	38.715000	0.067941
	38.720000	0.174312
	38.725000	0.135632
	38.730000	0.032484
	38.735000	0.067941
	38.740000	0.174312
	38.745000	0.135632
	38.750000	0.038931
	38.755000	0.074388
	38.760000	0.177536
	38.765000	0.145302
	38.770000	0.035708
	38.775000	0.074388
	38.780000	0.177536
	38.785000	0.142079
	38.790000	0.038931
	38.795000	0.077611
	38.800000	0.174312
	38.805000	0.142079
	38.810000	0.042154
	38.815000	0.077611
	38.820000	0.177536
	38.825000	0.135632
	38.830000	0.042154
	38.835000	0.084058
	38.840000	0.180759
	38.845000	0.145302
	38.850000	0.035708
	38.855000	0.080835
	38.860000	0.183982
	38.865000	0.142079
	38.870000	0.038931
	38.875000	0.077611
	38.880000	0.180759
	38.885000	0.142079
	38.890000	0.045378
	38.895000	0.074388
	38.900000	0.177536
	38.905000	0.135632
	38.910000	0.038931
	38.915000	0.084058
	38.920000	0.183982
	38.925000	0.142079
	38.930000	0.045378
	38.935000	0.084058
	38.940000	0.180759
	38.945000	0.135632
	38.950000	0.045378
	38.955000	0.080835
	38.960000	0.187206
	38.965000	0.145302
	38.970000	0.042154
	38.975000	0.080835
	38.980000	0.187206
	38.985000	0.135632
	38.990000	0.045378
	38.995000	0.087281
	39.000000	0.183982
	39.005000	0.138855
	39.010000	0.045378
	39.015000	0.080835
	39.020000	0.174312
	39.025000	0.135632
	39.030000	0.035708
	39.035000	0.084058
	39.040000	0.187206
	39.045000	0.135632
	39.050000	0.045378
	39.055000	0.080835
	39.060000	0.177536
	39.065000	0.138855
	39.070000	0.042154
	39.075000	0.087281
	39.080000	0.180759
	39.085000	0.138855
	39.090000	0.045378
	39.095000	0.090505
	39.100000	0.183982
	39.105000	0.142079
	39.110000	0.045378
	39.115000	0.090505
	39.120000	0.180759
	39.125000	0.138855
	39.130000	0.048601
	39.135000	0.084058
	39.140000	0.183982
	39.145000	0.145302
	39.150000	0.051825
	39.155000	0.090505
	39.160000	0.187206
	39.165000	0.142079
	39.170000	0.048601
	39.175000	0.090505
	39.180000	0.180759
	39.185000	0.148525
	39.190000	0.051825
	39.195000	0.090505
	39.200000	0.187206
	39.205000	0.142079
	39.210000	0.048601
	39.215000	0.093728
	39.220000	0.187206
	39.225000	0.145302
	39.230000	0.048601
	39.235000	0.093728
	39.240000	0.187206
	39.245000	0.145302
	39.250000	0.048601
	39.255000	0.087281
	39.260000	0.193652
	39.265000	0.142079
	39.270000	0.051825
	39.275000	0.093728
	39.280000	0.193652
	39.285000	0.145302
	39.290000	0.051825
	39.295000	0.093728
	39.300000	0.187206
	39.305000	0.148525
	39.310000	0.048601
	39.315000	0.093728
	39.320000	0.187206
	39.325000	0.148525
	39.330000	0.055048
	39.335000	0.100175
	39.340000	0.196876
	39.345000	0.145302
	39.350000	0.045378
	39.355000	0.093728
	39.360000	0.193652
	39.365000	0.151749
	39.370000	0.048601
	39.375000	0.096952
	39.380000	0.193652
	39.385000	0.148525
	39.390000	0.045378
	39.395000	0.100175
	39.400000	0.193652
	39.405000	0.151749
	39.410000	0.051825
	39.415000	0.093728
	39.420000	0.193652
	39.425000	0.145302
	39.430000	0.048601
	39.435000	0.096952
	39.440000	0.190429
	39.445000	0.148525
	39.450000	0.051825
	39.455000	0.100175
	39.460000	0.200099
	39.465000	0.151749
	39.470000	0.048601
	39.475000	0.106622
	39.480000	0.196876
	39.485000	0.151749
	39.490000	0.055048
	39.495000	0.103398
	39.500000	0.203322
	39.505000	0.145302
	39.510000	0.058271
	39.515000	0.100175
	39.520000	0.196876
	39.525000	0.145302
	39.530000	0.048601
	39.535000	0.103398
	39.540000	0.200099
	39.545000	0.148525
	39.550000	0.051825
	39.555000	0.106622
	39.560000	0.196876
	39.565000	0.148525
	39.570000	0.051825
	39.575000	0.103398
	39.580000	0.200099
	39.585000	0.151749
	39.590000	0.055048
	39.595000	0.109845
	39.600000	0.200099
	39.605000	0.142079
	39.610000	0.051825
	39.615000	0.106622
	39.620000	0.203322
	39.625000	0.151749
	39.630000	0.051825
	39.635000	0.106622
	39.640000	0.200099
	39.645000	0.145302
	39.650000	0.051825
	39.655000	0.106622
	39.660000	0.200099
	39.665000	0.148525
	39.670000	0.048601
	39.675000	0.113068
	39.680000	0.193652
	39.685000	0.151749
	39.690000	0.055048
	39.695000	0.100175
	39.700000	0.196876
	39.705000	0.145302
	39.710000	0.051825
	39.715000	0.106622
	39.720000	0.193652
	39.725000	0.145302
	39.730000	0.058271
	39.735000	0.100175
	39.740000	0.196876
	39.745000	0.145302
	39.750000	0.051825
	39.755000	0.106622
	39.760000	0.196876
	39.765000	0.145302
	39.770000	0.048601
	39.775000	0.103398
	39.780000	0.196876
	39.785000	0.145302
	39.790000	0.051825
	39.795000	0.103398
	39.800000	0.200099
	39.805000	0.145302
	39.810000	0.051825
	39.815000	0.106622
	39.820000	0.196876
	39.825000	0.145302
	39.830000	0.048601
	39.835000	0.106622
	39.840000	0.190429
	39.845000	0.138855
	39.850000	0.045378
	39.855000	0.106622
	39.860000	0.190429
	39.865000	0.138855
	39.870000	0.042154
	39.875000	0.103398
	39.880000	0.193652
