2024/7/11 	 15:13:01 
 This file comes from Vt only measurement 	 1.000000E-1 
 Voltage Sensitivity 	 0.000000E+0 
 Sampling rate 	 200 
 Number of samples per channel 	 -1 
 No filter from Labview 	 	 	 
 	 
 ***End_of_Header*** 
 	 Time 	  Voltage 	 Filtered Voltage 	 
	0.000000	-0.583177
	0.005000	-0.579954
	0.010000	-0.673431
	0.015000	-0.666985
	0.020000	-0.583177
	0.025000	-0.586401
	0.030000	-0.676655
	0.035000	-0.676655
	0.040000	-0.583177
	0.045000	-0.583177
	0.050000	-0.673431
	0.055000	-0.670208
	0.060000	-0.579954
	0.065000	-0.589624
	0.070000	-0.679878
	0.075000	-0.673431
	0.080000	-0.583177
	0.085000	-0.589624
	0.090000	-0.673431
	0.095000	-0.670208
	0.100000	-0.586401
	0.105000	-0.586401
	0.110000	-0.683101
	0.115000	-0.679878
	0.120000	-0.592847
	0.125000	-0.589624
	0.130000	-0.686325
	0.135000	-0.686325
	0.140000	-0.596071
	0.145000	-0.596071
	0.150000	-0.692771
	0.155000	-0.683101
	0.160000	-0.599294
	0.165000	-0.602517
	0.170000	-0.695995
	0.175000	-0.689548
	0.180000	-0.599294
	0.185000	-0.605741
	0.190000	-0.702441
	0.195000	-0.692771
	0.200000	-0.599294
	0.205000	-0.605741
	0.210000	-0.695995
	0.215000	-0.692771
	0.220000	-0.605741
	0.225000	-0.608964
	0.230000	-0.702441
	0.235000	-0.699218
	0.240000	-0.612187
	0.245000	-0.612187
	0.250000	-0.708888
	0.255000	-0.699218
	0.260000	-0.605741
	0.265000	-0.612187
	0.270000	-0.708888
	0.275000	-0.699218
	0.280000	-0.612187
	0.285000	-0.612187
	0.290000	-0.708888
	0.295000	-0.699218
	0.300000	-0.615411
	0.305000	-0.615411
	0.310000	-0.705665
	0.315000	-0.699218
	0.320000	-0.605741
	0.325000	-0.615411
	0.330000	-0.705665
	0.335000	-0.702441
	0.340000	-0.605741
	0.345000	-0.615411
	0.350000	-0.708888
	0.355000	-0.702441
	0.360000	-0.602517
	0.365000	-0.612187
	0.370000	-0.712112
	0.375000	-0.695995
	0.380000	-0.605741
	0.385000	-0.621858
	0.390000	-0.705665
	0.395000	-0.702441
	0.400000	-0.608964
	0.405000	-0.621858
	0.410000	-0.708888
	0.415000	-0.699218
	0.420000	-0.608964
	0.425000	-0.625081
	0.430000	-0.712112
	0.435000	-0.702441
	0.440000	-0.612187
	0.445000	-0.625081
	0.450000	-0.715335
	0.455000	-0.705665
	0.460000	-0.615411
	0.465000	-0.625081
	0.470000	-0.715335
	0.475000	-0.705665
	0.480000	-0.621858
	0.485000	-0.625081
	0.490000	-0.715335
	0.495000	-0.708888
	0.500000	-0.621858
	0.505000	-0.634751
	0.510000	-0.721782
	0.515000	-0.721782
	0.520000	-0.625081
	0.525000	-0.637974
	0.530000	-0.725005
	0.535000	-0.718558
	0.540000	-0.631528
	0.545000	-0.637974
	0.550000	-0.728228
	0.555000	-0.721782
	0.560000	-0.631528
	0.565000	-0.641198
	0.570000	-0.734675
	0.575000	-0.715335
	0.580000	-0.628304
	0.585000	-0.644421
	0.590000	-0.731452
	0.595000	-0.718558
	0.600000	-0.628304
	0.605000	-0.641198
	0.610000	-0.728228
	0.615000	-0.725005
	0.620000	-0.631528
	0.625000	-0.631528
	0.630000	-0.725005
	0.635000	-0.712112
	0.640000	-0.625081
	0.645000	-0.625081
	0.650000	-0.715335
	0.655000	-0.705665
	0.660000	-0.608964
	0.665000	-0.625081
	0.670000	-0.705665
	0.675000	-0.686325
	0.680000	-0.589624
	0.685000	-0.599294
	0.690000	-0.676655
	0.695000	-0.654091
	0.700000	-0.554167
	0.705000	-0.554167
	0.710000	-0.641198
	0.715000	-0.618634
	0.720000	-0.521933
	0.725000	-0.525157
	0.730000	-0.602517
	0.735000	-0.583177
	0.740000	-0.483253
	0.745000	-0.492923
	0.750000	-0.570284
	0.755000	-0.550944
	0.760000	-0.447796
	0.765000	-0.451019
	0.770000	-0.534827
	0.775000	-0.509040
	0.780000	-0.415563
	0.785000	-0.412339
	0.790000	-0.496147
	0.795000	-0.463913
	0.800000	-0.367212
	0.805000	-0.380106
	0.810000	-0.460690
	0.815000	-0.438126
	0.820000	-0.341425
	0.825000	-0.351095
	0.830000	-0.438126
	0.835000	-0.415563
	0.840000	-0.325308
	0.845000	-0.334979
	0.850000	-0.418786
	0.855000	-0.396222
	0.860000	-0.302745
	0.865000	-0.312415
	0.870000	-0.399446
	0.875000	-0.386552
	0.880000	-0.289852
	0.885000	-0.302745
	0.890000	-0.386552
	0.895000	-0.370436
	0.900000	-0.276958
	0.905000	-0.289852
	0.910000	-0.373659
	0.915000	-0.357542
	0.920000	-0.270511
	0.925000	-0.276958
	0.930000	-0.360765
	0.935000	-0.354319
	0.940000	-0.260841
	0.945000	-0.270511
	0.950000	-0.354319
	0.955000	-0.341425
	0.960000	-0.251171
	0.965000	-0.270511
	0.970000	-0.351095
	0.975000	-0.341425
	0.980000	-0.260841
	0.985000	-0.276958
	0.990000	-0.363989
	0.995000	-0.354319
	1.000000	-0.270511
	1.005000	-0.283405
	1.010000	-0.370436
	1.015000	-0.351095
	1.020000	-0.270511
	1.025000	-0.286628
	1.030000	-0.373659
	1.035000	-0.360765
	1.040000	-0.273735
	1.045000	-0.296298
	1.050000	-0.383329
	1.055000	-0.360765
	1.060000	-0.283405
	1.065000	-0.302745
	1.070000	-0.386552
	1.075000	-0.370436
	1.080000	-0.296298
	1.085000	-0.315638
	1.090000	-0.396222
	1.095000	-0.380106
	1.100000	-0.302745
	1.105000	-0.315638
	1.110000	-0.402669
	1.115000	-0.383329
	1.120000	-0.302745
	1.125000	-0.318862
	1.130000	-0.402669
	1.135000	-0.392999
	1.140000	-0.309192
	1.145000	-0.331755
	1.150000	-0.412339
	1.155000	-0.392999
	1.160000	-0.312415
	1.165000	-0.328532
	1.170000	-0.415563
	1.175000	-0.399446
	1.180000	-0.318862
	1.185000	-0.341425
	1.190000	-0.418786
	1.195000	-0.402669
	1.200000	-0.322085
	1.205000	-0.347872
	1.210000	-0.428456
	1.215000	-0.418786
	1.220000	-0.331755
	1.225000	-0.347872
	1.230000	-0.434903
	1.235000	-0.418786
	1.240000	-0.341425
	1.245000	-0.360765
	1.250000	-0.441349
	1.255000	-0.425233
	1.260000	-0.347872
	1.265000	-0.373659
	1.270000	-0.457466
	1.275000	-0.438126
	1.280000	-0.360765
	1.285000	-0.383329
	1.290000	-0.463913
	1.295000	-0.451019
	1.300000	-0.373659
	1.305000	-0.392999
	1.310000	-0.489700
	1.315000	-0.473583
	1.320000	-0.399446
	1.325000	-0.431679
	1.330000	-0.521933
	1.335000	-0.509040
	1.340000	-0.447796
	1.345000	-0.476806
	1.350000	-0.573507
	1.355000	-0.560614
	1.360000	-0.492923
	1.365000	-0.525157
	1.370000	-0.625081
	1.375000	-0.612187
	1.380000	-0.534827
	1.385000	-0.570284
	1.390000	-0.666985
	1.395000	-0.644421
	1.400000	-0.570284
	1.405000	-0.608964
	1.410000	-0.695995
	1.415000	-0.676655
	1.420000	-0.605741
	1.425000	-0.634751
	1.430000	-0.718558
	1.435000	-0.712112
	1.440000	-0.631528
	1.445000	-0.666985
	1.450000	-0.747569
	1.455000	-0.734675
	1.460000	-0.663761
	1.465000	-0.692771
	1.470000	-0.786249
	1.475000	-0.773355
	1.480000	-0.695995
	1.485000	-0.725005
	1.490000	-0.815259
	1.495000	-0.808812
	1.500000	-0.731452
	1.505000	-0.763685
	1.510000	-0.857163
	1.515000	-0.834599
	1.520000	-0.760462
	1.525000	-0.783025
	1.530000	-0.873280
	1.535000	-0.853939
	1.540000	-0.766909
	1.545000	-0.802366
	1.550000	-0.892620
	1.555000	-0.860386
	1.560000	-0.779802
	1.565000	-0.805589
	1.570000	-0.886173
	1.575000	-0.863609
	1.580000	-0.783025
	1.585000	-0.805589
	1.590000	-0.892620
	1.595000	-0.857163
	1.600000	-0.779802
	1.605000	-0.805589
	1.610000	-0.889396
	1.615000	-0.860386
	1.620000	-0.779802
	1.625000	-0.802366
	1.630000	-0.886173
	1.635000	-0.863609
	1.640000	-0.779802
	1.645000	-0.802366
	1.650000	-0.892620
	1.655000	-0.866833
	1.660000	-0.779802
	1.665000	-0.805589
	1.670000	-0.886173
	1.675000	-0.863609
	1.680000	-0.773355
	1.685000	-0.802366
	1.690000	-0.886173
	1.695000	-0.857163
	1.700000	-0.773355
	1.705000	-0.808812
	1.710000	-0.889396
	1.715000	-0.863609
	1.720000	-0.776579
	1.725000	-0.802366
	1.730000	-0.889396
	1.735000	-0.860386
	1.740000	-0.773355
	1.745000	-0.799142
	1.750000	-0.882950
	1.755000	-0.853939
	1.760000	-0.776579
	1.765000	-0.799142
	1.770000	-0.882950
	1.775000	-0.850716
	1.780000	-0.773355
	1.785000	-0.795919
	1.790000	-0.876503
	1.795000	-0.853939
	1.800000	-0.770132
	1.805000	-0.792696
	1.810000	-0.873280
	1.815000	-0.847493
	1.820000	-0.763685
	1.825000	-0.786249
	1.830000	-0.873280
	1.835000	-0.837823
	1.840000	-0.754015
	1.845000	-0.783025
	1.850000	-0.866833
	1.855000	-0.844269
	1.860000	-0.757239
	1.865000	-0.779802
	1.870000	-0.870056
	1.875000	-0.831376
	1.880000	-0.744345
	1.885000	-0.779802
	1.890000	-0.860386
	1.895000	-0.834599
	1.900000	-0.747569
	1.905000	-0.770132
	1.910000	-0.857163
	1.915000	-0.828152
	1.920000	-0.750792
	1.925000	-0.779802
	1.930000	-0.863609
	1.935000	-0.824929
	1.940000	-0.747569
	1.945000	-0.770132
	1.950000	-0.863609
	1.955000	-0.824929
	1.960000	-0.741122
	1.965000	-0.773355
	1.970000	-0.853939
	1.975000	-0.824929
	1.980000	-0.744345
	1.985000	-0.773355
	1.990000	-0.857163
	1.995000	-0.821706
	2.000000	-0.737898
	2.005000	-0.770132
	2.010000	-0.857163
	2.015000	-0.815259
	2.020000	-0.728228
	2.025000	-0.763685
	2.030000	-0.844269
	2.035000	-0.818482
	2.040000	-0.734675
	2.045000	-0.760462
	2.050000	-0.850716
	2.055000	-0.818482
	2.060000	-0.731452
	2.065000	-0.760462
	2.070000	-0.847493
	2.075000	-0.815259
	2.080000	-0.725005
	2.085000	-0.766909
	2.090000	-0.847493
	2.095000	-0.815259
	2.100000	-0.725005
	2.105000	-0.760462
	2.110000	-0.844269
	2.115000	-0.805589
	2.120000	-0.721782
	2.125000	-0.760462
	2.130000	-0.834599
	2.135000	-0.799142
	2.140000	-0.699218
	2.145000	-0.731452
	2.150000	-0.808812
	2.155000	-0.776579
	2.160000	-0.686325
	2.165000	-0.721782
	2.170000	-0.795919
	2.175000	-0.770132
	2.180000	-0.679878
	2.185000	-0.712112
	2.190000	-0.786249
	2.195000	-0.757239
	2.200000	-0.670208
	2.205000	-0.702441
	2.210000	-0.776579
	2.215000	-0.744345
	2.220000	-0.663761
	2.225000	-0.695995
	2.230000	-0.779802
	2.235000	-0.744345
	2.240000	-0.657314
	2.245000	-0.689548
	2.250000	-0.773355
	2.255000	-0.734675
	2.260000	-0.654091
	2.265000	-0.689548
	2.270000	-0.770132
	2.275000	-0.731452
	2.280000	-0.650868
	2.285000	-0.689548
	2.290000	-0.770132
	2.295000	-0.731452
	2.300000	-0.650868
	2.305000	-0.683101
	2.310000	-0.766909
	2.315000	-0.728228
	2.320000	-0.637974
	2.325000	-0.679878
	2.330000	-0.760462
	2.335000	-0.721782
	2.340000	-0.637974
	2.345000	-0.676655
	2.350000	-0.757239
	2.355000	-0.718558
	2.360000	-0.637974
	2.365000	-0.676655
	2.370000	-0.760462
	2.375000	-0.718558
	2.380000	-0.637974
	2.385000	-0.676655
	2.390000	-0.757239
	2.395000	-0.725005
	2.400000	-0.628304
	2.405000	-0.670208
	2.410000	-0.757239
	2.415000	-0.718558
	2.420000	-0.634751
	2.425000	-0.670208
	2.430000	-0.757239
	2.435000	-0.715335
	2.440000	-0.631528
	2.445000	-0.663761
	2.450000	-0.754015
	2.455000	-0.715335
	2.460000	-0.625081
	2.465000	-0.663761
	2.470000	-0.750792
	2.475000	-0.702441
	2.480000	-0.621858
	2.485000	-0.663761
	2.490000	-0.744345
	2.495000	-0.702441
	2.500000	-0.618634
	2.505000	-0.660538
	2.510000	-0.741122
	2.515000	-0.692771
	2.520000	-0.618634
	2.525000	-0.657314
	2.530000	-0.734675
	2.535000	-0.692771
	2.540000	-0.612187
	2.545000	-0.654091
	2.550000	-0.734675
	2.555000	-0.692771
	2.560000	-0.612187
	2.565000	-0.654091
	2.570000	-0.734675
	2.575000	-0.689548
	2.580000	-0.605741
	2.585000	-0.647644
	2.590000	-0.731452
	2.595000	-0.683101
	2.600000	-0.612187
	2.605000	-0.644421
	2.610000	-0.721782
	2.615000	-0.686325
	2.620000	-0.602517
	2.625000	-0.644421
	2.630000	-0.715335
	2.635000	-0.679878
	2.640000	-0.602517
	2.645000	-0.637974
	2.650000	-0.721782
	2.655000	-0.676655
	2.660000	-0.583177
	2.665000	-0.628304
	2.670000	-0.708888
	2.675000	-0.666985
	2.680000	-0.583177
	2.685000	-0.621858
	2.690000	-0.705665
	2.695000	-0.660538
	2.700000	-0.579954
	2.705000	-0.621858
	2.710000	-0.699218
	2.715000	-0.663761
	2.720000	-0.573507
	2.725000	-0.615411
	2.730000	-0.695995
	2.735000	-0.650868
	2.740000	-0.570284
	2.745000	-0.615411
	2.750000	-0.695995
	2.755000	-0.647644
	2.760000	-0.567060
	2.765000	-0.608964
	2.770000	-0.689548
	2.775000	-0.644421
	2.780000	-0.563837
	2.785000	-0.605741
	2.790000	-0.686325
	2.795000	-0.641198
	2.800000	-0.557390
	2.805000	-0.599294
	2.810000	-0.683101
	2.815000	-0.641198
	2.820000	-0.560614
	2.825000	-0.596071
	2.830000	-0.679878
	2.835000	-0.631528
	2.840000	-0.550944
	2.845000	-0.596071
	2.850000	-0.676655
	2.855000	-0.631528
	2.860000	-0.544497
	2.865000	-0.592847
	2.870000	-0.673431
	2.875000	-0.631528
	2.880000	-0.550944
	2.885000	-0.592847
	2.890000	-0.673431
	2.895000	-0.628304
	2.900000	-0.547720
	2.905000	-0.592847
	2.910000	-0.676655
	2.915000	-0.621858
	2.920000	-0.550944
	2.925000	-0.592847
	2.930000	-0.670208
	2.935000	-0.625081
	2.940000	-0.544497
	2.945000	-0.599294
	2.950000	-0.663761
	2.955000	-0.618634
	2.960000	-0.541274
	2.965000	-0.592847
	2.970000	-0.670208
	2.975000	-0.621858
	2.980000	-0.538050
	2.985000	-0.589624
	2.990000	-0.673431
	2.995000	-0.618634
	3.000000	-0.544497
	3.005000	-0.579954
	3.010000	-0.666985
	3.015000	-0.612187
	3.020000	-0.538050
	3.025000	-0.579954
	3.030000	-0.666985
	3.035000	-0.605741
	3.040000	-0.528380
	3.045000	-0.570284
	3.050000	-0.654091
	3.055000	-0.599294
	3.060000	-0.512263
	3.065000	-0.554167
	3.070000	-0.621858
	3.075000	-0.573507
	3.080000	-0.486476
	3.085000	-0.528380
	3.090000	-0.592847
	3.095000	-0.534827
	3.100000	-0.447796
	3.105000	-0.492923
	3.110000	-0.554167
	3.115000	-0.492923
	3.120000	-0.405892
	3.125000	-0.444573
	3.130000	-0.502593
	3.135000	-0.444573
	3.140000	-0.354319
	3.145000	-0.389776
	3.150000	-0.447796
	3.155000	-0.380106
	3.160000	-0.293075
	3.165000	-0.331755
	3.170000	-0.392999
	3.175000	-0.325308
	3.180000	-0.251171
	3.185000	-0.280181
	3.190000	-0.351095
	3.195000	-0.293075
	3.200000	-0.206044
	3.205000	-0.247948
	3.210000	-0.322085
	3.215000	-0.260841
	3.220000	-0.189927
	3.225000	-0.231831
	3.230000	-0.296298
	3.235000	-0.244725
	3.240000	-0.170587
	3.245000	-0.215714
	3.250000	-0.280181
	3.255000	-0.231831
	3.260000	-0.160917
	3.265000	-0.202821
	3.270000	-0.276958
	3.275000	-0.222161
	3.280000	-0.144800
	3.285000	-0.193151
	3.290000	-0.260841
	3.295000	-0.206044
	3.300000	-0.135130
	3.305000	-0.183481
	3.310000	-0.251171
	3.315000	-0.199597
	3.320000	-0.128684
	3.325000	-0.170587
	3.330000	-0.241501
	3.335000	-0.193151
	3.340000	-0.119014
	3.345000	-0.164141
	3.350000	-0.231831
	3.355000	-0.180257
	3.360000	-0.112567
	3.365000	-0.160917
	3.370000	-0.231831
	3.375000	-0.183481
	3.380000	-0.122237
	3.385000	-0.164141
	3.390000	-0.235054
	3.395000	-0.189927
	3.400000	-0.122237
	3.405000	-0.170587
	3.410000	-0.244725
	3.415000	-0.193151
	3.420000	-0.128684
	3.425000	-0.173811
	3.430000	-0.247948
	3.435000	-0.196374
	3.440000	-0.135130
	3.445000	-0.183481
	3.450000	-0.244725
	3.455000	-0.206044
	3.460000	-0.128684
	3.465000	-0.177034
	3.470000	-0.254395
	3.475000	-0.199597
	3.480000	-0.135130
	3.485000	-0.186704
	3.490000	-0.251171
	3.495000	-0.199597
	3.500000	-0.135130
	3.505000	-0.186704
	3.510000	-0.257618
	3.515000	-0.212491
	3.520000	-0.138354
	3.525000	-0.193151
	3.530000	-0.264065
	3.535000	-0.215714
	3.540000	-0.141577
	3.545000	-0.199597
	3.550000	-0.270511
	3.555000	-0.218938
	3.560000	-0.151247
	3.565000	-0.206044
	3.570000	-0.270511
	3.575000	-0.222161
	3.580000	-0.154470
	3.585000	-0.212491
	3.590000	-0.273735
	3.595000	-0.228608
	3.600000	-0.160917
	3.605000	-0.215714
	3.610000	-0.276958
	3.615000	-0.235054
	3.620000	-0.167364
	3.625000	-0.215714
	3.630000	-0.289852
	3.635000	-0.235054
	3.640000	-0.180257
	3.645000	-0.228608
	3.650000	-0.293075
	3.655000	-0.244725
	3.660000	-0.189927
	3.665000	-0.241501
	3.670000	-0.302745
	3.675000	-0.260841
	3.680000	-0.196374
	3.685000	-0.241501
	3.690000	-0.309192
	3.695000	-0.260841
	3.700000	-0.202821
	3.705000	-0.247948
	3.710000	-0.312415
	3.715000	-0.267288
	3.720000	-0.206044
	3.725000	-0.257618
	3.730000	-0.325308
	3.735000	-0.270511
	3.740000	-0.212491
	3.745000	-0.264065
	3.750000	-0.325308
	3.755000	-0.273735
	3.760000	-0.215714
	3.765000	-0.264065
	3.770000	-0.334979
	3.775000	-0.276958
	3.780000	-0.222161
	3.785000	-0.270511
	3.790000	-0.338202
	3.795000	-0.286628
	3.800000	-0.222161
	3.805000	-0.276958
	3.810000	-0.344649
	3.815000	-0.293075
	3.820000	-0.231831
	3.825000	-0.280181
	3.830000	-0.341425
	3.835000	-0.296298
	3.840000	-0.235054
	3.845000	-0.289852
	3.850000	-0.351095
	3.855000	-0.305968
	3.860000	-0.241501
	3.865000	-0.293075
	3.870000	-0.360765
	3.875000	-0.309192
	3.880000	-0.244725
	3.885000	-0.293075
	3.890000	-0.360765
	3.895000	-0.296298
	3.900000	-0.244725
	3.905000	-0.293075
	3.910000	-0.351095
	3.915000	-0.289852
	3.920000	-0.231831
	3.925000	-0.289852
	3.930000	-0.351095
	3.935000	-0.293075
	3.940000	-0.235054
	3.945000	-0.286628
	3.950000	-0.351095
	3.955000	-0.296298
	3.960000	-0.241501
	3.965000	-0.296298
	3.970000	-0.357542
	3.975000	-0.305968
	3.980000	-0.254395
	3.985000	-0.305968
	3.990000	-0.367212
	3.995000	-0.325308
	4.000000	-0.267288
	4.005000	-0.325308
	4.010000	-0.392999
	4.015000	-0.351095
	4.020000	-0.296298
	4.025000	-0.360765
	4.030000	-0.425233
	4.035000	-0.383329
	4.040000	-0.331755
	4.045000	-0.392999
	4.050000	-0.457466
	4.055000	-0.415563
	4.060000	-0.363989
	4.065000	-0.428456
	4.070000	-0.486476
	4.075000	-0.447796
	4.080000	-0.392999
	4.085000	-0.451019
	4.090000	-0.515487
	4.095000	-0.467136
	4.100000	-0.412339
	4.105000	-0.467136
	4.110000	-0.541274
	4.115000	-0.489700
	4.120000	-0.425233
	4.125000	-0.492923
	4.130000	-0.557390
	4.135000	-0.505817
	4.140000	-0.444573
	4.145000	-0.505817
	4.150000	-0.576730
	4.155000	-0.518710
	4.160000	-0.463913
	4.165000	-0.525157
	4.170000	-0.592847
	4.175000	-0.538050
	4.180000	-0.480030
	4.185000	-0.538050
	4.190000	-0.605741
	4.195000	-0.550944
	4.200000	-0.492923
	4.205000	-0.563837
	4.210000	-0.621858
	4.215000	-0.573507
	4.220000	-0.512263
	4.225000	-0.576730
	4.230000	-0.637974
	4.235000	-0.579954
	4.240000	-0.525157
	4.245000	-0.579954
	4.250000	-0.654091
	4.255000	-0.599294
	4.260000	-0.541274
	4.265000	-0.599294
	4.270000	-0.673431
	4.275000	-0.608964
	4.280000	-0.550944
	4.285000	-0.615411
	4.290000	-0.683101
	4.295000	-0.625081
	4.300000	-0.560614
	4.305000	-0.628304
	4.310000	-0.689548
	4.315000	-0.628304
	4.320000	-0.573507
	4.325000	-0.637974
	4.330000	-0.705665
	4.335000	-0.644421
	4.340000	-0.583177
	4.345000	-0.647644
	4.350000	-0.712112
	4.355000	-0.650868
	4.360000	-0.589624
	4.365000	-0.654091
	4.370000	-0.718558
	4.375000	-0.654091
	4.380000	-0.592847
	4.385000	-0.650868
	4.390000	-0.715335
	4.395000	-0.657314
	4.400000	-0.589624
	4.405000	-0.657314
	4.410000	-0.718558
	4.415000	-0.660538
	4.420000	-0.583177
	4.425000	-0.657314
	4.430000	-0.718558
	4.435000	-0.650868
	4.440000	-0.589624
	4.445000	-0.657314
	4.450000	-0.718558
	4.455000	-0.654091
	4.460000	-0.589624
	4.465000	-0.654091
	4.470000	-0.712112
	4.475000	-0.647644
	4.480000	-0.586401
	4.485000	-0.654091
	4.490000	-0.705665
	4.495000	-0.644421
	4.500000	-0.579954
	4.505000	-0.644421
	4.510000	-0.708888
	4.515000	-0.644421
	4.520000	-0.579954
	4.525000	-0.634751
	4.530000	-0.702441
	4.535000	-0.634751
	4.540000	-0.573507
	4.545000	-0.641198
	4.550000	-0.699218
	4.555000	-0.641198
	4.560000	-0.573507
	4.565000	-0.637974
	4.570000	-0.699218
	4.575000	-0.631528
	4.580000	-0.563837
	4.585000	-0.628304
	4.590000	-0.692771
	4.595000	-0.625081
	4.600000	-0.567060
	4.605000	-0.628304
	4.610000	-0.692771
	4.615000	-0.625081
	4.620000	-0.567060
	4.625000	-0.625081
	4.630000	-0.689548
	4.635000	-0.628304
	4.640000	-0.560614
	4.645000	-0.631528
	4.650000	-0.686325
	4.655000	-0.618634
	4.660000	-0.560614
	4.665000	-0.625081
	4.670000	-0.686325
	4.675000	-0.618634
	4.680000	-0.554167
	4.685000	-0.625081
	4.690000	-0.689548
	4.695000	-0.618634
	4.700000	-0.550944
	4.705000	-0.621858
	4.710000	-0.686325
	4.715000	-0.615411
	4.720000	-0.547720
	4.725000	-0.628304
	4.730000	-0.683101
	4.735000	-0.608964
	4.740000	-0.554167
	4.745000	-0.618634
	4.750000	-0.679878
	4.755000	-0.608964
	4.760000	-0.554167
	4.765000	-0.618634
	4.770000	-0.679878
	4.775000	-0.605741
	4.780000	-0.557390
	4.785000	-0.621858
	4.790000	-0.673431
	4.795000	-0.605741
	4.800000	-0.544497
	4.805000	-0.612187
	4.810000	-0.676655
	4.815000	-0.599294
	4.820000	-0.541274
	4.825000	-0.615411
	4.830000	-0.673431
	4.835000	-0.602517
	4.840000	-0.541274
	4.845000	-0.608964
	4.850000	-0.670208
	4.855000	-0.599294
	4.860000	-0.538050
	4.865000	-0.608964
	4.870000	-0.666985
	4.875000	-0.592847
	4.880000	-0.538050
	4.885000	-0.608964
	4.890000	-0.670208
	4.895000	-0.592847
	4.900000	-0.534827
	4.905000	-0.602517
	4.910000	-0.663761
	4.915000	-0.586401
	4.920000	-0.528380
	4.925000	-0.602517
	4.930000	-0.657314
	4.935000	-0.583177
	4.940000	-0.531603
	4.945000	-0.596071
	4.950000	-0.654091
	4.955000	-0.583177
	4.960000	-0.521933
	4.965000	-0.596071
	4.970000	-0.650868
	4.975000	-0.576730
	4.980000	-0.521933
	4.985000	-0.596071
	4.990000	-0.657314
	4.995000	-0.579954
	5.000000	-0.521933
	5.005000	-0.596071
	5.010000	-0.650868
	5.015000	-0.579954
	5.020000	-0.525157
	5.025000	-0.596071
	5.030000	-0.637974
	5.035000	-0.573507
	5.040000	-0.518710
	5.045000	-0.592847
	5.050000	-0.647644
	5.055000	-0.583177
	5.060000	-0.515487
	5.065000	-0.589624
	5.070000	-0.650868
	5.075000	-0.567060
	5.080000	-0.515487
	5.085000	-0.583177
	5.090000	-0.641198
	5.095000	-0.573507
	5.100000	-0.515487
	5.105000	-0.589624
	5.110000	-0.637974
	5.115000	-0.570284
	5.120000	-0.512263
	5.125000	-0.583177
	5.130000	-0.641198
	5.135000	-0.567060
	5.140000	-0.509040
	5.145000	-0.579954
	5.150000	-0.641198
	5.155000	-0.560614
	5.160000	-0.509040
	5.165000	-0.583177
	5.170000	-0.634751
	5.175000	-0.560614
	5.180000	-0.509040
	5.185000	-0.583177
	5.190000	-0.634751
	5.195000	-0.557390
	5.200000	-0.509040
	5.205000	-0.579954
	5.210000	-0.634751
	5.215000	-0.557390
	5.220000	-0.499370
	5.225000	-0.576730
	5.230000	-0.631528
	5.235000	-0.563837
	5.240000	-0.502593
	5.245000	-0.583177
	5.250000	-0.631528
	5.255000	-0.560614
	5.260000	-0.502593
	5.265000	-0.576730
	5.270000	-0.634751
	5.275000	-0.554167
	5.280000	-0.505817
	5.285000	-0.576730
	5.290000	-0.628304
	5.295000	-0.557390
	5.300000	-0.502593
	5.305000	-0.573507
	5.310000	-0.631528
	5.315000	-0.554167
	5.320000	-0.499370
	5.325000	-0.573507
	5.330000	-0.621858
	5.335000	-0.554167
	5.340000	-0.499370
	5.345000	-0.576730
	5.350000	-0.631528
	5.355000	-0.554167
	5.360000	-0.496147
	5.365000	-0.573507
	5.370000	-0.625081
	5.375000	-0.554167
	5.380000	-0.496147
	5.385000	-0.573507
	5.390000	-0.621858
	5.395000	-0.550944
	5.400000	-0.499370
	5.405000	-0.567060
	5.410000	-0.625081
	5.415000	-0.557390
	5.420000	-0.496147
	5.425000	-0.573507
	5.430000	-0.621858
	5.435000	-0.547720
	5.440000	-0.496147
	5.445000	-0.567060
	5.450000	-0.615411
	5.455000	-0.547720
	5.460000	-0.499370
	5.465000	-0.570284
	5.470000	-0.618634
	5.475000	-0.550944
	5.480000	-0.499370
	5.485000	-0.573507
	5.490000	-0.625081
	5.495000	-0.544497
	5.500000	-0.499370
	5.505000	-0.570284
	5.510000	-0.628304
	5.515000	-0.550944
	5.520000	-0.496147
	5.525000	-0.579954
	5.530000	-0.631528
	5.535000	-0.550944
	5.540000	-0.489700
	5.545000	-0.573507
	5.550000	-0.621858
	5.555000	-0.550944
	5.560000	-0.492923
	5.565000	-0.570284
	5.570000	-0.621858
	5.575000	-0.538050
	5.580000	-0.486476
	5.585000	-0.563837
	5.590000	-0.618634
	5.595000	-0.534827
	5.600000	-0.480030
	5.605000	-0.560614
	5.610000	-0.605741
	5.615000	-0.528380
	5.620000	-0.476806
	5.625000	-0.550944
	5.630000	-0.605741
	5.635000	-0.528380
	5.640000	-0.473583
	5.645000	-0.557390
	5.650000	-0.602517
	5.655000	-0.528380
	5.660000	-0.470360
	5.665000	-0.550944
	5.670000	-0.592847
	5.675000	-0.515487
	5.680000	-0.467136
	5.685000	-0.544497
	5.690000	-0.586401
	5.695000	-0.505817
	5.700000	-0.460690
	5.705000	-0.531603
	5.710000	-0.573507
	5.715000	-0.505817
	5.720000	-0.444573
	5.725000	-0.521933
	5.730000	-0.560614
	5.735000	-0.486476
	5.740000	-0.434903
	5.745000	-0.509040
	5.750000	-0.557390
	5.755000	-0.470360
	5.760000	-0.415563
	5.765000	-0.496147
	5.770000	-0.541274
	5.775000	-0.447796
	5.780000	-0.405892
	5.785000	-0.473583
	5.790000	-0.518710
	5.795000	-0.438126
	5.800000	-0.389776
	5.805000	-0.454243
	5.810000	-0.505817
	5.815000	-0.425233
	5.820000	-0.370436
	5.825000	-0.447796
	5.830000	-0.489700
	5.835000	-0.405892
	5.840000	-0.363989
	5.845000	-0.434903
	5.850000	-0.480030
	5.855000	-0.399446
	5.860000	-0.351095
	5.865000	-0.418786
	5.870000	-0.457466
	5.875000	-0.367212
	5.880000	-0.322085
	5.885000	-0.383329
	5.890000	-0.422009
	5.895000	-0.334979
	5.900000	-0.276958
	5.905000	-0.344649
	5.910000	-0.370436
	5.915000	-0.286628
	5.920000	-0.222161
	5.925000	-0.286628
	5.930000	-0.315638
	5.935000	-0.225384
	5.940000	-0.173811
	5.945000	-0.222161
	5.950000	-0.257618
	5.955000	-0.173811
	5.960000	-0.122237
	5.965000	-0.183481
	5.970000	-0.222161
	5.975000	-0.135130
	5.980000	-0.090003
	5.985000	-0.151247
	5.990000	-0.196374
	5.995000	-0.115790
	6.000000	-0.073886
	6.005000	-0.144800
	6.010000	-0.186704
	6.015000	-0.112567
	6.020000	-0.067440
	6.025000	-0.135130
	6.030000	-0.186704
	6.035000	-0.102897
	6.040000	-0.067440
	6.045000	-0.144800
	6.050000	-0.183481
	6.055000	-0.115790
	6.060000	-0.073886
	6.065000	-0.144800
	6.070000	-0.199597
	6.075000	-0.119014
	6.080000	-0.086780
	6.085000	-0.148024
	6.090000	-0.199597
	6.095000	-0.135130
	6.100000	-0.086780
	6.105000	-0.167364
	6.110000	-0.212491
	6.115000	-0.138354
	6.120000	-0.102897
	6.125000	-0.177034
	6.130000	-0.222161
	6.135000	-0.154470
	6.140000	-0.119014
	6.145000	-0.196374
	6.150000	-0.241501
	6.155000	-0.164141
	6.160000	-0.128684
	6.165000	-0.215714
	6.170000	-0.257618
	6.175000	-0.183481
	6.180000	-0.151247
	6.185000	-0.228608
	6.190000	-0.264065
	6.195000	-0.196374
	6.200000	-0.151247
	6.205000	-0.235054
	6.210000	-0.273735
	6.215000	-0.199597
	6.220000	-0.164141
	6.225000	-0.241501
	6.230000	-0.283405
	6.235000	-0.209268
	6.240000	-0.173811
	6.245000	-0.254395
	6.250000	-0.289852
	6.255000	-0.225384
	6.260000	-0.180257
	6.265000	-0.267288
	6.270000	-0.305968
	6.275000	-0.231831
	6.280000	-0.202821
	6.285000	-0.273735
	6.290000	-0.315638
	6.295000	-0.241501
	6.300000	-0.212491
	6.305000	-0.286628
	6.310000	-0.331755
	6.315000	-0.254395
	6.320000	-0.218938
	6.325000	-0.296298
	6.330000	-0.334979
	6.335000	-0.264065
	6.340000	-0.222161
	6.345000	-0.299522
	6.350000	-0.338202
	6.355000	-0.267288
	6.360000	-0.231831
	6.365000	-0.309192
	6.370000	-0.347872
	6.375000	-0.273735
	6.380000	-0.238278
	6.385000	-0.312415
	6.390000	-0.344649
	6.395000	-0.270511
	6.400000	-0.235054
	6.405000	-0.309192
	6.410000	-0.347872
	6.415000	-0.267288
	6.420000	-0.238278
	6.425000	-0.309192
	6.430000	-0.357542
	6.435000	-0.273735
	6.440000	-0.238278
	6.445000	-0.315638
	6.450000	-0.351095
	6.455000	-0.270511
	6.460000	-0.241501
	6.465000	-0.309192
	6.470000	-0.351095
	6.475000	-0.267288
	6.480000	-0.235054
	6.485000	-0.296298
	6.490000	-0.341425
	6.495000	-0.257618
	6.500000	-0.218938
	6.505000	-0.293075
	6.510000	-0.328532
	6.515000	-0.251171
	6.520000	-0.206044
	6.525000	-0.276958
	6.530000	-0.315638
	6.535000	-0.228608
	6.540000	-0.193151
	6.545000	-0.270511
	6.550000	-0.296298
	6.555000	-0.222161
	6.560000	-0.173811
	6.565000	-0.251171
	6.570000	-0.289852
	6.575000	-0.212491
	6.580000	-0.173811
	6.585000	-0.251171
	6.590000	-0.289852
	6.595000	-0.215714
	6.600000	-0.180257
	6.605000	-0.270511
	6.610000	-0.305968
	6.615000	-0.228608
	6.620000	-0.209268
	6.625000	-0.293075
	6.630000	-0.338202
	6.635000	-0.267288
	6.640000	-0.241501
	6.645000	-0.334979
	6.650000	-0.376882
	6.655000	-0.312415
	6.660000	-0.283405
	6.665000	-0.376882
	6.670000	-0.418786
	6.675000	-0.347872
	6.680000	-0.322085
	6.685000	-0.409116
	6.690000	-0.447796
	6.695000	-0.380106
	6.700000	-0.351095
	6.705000	-0.425233
	6.710000	-0.470360
	6.715000	-0.396222
	6.720000	-0.360765
	6.725000	-0.447796
	6.730000	-0.489700
	6.735000	-0.412339
	6.740000	-0.376882
	6.745000	-0.463913
	6.750000	-0.496147
	6.755000	-0.422009
	6.760000	-0.392999
	6.765000	-0.473583
	6.770000	-0.512263
	6.775000	-0.431679
	6.780000	-0.405892
	6.785000	-0.483253
	6.790000	-0.518710
	6.795000	-0.434903
	6.800000	-0.405892
	6.805000	-0.492923
	6.810000	-0.525157
	6.815000	-0.447796
	6.820000	-0.415563
	6.825000	-0.502593
	6.830000	-0.534827
	6.835000	-0.460690
	6.840000	-0.428456
	6.845000	-0.512263
	6.850000	-0.544497
	6.855000	-0.473583
	6.860000	-0.451019
	6.865000	-0.525157
	6.870000	-0.563837
	6.875000	-0.486476
	6.880000	-0.463913
	6.885000	-0.544497
	6.890000	-0.567060
	6.895000	-0.496147
	6.900000	-0.470360
	6.905000	-0.560614
	6.910000	-0.592847
	6.915000	-0.509040
	6.920000	-0.483253
	6.925000	-0.570284
	6.930000	-0.605741
	6.935000	-0.528380
	6.940000	-0.489700
	6.945000	-0.579954
	6.950000	-0.615411
	6.955000	-0.528380
	6.960000	-0.505817
	6.965000	-0.589624
	6.970000	-0.621858
	6.975000	-0.538050
	6.980000	-0.512263
	6.985000	-0.596071
	6.990000	-0.621858
	6.995000	-0.538050
	7.000000	-0.512263
	7.005000	-0.599294
	7.010000	-0.625081
	7.015000	-0.547720
	7.020000	-0.518710
	7.025000	-0.599294
	7.030000	-0.628304
	7.035000	-0.547720
	7.040000	-0.509040
	7.045000	-0.599294
	7.050000	-0.631528
	7.055000	-0.547720
	7.060000	-0.515487
	7.065000	-0.599294
	7.070000	-0.628304
	7.075000	-0.547720
	7.080000	-0.521933
	7.085000	-0.599294
	7.090000	-0.628304
	7.095000	-0.547720
	7.100000	-0.518710
	7.105000	-0.599294
	7.110000	-0.631528
	7.115000	-0.550944
	7.120000	-0.518710
	7.125000	-0.602517
	7.130000	-0.631528
	7.135000	-0.541274
	7.140000	-0.515487
	7.145000	-0.605741
	7.150000	-0.628304
	7.155000	-0.547720
	7.160000	-0.518710
	7.165000	-0.596071
	7.170000	-0.631528
	7.175000	-0.547720
	7.180000	-0.515487
	7.185000	-0.602517
	7.190000	-0.625081
	7.195000	-0.538050
	7.200000	-0.515487
	7.205000	-0.599294
	7.210000	-0.625081
	7.215000	-0.544497
	7.220000	-0.512263
	7.225000	-0.602517
	7.230000	-0.631528
	7.235000	-0.541274
	7.240000	-0.509040
	7.245000	-0.596071
	7.250000	-0.621858
	7.255000	-0.541274
	7.260000	-0.512263
	7.265000	-0.599294
	7.270000	-0.625081
	7.275000	-0.534827
	7.280000	-0.505817
	7.285000	-0.596071
	7.290000	-0.618634
	7.295000	-0.538050
	7.300000	-0.509040
	7.305000	-0.596071
	7.310000	-0.618634
	7.315000	-0.531603
	7.320000	-0.502593
	7.325000	-0.592847
	7.330000	-0.618634
	7.335000	-0.525157
	7.340000	-0.499370
	7.345000	-0.589624
	7.350000	-0.612187
	7.355000	-0.528380
	7.360000	-0.505817
	7.365000	-0.586401
	7.370000	-0.615411
	7.375000	-0.525157
	7.380000	-0.496147
	7.385000	-0.589624
	7.390000	-0.612187
	7.395000	-0.525157
	7.400000	-0.505817
	7.405000	-0.586401
	7.410000	-0.608964
	7.415000	-0.525157
	7.420000	-0.496147
	7.425000	-0.583177
	7.430000	-0.608964
	7.435000	-0.521933
	7.440000	-0.492923
	7.445000	-0.579954
	7.450000	-0.605741
	7.455000	-0.518710
	7.460000	-0.499370
	7.465000	-0.583177
	7.470000	-0.602517
	7.475000	-0.509040
	7.480000	-0.489700
	7.485000	-0.579954
	7.490000	-0.599294
	7.495000	-0.515487
	7.500000	-0.489700
	7.505000	-0.576730
	7.510000	-0.602517
	7.515000	-0.512263
	7.520000	-0.486476
	7.525000	-0.579954
	7.530000	-0.602517
	7.535000	-0.505817
	7.540000	-0.489700
	7.545000	-0.579954
	7.550000	-0.599294
	7.555000	-0.509040
	7.560000	-0.483253
	7.565000	-0.573507
	7.570000	-0.589624
	7.575000	-0.502593
	7.580000	-0.483253
	7.585000	-0.573507
	7.590000	-0.596071
	7.595000	-0.496147
	7.600000	-0.480030
	7.605000	-0.563837
	7.610000	-0.592847
	7.615000	-0.509040
	7.620000	-0.483253
	7.625000	-0.573507
	7.630000	-0.586401
	7.635000	-0.499370
	7.640000	-0.483253
	7.645000	-0.567060
	7.650000	-0.586401
	7.655000	-0.499370
	7.660000	-0.476806
	7.665000	-0.570284
	7.670000	-0.586401
	7.675000	-0.496147
	7.680000	-0.480030
	7.685000	-0.563837
	7.690000	-0.586401
	7.695000	-0.499370
	7.700000	-0.473583
	7.705000	-0.570284
	7.710000	-0.586401
	7.715000	-0.502593
	7.720000	-0.480030
	7.725000	-0.563837
	7.730000	-0.583177
	7.735000	-0.492923
	7.740000	-0.473583
	7.745000	-0.563837
	7.750000	-0.583177
	7.755000	-0.499370
	7.760000	-0.473583
	7.765000	-0.563837
	7.770000	-0.583177
	7.775000	-0.496147
	7.780000	-0.473583
	7.785000	-0.567060
	7.790000	-0.583177
	7.795000	-0.489700
	7.800000	-0.476806
	7.805000	-0.567060
	7.810000	-0.583177
	7.815000	-0.489700
	7.820000	-0.473583
	7.825000	-0.560614
	7.830000	-0.583177
	7.835000	-0.489700
	7.840000	-0.470360
	7.845000	-0.560614
	7.850000	-0.583177
	7.855000	-0.489700
	7.860000	-0.470360
	7.865000	-0.563837
	7.870000	-0.576730
	7.875000	-0.492923
	7.880000	-0.470360
	7.885000	-0.560614
	7.890000	-0.579954
	7.895000	-0.483253
	7.900000	-0.473583
	7.905000	-0.560614
	7.910000	-0.576730
	7.915000	-0.492923
	7.920000	-0.470360
	7.925000	-0.563837
	7.930000	-0.579954
	7.935000	-0.483253
	7.940000	-0.463913
	7.945000	-0.557390
	7.950000	-0.576730
	7.955000	-0.486476
	7.960000	-0.473583
	7.965000	-0.567060
	7.970000	-0.576730
	7.975000	-0.489700
	7.980000	-0.467136
	7.985000	-0.560614
	7.990000	-0.576730
	7.995000	-0.486476
	8.000000	-0.473583
	8.005000	-0.560614
	8.010000	-0.570284
	8.015000	-0.486476
	8.020000	-0.467136
	8.025000	-0.550944
	8.030000	-0.576730
	8.035000	-0.486476
	8.040000	-0.470360
	8.045000	-0.563837
	8.050000	-0.573507
	8.055000	-0.483253
	8.060000	-0.473583
	8.065000	-0.560614
	8.070000	-0.573507
	8.075000	-0.486476
	8.080000	-0.467136
	8.085000	-0.560614
	8.090000	-0.573507
	8.095000	-0.486476
	8.100000	-0.476806
	8.105000	-0.557390
	8.110000	-0.576730
	8.115000	-0.483253
	8.120000	-0.470360
	8.125000	-0.560614
	8.130000	-0.573507
	8.135000	-0.483253
	8.140000	-0.470360
	8.145000	-0.554167
	8.150000	-0.573507
	8.155000	-0.483253
	8.160000	-0.467136
	8.165000	-0.560614
	8.170000	-0.567060
	8.175000	-0.489700
	8.180000	-0.463913
	8.185000	-0.560614
	8.190000	-0.570284
	8.195000	-0.480030
	8.200000	-0.463913
	8.205000	-0.560614
	8.210000	-0.570284
	8.215000	-0.480030
	8.220000	-0.463913
	8.225000	-0.554167
	8.230000	-0.570284
	8.235000	-0.476806
	8.240000	-0.470360
	8.245000	-0.560614
	8.250000	-0.570284
	8.255000	-0.473583
	8.260000	-0.467136
	8.265000	-0.563837
	8.270000	-0.567060
	8.275000	-0.476806
	8.280000	-0.467136
	8.285000	-0.563837
	8.290000	-0.567060
	8.295000	-0.476806
	8.300000	-0.470360
	8.305000	-0.554167
	8.310000	-0.570284
	8.315000	-0.476806
	8.320000	-0.463913
	8.325000	-0.557390
	8.330000	-0.570284
	8.335000	-0.480030
	8.340000	-0.467136
	8.345000	-0.560614
	8.350000	-0.567060
	8.355000	-0.480030
	8.360000	-0.463913
	8.365000	-0.557390
	8.370000	-0.567060
	8.375000	-0.480030
	8.380000	-0.467136
	8.385000	-0.557390
	8.390000	-0.563837
	8.395000	-0.476806
	8.400000	-0.463913
	8.405000	-0.550944
	8.410000	-0.554167
	8.415000	-0.463913
	8.420000	-0.454243
	8.425000	-0.547720
	8.430000	-0.541274
	8.435000	-0.454243
	8.440000	-0.434903
	8.445000	-0.528380
	8.450000	-0.528380
	8.455000	-0.428456
	8.460000	-0.412339
	8.465000	-0.496147
	8.470000	-0.492923
	8.475000	-0.392999
	8.480000	-0.373659
	8.485000	-0.460690
	8.490000	-0.451019
	8.495000	-0.341425
	8.500000	-0.318862
	8.505000	-0.402669
	8.510000	-0.380106
	8.515000	-0.273735
	8.520000	-0.241501
	8.525000	-0.315638
	8.530000	-0.309192
	8.535000	-0.196374
	8.540000	-0.186704
	8.545000	-0.254395
	8.550000	-0.247948
	8.555000	-0.148024
	8.560000	-0.131907
	8.565000	-0.215714
	8.570000	-0.206044
	8.575000	-0.119014
	8.580000	-0.102897
	8.585000	-0.189927
	8.590000	-0.189927
	8.595000	-0.099673
	8.600000	-0.083557
	8.605000	-0.173811
	8.610000	-0.180257
	8.615000	-0.086780
	8.620000	-0.083557
	8.625000	-0.170587
	8.630000	-0.170587
	8.635000	-0.086780
	8.640000	-0.083557
	8.645000	-0.167364
	8.650000	-0.173811
	8.655000	-0.090003
	8.660000	-0.083557
	8.665000	-0.170587
	8.670000	-0.164141
	8.675000	-0.090003
	8.680000	-0.080333
	8.685000	-0.167364
	8.690000	-0.164141
	8.695000	-0.083557
	8.700000	-0.077110
	8.705000	-0.154470
	8.710000	-0.157694
	8.715000	-0.070663
	8.720000	-0.073886
	8.725000	-0.157694
	8.730000	-0.157694
	8.735000	-0.080333
	8.740000	-0.077110
	8.745000	-0.160917
	8.750000	-0.164141
	8.755000	-0.090003
	8.760000	-0.090003
	8.765000	-0.167364
	8.770000	-0.177034
	8.775000	-0.083557
	8.780000	-0.083557
	8.785000	-0.170587
	8.790000	-0.170587
	8.795000	-0.090003
	8.800000	-0.083557
	8.805000	-0.173811
	8.810000	-0.180257
	8.815000	-0.093227
	8.820000	-0.093227
	8.825000	-0.177034
	8.830000	-0.186704
	8.835000	-0.093227
	8.840000	-0.090003
	8.845000	-0.177034
	8.850000	-0.183481
	8.855000	-0.099673
	8.860000	-0.099673
	8.865000	-0.183481
	8.870000	-0.186704
	8.875000	-0.099673
	8.880000	-0.102897
	8.885000	-0.189927
	8.890000	-0.189927
	8.895000	-0.106120
	8.900000	-0.106120
	8.905000	-0.193151
	8.910000	-0.193151
	8.915000	-0.109343
	8.920000	-0.112567
	8.925000	-0.193151
	8.930000	-0.199597
	8.935000	-0.112567
	8.940000	-0.109343
	8.945000	-0.193151
	8.950000	-0.199597
	8.955000	-0.125460
	8.960000	-0.122237
	8.965000	-0.209268
	8.970000	-0.209268
	8.975000	-0.125460
	8.980000	-0.125460
	8.985000	-0.212491
	8.990000	-0.212491
	8.995000	-0.135130
	9.000000	-0.131907
	9.005000	-0.215714
	9.010000	-0.215714
	9.015000	-0.131907
	9.020000	-0.141577
	9.025000	-0.222161
	9.030000	-0.222161
	9.035000	-0.141577
	9.040000	-0.141577
	9.045000	-0.225384
	9.050000	-0.228608
	9.055000	-0.148024
	9.060000	-0.154470
	9.065000	-0.235054
	9.070000	-0.235054
	9.075000	-0.154470
	9.080000	-0.151247
	9.085000	-0.235054
	9.090000	-0.238278
	9.095000	-0.154470
	9.100000	-0.157694
	9.105000	-0.247948
	9.110000	-0.244725
	9.115000	-0.160917
	9.120000	-0.164141
	9.125000	-0.251171
	9.130000	-0.247948
	9.135000	-0.160917
	9.140000	-0.173811
	9.145000	-0.257618
	9.150000	-0.254395
	9.155000	-0.173811
	9.160000	-0.177034
	9.165000	-0.270511
	9.170000	-0.267288
	9.175000	-0.189927
	9.180000	-0.196374
	9.185000	-0.283405
	9.190000	-0.289852
	9.195000	-0.212491
	9.200000	-0.222161
	9.205000	-0.315638
	9.210000	-0.322085
	9.215000	-0.251171
	9.220000	-0.257618
	9.225000	-0.351095
	9.230000	-0.354319
	9.235000	-0.286628
	9.240000	-0.293075
	9.245000	-0.386552
	9.250000	-0.383329
	9.255000	-0.312415
	9.260000	-0.318862
	9.265000	-0.415563
	9.270000	-0.418786
	9.275000	-0.341425
	9.280000	-0.357542
	9.285000	-0.451019
	9.290000	-0.447796
	9.295000	-0.370436
	9.300000	-0.380106
	9.305000	-0.473583
	9.310000	-0.476806
	9.315000	-0.399446
	9.320000	-0.412339
	9.325000	-0.502593
	9.330000	-0.502593
	9.335000	-0.418786
	9.340000	-0.434903
	9.345000	-0.525157
	9.350000	-0.521933
	9.355000	-0.444573
	9.360000	-0.451019
	9.365000	-0.544497
	9.370000	-0.541274
	9.375000	-0.460690
	9.380000	-0.470360
	9.385000	-0.563837
	9.390000	-0.557390
	9.395000	-0.470360
	9.400000	-0.480030
	9.405000	-0.573507
	9.410000	-0.563837
	9.415000	-0.476806
	9.420000	-0.489700
	9.425000	-0.573507
	9.430000	-0.567060
	9.435000	-0.489700
	9.440000	-0.489700
	9.445000	-0.586401
	9.450000	-0.570284
	9.455000	-0.492923
	9.460000	-0.496147
	9.465000	-0.583177
	9.470000	-0.583177
	9.475000	-0.492923
	9.480000	-0.505817
	9.485000	-0.589624
	9.490000	-0.586401
	9.495000	-0.489700
	9.500000	-0.502593
	9.505000	-0.592847
	9.510000	-0.583177
	9.515000	-0.492923
	9.520000	-0.509040
	9.525000	-0.596071
	9.530000	-0.592847
	9.535000	-0.502593
	9.540000	-0.518710
	9.545000	-0.605741
	9.550000	-0.599294
	9.555000	-0.509040
	9.560000	-0.518710
	9.565000	-0.602517
	9.570000	-0.596071
	9.575000	-0.509040
	9.580000	-0.525157
	9.585000	-0.615411
	9.590000	-0.599294
	9.595000	-0.512263
	9.600000	-0.528380
	9.605000	-0.621858
	9.610000	-0.608964
	9.615000	-0.518710
	9.620000	-0.528380
	9.625000	-0.618634
	9.630000	-0.608964
	9.635000	-0.521933
	9.640000	-0.531603
	9.645000	-0.621858
	9.650000	-0.615411
	9.655000	-0.521933
	9.660000	-0.534827
	9.665000	-0.628304
	9.670000	-0.615411
	9.675000	-0.521933
	9.680000	-0.531603
	9.685000	-0.625081
	9.690000	-0.615411
	9.695000	-0.521933
	9.700000	-0.541274
	9.705000	-0.621858
	9.710000	-0.618634
	9.715000	-0.528380
	9.720000	-0.541274
	9.725000	-0.628304
	9.730000	-0.612187
	9.735000	-0.525157
	9.740000	-0.544497
	9.745000	-0.631528
	9.750000	-0.615411
	9.755000	-0.525157
	9.760000	-0.531603
	9.765000	-0.628304
	9.770000	-0.615411
	9.775000	-0.521933
	9.780000	-0.534827
	9.785000	-0.625081
	9.790000	-0.615411
	9.795000	-0.525157
	9.800000	-0.531603
	9.805000	-0.631528
	9.810000	-0.615411
	9.815000	-0.521933
	9.820000	-0.534827
	9.825000	-0.625081
	9.830000	-0.615411
	9.835000	-0.512263
	9.840000	-0.531603
	9.845000	-0.625081
	9.850000	-0.608964
	9.855000	-0.521933
	9.860000	-0.531603
	9.865000	-0.621858
	9.870000	-0.608964
	9.875000	-0.515487
	9.880000	-0.525157
	9.885000	-0.621858
	9.890000	-0.605741
	9.895000	-0.512263
	9.900000	-0.531603
	9.905000	-0.612187
	9.910000	-0.599294
	9.915000	-0.509040
	9.920000	-0.518710
	9.925000	-0.612187
	9.930000	-0.592847
	9.935000	-0.509040
	9.940000	-0.521933
	9.945000	-0.608964
	9.950000	-0.589624
	9.955000	-0.502593
	9.960000	-0.515487
	9.965000	-0.612187
	9.970000	-0.592847
	9.975000	-0.509040
	9.980000	-0.521933
	9.985000	-0.612187
	9.990000	-0.589624
	9.995000	-0.499370
	10.000000	-0.515487
	10.005000	-0.608964
	10.010000	-0.592847
	10.015000	-0.492923
	10.020000	-0.515487
	10.025000	-0.602517
	10.030000	-0.596071
	10.035000	-0.499370
	10.040000	-0.509040
	10.045000	-0.602517
	10.050000	-0.586401
	10.055000	-0.489700
	10.060000	-0.509040
	10.065000	-0.602517
	10.070000	-0.583177
	10.075000	-0.486476
	10.080000	-0.515487
	10.085000	-0.602517
	10.090000	-0.583177
	10.095000	-0.489700
	10.100000	-0.509040
	10.105000	-0.602517
	10.110000	-0.583177
	10.115000	-0.486476
	10.120000	-0.505817
	10.125000	-0.599294
	10.130000	-0.583177
	10.135000	-0.492923
	10.140000	-0.509040
	10.145000	-0.599294
	10.150000	-0.576730
	10.155000	-0.483253
	10.160000	-0.509040
	10.165000	-0.599294
	10.170000	-0.573507
	10.175000	-0.489700
	10.180000	-0.505817
	10.185000	-0.589624
	10.190000	-0.576730
	10.195000	-0.480030
	10.200000	-0.502593
	10.205000	-0.596071
	10.210000	-0.570284
	10.215000	-0.486476
	10.220000	-0.496147
	10.225000	-0.592847
	10.230000	-0.567060
	10.235000	-0.480030
	10.240000	-0.499370
	10.245000	-0.589624
	10.250000	-0.560614
	10.255000	-0.480030
	10.260000	-0.492923
	10.265000	-0.583177
	10.270000	-0.567060
	10.275000	-0.473583
	10.280000	-0.496147
	10.285000	-0.583177
	10.290000	-0.563837
	10.295000	-0.470360
	10.300000	-0.489700
	10.305000	-0.589624
	10.310000	-0.567060
	10.315000	-0.476806
	10.320000	-0.492923
	10.325000	-0.583177
	10.330000	-0.557390
	10.335000	-0.473583
	10.340000	-0.492923
	10.345000	-0.583177
	10.350000	-0.560614
	10.355000	-0.470360
	10.360000	-0.489700
	10.365000	-0.579954
	10.370000	-0.560614
	10.375000	-0.473583
	10.380000	-0.489700
	10.385000	-0.576730
	10.390000	-0.560614
	10.395000	-0.463913
	10.400000	-0.486476
	10.405000	-0.576730
	10.410000	-0.557390
	10.415000	-0.473583
	10.420000	-0.496147
	10.425000	-0.579954
	10.430000	-0.554167
	10.435000	-0.463913
	10.440000	-0.489700
	10.445000	-0.576730
	10.450000	-0.547720
	10.455000	-0.467136
	10.460000	-0.489700
	10.465000	-0.579954
	10.470000	-0.554167
	10.475000	-0.460690
	10.480000	-0.489700
	10.485000	-0.583177
	10.490000	-0.554167
	10.495000	-0.463913
	10.500000	-0.492923
	10.505000	-0.579954
	10.510000	-0.554167
	10.515000	-0.463913
	10.520000	-0.496147
	10.525000	-0.576730
	10.530000	-0.554167
	10.535000	-0.470360
	10.540000	-0.489700
	10.545000	-0.583177
	10.550000	-0.550944
	10.555000	-0.463913
	10.560000	-0.489700
	10.565000	-0.573507
	10.570000	-0.554167
	10.575000	-0.460690
	10.580000	-0.483253
	10.585000	-0.579954
	10.590000	-0.547720
	10.595000	-0.463913
	10.600000	-0.483253
	10.605000	-0.579954
	10.610000	-0.547720
	10.615000	-0.457466
	10.620000	-0.480030
	10.625000	-0.573507
	10.630000	-0.550944
	10.635000	-0.457466
	10.640000	-0.480030
	10.645000	-0.570284
	10.650000	-0.541274
	10.655000	-0.457466
	10.660000	-0.489700
	10.665000	-0.573507
	10.670000	-0.547720
	10.675000	-0.457466
	10.680000	-0.480030
	10.685000	-0.567060
	10.690000	-0.547720
	10.695000	-0.454243
	10.700000	-0.480030
	10.705000	-0.567060
	10.710000	-0.554167
	10.715000	-0.460690
	10.720000	-0.480030
	10.725000	-0.573507
	10.730000	-0.544497
	10.735000	-0.454243
	10.740000	-0.483253
	10.745000	-0.570284
	10.750000	-0.547720
	10.755000	-0.457466
	10.760000	-0.480030
	10.765000	-0.573507
	10.770000	-0.544497
	10.775000	-0.463913
	10.780000	-0.486476
	10.785000	-0.576730
	10.790000	-0.547720
	10.795000	-0.457466
	10.800000	-0.492923
	10.805000	-0.579954
	10.810000	-0.554167
	10.815000	-0.451019
	10.820000	-0.486476
	10.825000	-0.573507
	10.830000	-0.544497
	10.835000	-0.460690
	10.840000	-0.489700
	10.845000	-0.570284
	10.850000	-0.544497
	10.855000	-0.460690
	10.860000	-0.489700
	10.865000	-0.576730
	10.870000	-0.547720
	10.875000	-0.457466
	10.880000	-0.486476
	10.885000	-0.573507
	10.890000	-0.544497
	10.895000	-0.460690
	10.900000	-0.483253
	10.905000	-0.570284
	10.910000	-0.547720
	10.915000	-0.457466
	10.920000	-0.483253
	10.925000	-0.570284
	10.930000	-0.541274
	10.935000	-0.460690
	10.940000	-0.489700
	10.945000	-0.573507
	10.950000	-0.544497
	10.955000	-0.460690
	10.960000	-0.483253
	10.965000	-0.570284
	10.970000	-0.544497
	10.975000	-0.454243
	10.980000	-0.483253
	10.985000	-0.576730
	10.990000	-0.544497
	10.995000	-0.460690
	11.000000	-0.486476
	11.005000	-0.576730
	11.010000	-0.544497
	11.015000	-0.454243
	11.020000	-0.489700
	11.025000	-0.570284
	11.030000	-0.534827
	11.035000	-0.454243
	11.040000	-0.476806
	11.045000	-0.563837
	11.050000	-0.538050
	11.055000	-0.444573
	11.060000	-0.473583
	11.065000	-0.563837
	11.070000	-0.531603
	11.075000	-0.444573
	11.080000	-0.476806
	11.085000	-0.563837
	11.090000	-0.525157
	11.095000	-0.438126
	11.100000	-0.467136
	11.105000	-0.554167
	11.110000	-0.525157
	11.115000	-0.441349
	11.120000	-0.463913
	11.125000	-0.547720
	11.130000	-0.518710
	11.135000	-0.431679
	11.140000	-0.463913
	11.145000	-0.550944
	11.150000	-0.512263
	11.155000	-0.422009
	11.160000	-0.457466
	11.165000	-0.541274
	11.170000	-0.505817
	11.175000	-0.415563
	11.180000	-0.451019
	11.185000	-0.541274
	11.190000	-0.509040
	11.195000	-0.418786
	11.200000	-0.444573
	11.205000	-0.538050
	11.210000	-0.502593
	11.215000	-0.405892
	11.220000	-0.447796
	11.225000	-0.528380
	11.230000	-0.492923
	11.235000	-0.402669
	11.240000	-0.434903
	11.245000	-0.521933
	11.250000	-0.486476
	11.255000	-0.396222
	11.260000	-0.428456
	11.265000	-0.512263
	11.270000	-0.476806
	11.275000	-0.383329
	11.280000	-0.415563
	11.285000	-0.502593
	11.290000	-0.463913
	11.295000	-0.373659
	11.300000	-0.405892
	11.305000	-0.486476
	11.310000	-0.451019
	11.315000	-0.363989
	11.320000	-0.392999
	11.325000	-0.470360
	11.330000	-0.428456
	11.335000	-0.344649
	11.340000	-0.373659
	11.345000	-0.451019
	11.350000	-0.415563
	11.355000	-0.328532
	11.360000	-0.357542
	11.365000	-0.434903
	11.370000	-0.405892
	11.375000	-0.305968
	11.380000	-0.341425
	11.385000	-0.418786
	11.390000	-0.373659
	11.395000	-0.293075
	11.400000	-0.322085
	11.405000	-0.396222
	11.410000	-0.357542
	11.415000	-0.276958
	11.420000	-0.299522
	11.425000	-0.380106
	11.430000	-0.338202
	11.435000	-0.254395
	11.440000	-0.276958
	11.445000	-0.363989
	11.450000	-0.318862
	11.455000	-0.228608
	11.460000	-0.267288
	11.465000	-0.338202
	11.470000	-0.302745
	11.475000	-0.215714
	11.480000	-0.251171
	11.485000	-0.322085
	11.490000	-0.286628
	11.495000	-0.202821
	11.500000	-0.231831
	11.505000	-0.309192
	11.510000	-0.276958
	11.515000	-0.199597
	11.520000	-0.228608
	11.525000	-0.309192
	11.530000	-0.276958
	11.535000	-0.193151
	11.540000	-0.222161
	11.545000	-0.305968
	11.550000	-0.264065
	11.555000	-0.189927
	11.560000	-0.218938
	11.565000	-0.309192
	11.570000	-0.276958
	11.575000	-0.196374
	11.580000	-0.231831
	11.585000	-0.309192
	11.590000	-0.270511
	11.595000	-0.193151
	11.600000	-0.231831
	11.605000	-0.312415
	11.610000	-0.280181
	11.615000	-0.193151
	11.620000	-0.228608
	11.625000	-0.315638
	11.630000	-0.273735
	11.635000	-0.196374
	11.640000	-0.222161
	11.645000	-0.305968
	11.650000	-0.264065
	11.655000	-0.189927
	11.660000	-0.225384
	11.665000	-0.305968
	11.670000	-0.267288
	11.675000	-0.193151
	11.680000	-0.225384
	11.685000	-0.309192
	11.690000	-0.270511
	11.695000	-0.186704
	11.700000	-0.225384
	11.705000	-0.299522
	11.710000	-0.270511
	11.715000	-0.186704
	11.720000	-0.222161
	11.725000	-0.289852
	11.730000	-0.267288
	11.735000	-0.196374
	11.740000	-0.222161
	11.745000	-0.299522
	11.750000	-0.267288
	11.755000	-0.193151
	11.760000	-0.228608
	11.765000	-0.309192
	11.770000	-0.273735
	11.775000	-0.196374
	11.780000	-0.241501
	11.785000	-0.315638
	11.790000	-0.289852
	11.795000	-0.215714
	11.800000	-0.251171
	11.805000	-0.331755
	11.810000	-0.305968
	11.815000	-0.228608
	11.820000	-0.267288
	11.825000	-0.351095
	11.830000	-0.315638
	11.835000	-0.241501
	11.840000	-0.289852
	11.845000	-0.367212
	11.850000	-0.331755
	11.855000	-0.257618
	11.860000	-0.302745
	11.865000	-0.380106
	11.870000	-0.344649
	11.875000	-0.270511
	11.880000	-0.312415
	11.885000	-0.389776
	11.890000	-0.351095
	11.895000	-0.273735
	11.900000	-0.322085
	11.905000	-0.399446
	11.910000	-0.357542
	11.915000	-0.276958
	11.920000	-0.328532
	11.925000	-0.405892
	11.930000	-0.367212
	11.935000	-0.293075
	11.940000	-0.334979
	11.945000	-0.409116
	11.950000	-0.370436
	11.955000	-0.302745
	11.960000	-0.341425
	11.965000	-0.422009
	11.970000	-0.383329
	11.975000	-0.312415
	11.980000	-0.347872
	11.985000	-0.431679
	11.990000	-0.386552
	11.995000	-0.318862
	12.000000	-0.357542
	12.005000	-0.438126
	12.010000	-0.409116
	12.015000	-0.334979
	12.020000	-0.380106
	12.025000	-0.463913
	12.030000	-0.425233
	12.035000	-0.351095
	12.040000	-0.399446
	12.045000	-0.480030
	12.050000	-0.451019
	12.055000	-0.373659
	12.060000	-0.418786
	12.065000	-0.509040
	12.070000	-0.467136
	12.075000	-0.392999
	12.080000	-0.444573
	12.085000	-0.525157
	12.090000	-0.483253
	12.095000	-0.418786
	12.100000	-0.467136
	12.105000	-0.547720
	12.110000	-0.502593
	12.115000	-0.438126
	12.120000	-0.480030
	12.125000	-0.563837
	12.130000	-0.525157
	12.135000	-0.447796
	12.140000	-0.492923
	12.145000	-0.567060
	12.150000	-0.525157
	12.155000	-0.457466
	12.160000	-0.489700
	12.165000	-0.573507
	12.170000	-0.528380
	12.175000	-0.451019
	12.180000	-0.502593
	12.185000	-0.573507
	12.190000	-0.534827
	12.195000	-0.460690
	12.200000	-0.502593
	12.205000	-0.579954
	12.210000	-0.538050
	12.215000	-0.463913
	12.220000	-0.509040
	12.225000	-0.589624
	12.230000	-0.547720
	12.235000	-0.467136
	12.240000	-0.515487
	12.245000	-0.599294
	12.250000	-0.550944
	12.255000	-0.480030
	12.260000	-0.528380
	12.265000	-0.602517
	12.270000	-0.560614
	12.275000	-0.486476
	12.280000	-0.528380
	12.285000	-0.602517
	12.290000	-0.557390
	12.295000	-0.483253
	12.300000	-0.525157
	12.305000	-0.612187
	12.310000	-0.563837
	12.315000	-0.489700
	12.320000	-0.528380
	12.325000	-0.612187
	12.330000	-0.563837
	12.335000	-0.486476
	12.340000	-0.538050
	12.345000	-0.612187
	12.350000	-0.563837
	12.355000	-0.489700
	12.360000	-0.534827
	12.365000	-0.615411
	12.370000	-0.563837
	12.375000	-0.486476
	12.380000	-0.541274
	12.385000	-0.612187
	12.390000	-0.567060
	12.395000	-0.489700
	12.400000	-0.538050
	12.405000	-0.615411
	12.410000	-0.563837
	12.415000	-0.486476
	12.420000	-0.534827
	12.425000	-0.602517
	12.430000	-0.560614
	12.435000	-0.483253
	12.440000	-0.534827
	12.445000	-0.612187
	12.450000	-0.557390
	12.455000	-0.480030
	12.460000	-0.528380
	12.465000	-0.605741
	12.470000	-0.554167
	12.475000	-0.483253
	12.480000	-0.528380
	12.485000	-0.602517
	12.490000	-0.547720
	12.495000	-0.480030
	12.500000	-0.528380
	12.505000	-0.596071
	12.510000	-0.554167
	12.515000	-0.473583
	12.520000	-0.521933
	12.525000	-0.599294
	12.530000	-0.550944
	12.535000	-0.467136
	12.540000	-0.515487
	12.545000	-0.596071
	12.550000	-0.544497
	12.555000	-0.463913
	12.560000	-0.518710
	12.565000	-0.596071
	12.570000	-0.544497
	12.575000	-0.463913
	12.580000	-0.512263
	12.585000	-0.589624
	12.590000	-0.534827
	12.595000	-0.457466
	12.600000	-0.512263
	12.605000	-0.592847
	12.610000	-0.534827
	12.615000	-0.457466
	12.620000	-0.505817
	12.625000	-0.586401
	12.630000	-0.534827
	12.635000	-0.454243
	12.640000	-0.499370
	12.645000	-0.579954
	12.650000	-0.528380
	12.655000	-0.447796
	12.660000	-0.509040
	12.665000	-0.579954
	12.670000	-0.531603
	12.675000	-0.447796
	12.680000	-0.502593
	12.685000	-0.573507
	12.690000	-0.528380
	12.695000	-0.444573
	12.700000	-0.499370
	12.705000	-0.576730
	12.710000	-0.525157
	12.715000	-0.444573
	12.720000	-0.499370
	12.725000	-0.576730
	12.730000	-0.521933
	12.735000	-0.451019
	12.740000	-0.496147
	12.745000	-0.570284
	12.750000	-0.521933
	12.755000	-0.447796
	12.760000	-0.496147
	12.765000	-0.576730
	12.770000	-0.525157
	12.775000	-0.451019
	12.780000	-0.496147
	12.785000	-0.570284
	12.790000	-0.515487
	12.795000	-0.444573
	12.800000	-0.496147
	12.805000	-0.573507
	12.810000	-0.518710
	12.815000	-0.451019
	12.820000	-0.496147
	12.825000	-0.570284
	12.830000	-0.518710
	12.835000	-0.438126
	12.840000	-0.496147
	12.845000	-0.573507
	12.850000	-0.521933
	12.855000	-0.434903
	12.860000	-0.492923
	12.865000	-0.570284
	12.870000	-0.521933
	12.875000	-0.434903
	12.880000	-0.492923
	12.885000	-0.570284
	12.890000	-0.521933
	12.895000	-0.438126
	12.900000	-0.496147
	12.905000	-0.570284
	12.910000	-0.515487
	12.915000	-0.434903
	12.920000	-0.489700
	12.925000	-0.567060
	12.930000	-0.515487
	12.935000	-0.438126
	12.940000	-0.489700
	12.945000	-0.567060
	12.950000	-0.512263
	12.955000	-0.438126
	12.960000	-0.496147
	12.965000	-0.567060
	12.970000	-0.509040
	12.975000	-0.438126
	12.980000	-0.486476
	12.985000	-0.560614
	12.990000	-0.509040
	12.995000	-0.434903
	13.000000	-0.489700
	13.005000	-0.567060
	13.010000	-0.512263
	13.015000	-0.434903
	13.020000	-0.489700
	13.025000	-0.563837
	13.030000	-0.509040
	13.035000	-0.438126
	13.040000	-0.489700
	13.045000	-0.570284
	13.050000	-0.509040
	13.055000	-0.434903
	13.060000	-0.486476
	13.065000	-0.567060
	13.070000	-0.505817
	13.075000	-0.431679
	13.080000	-0.489700
	13.085000	-0.563837
	13.090000	-0.509040
	13.095000	-0.425233
	13.100000	-0.486476
	13.105000	-0.563837
	13.110000	-0.502593
	13.115000	-0.425233
	13.120000	-0.483253
	13.125000	-0.557390
	13.130000	-0.496147
	13.135000	-0.428456
	13.140000	-0.486476
	13.145000	-0.560614
	13.150000	-0.505817
	13.155000	-0.422009
	13.160000	-0.483253
	13.165000	-0.557390
	13.170000	-0.499370
	13.175000	-0.425233
	13.180000	-0.486476
	13.185000	-0.554167
	13.190000	-0.502593
	13.195000	-0.425233
	13.200000	-0.483253
	13.205000	-0.560614
	13.210000	-0.496147
	13.215000	-0.425233
	13.220000	-0.483253
	13.225000	-0.560614
	13.230000	-0.499370
	13.235000	-0.425233
	13.240000	-0.486476
	13.245000	-0.554167
	13.250000	-0.502593
	13.255000	-0.428456
	13.260000	-0.483253
	13.265000	-0.560614
	13.270000	-0.502593
	13.275000	-0.425233
	13.280000	-0.480030
	13.285000	-0.557390
	13.290000	-0.499370
	13.295000	-0.422009
	13.300000	-0.486476
	13.305000	-0.563837
	13.310000	-0.499370
	13.315000	-0.418786
	13.320000	-0.483253
	13.325000	-0.557390
	13.330000	-0.492923
	13.335000	-0.431679
	13.340000	-0.480030
	13.345000	-0.557390
	13.350000	-0.502593
	13.355000	-0.425233
	13.360000	-0.480030
	13.365000	-0.554167
	13.370000	-0.492923
	13.375000	-0.425233
	13.380000	-0.476806
	13.385000	-0.560614
	13.390000	-0.496147
	13.395000	-0.425233
	13.400000	-0.486476
	13.405000	-0.560614
	13.410000	-0.492923
	13.415000	-0.425233
	13.420000	-0.483253
	13.425000	-0.557390
	13.430000	-0.492923
	13.435000	-0.422009
	13.440000	-0.486476
	13.445000	-0.554167
	13.450000	-0.492923
	13.455000	-0.428456
	13.460000	-0.489700
	13.465000	-0.554167
	13.470000	-0.492923
	13.475000	-0.422009
	13.480000	-0.483253
	13.485000	-0.554167
	13.490000	-0.486476
	13.495000	-0.425233
	13.500000	-0.486476
	13.505000	-0.560614
	13.510000	-0.496147
	13.515000	-0.425233
	13.520000	-0.489700
	13.525000	-0.554167
	13.530000	-0.496147
	13.535000	-0.425233
	13.540000	-0.476806
	13.545000	-0.547720
	13.550000	-0.489700
	13.555000	-0.422009
	13.560000	-0.486476
	13.565000	-0.557390
	13.570000	-0.499370
	13.575000	-0.422009
	13.580000	-0.480030
	13.585000	-0.554167
	13.590000	-0.496147
	13.595000	-0.422009
	13.600000	-0.483253
	13.605000	-0.557390
	13.610000	-0.489700
	13.615000	-0.422009
	13.620000	-0.486476
	13.625000	-0.550944
	13.630000	-0.489700
	13.635000	-0.422009
	13.640000	-0.486476
	13.645000	-0.557390
	13.650000	-0.492923
	13.655000	-0.428456
	13.660000	-0.483253
	13.665000	-0.557390
	13.670000	-0.492923
	13.675000	-0.425233
	13.680000	-0.489700
	13.685000	-0.550944
	13.690000	-0.486476
	13.695000	-0.422009
	13.700000	-0.486476
	13.705000	-0.554167
	13.710000	-0.496147
	13.715000	-0.422009
	13.720000	-0.483253
	13.725000	-0.554167
	13.730000	-0.486476
	13.735000	-0.425233
	13.740000	-0.480030
	13.745000	-0.554167
	13.750000	-0.489700
	13.755000	-0.422009
	13.760000	-0.483253
	13.765000	-0.554167
	13.770000	-0.489700
	13.775000	-0.422009
	13.780000	-0.486476
	13.785000	-0.547720
	13.790000	-0.489700
	13.795000	-0.415563
	13.800000	-0.489700
	13.805000	-0.544497
	13.810000	-0.486476
	13.815000	-0.422009
	13.820000	-0.486476
	13.825000	-0.554167
	13.830000	-0.486476
	13.835000	-0.418786
	13.840000	-0.480030
	13.845000	-0.554167
	13.850000	-0.489700
	13.855000	-0.422009
	13.860000	-0.483253
	13.865000	-0.550944
	13.870000	-0.489700
	13.875000	-0.422009
	13.880000	-0.486476
	13.885000	-0.547720
	13.890000	-0.483253
	13.895000	-0.415563
	13.900000	-0.486476
	13.905000	-0.550944
	13.910000	-0.483253
	13.915000	-0.422009
	13.920000	-0.486476
	13.925000	-0.557390
	13.930000	-0.486476
	13.935000	-0.418786
	13.940000	-0.486476
	13.945000	-0.550944
	13.950000	-0.480030
	13.955000	-0.425233
	13.960000	-0.480030
	13.965000	-0.544497
	13.970000	-0.486476
	13.975000	-0.415563
	13.980000	-0.489700
	13.985000	-0.557390
	13.990000	-0.489700
	13.995000	-0.415563
	14.000000	-0.483253
	14.005000	-0.550944
	14.010000	-0.476806
	14.015000	-0.409116
	14.020000	-0.483253
	14.025000	-0.541274
	14.030000	-0.467136
	14.035000	-0.399446
	14.040000	-0.467136
	14.045000	-0.521933
	14.050000	-0.460690
	14.055000	-0.383329
	14.060000	-0.451019
	14.065000	-0.515487
	14.070000	-0.444573
	14.075000	-0.376882
	14.080000	-0.444573
	14.085000	-0.512263
	14.090000	-0.444573
	14.095000	-0.373659
	14.100000	-0.441349
	14.105000	-0.509040
	14.110000	-0.441349
	14.115000	-0.370436
	14.120000	-0.434903
	14.125000	-0.502593
	14.130000	-0.422009
	14.135000	-0.360765
	14.140000	-0.425233
	14.145000	-0.476806
	14.150000	-0.412339
	14.155000	-0.338202
	14.160000	-0.409116
	14.165000	-0.467136
	14.170000	-0.399446
	14.175000	-0.325308
	14.180000	-0.386552
	14.185000	-0.438126
	14.190000	-0.370436
	14.195000	-0.299522
	14.200000	-0.360765
	14.205000	-0.412339
	14.210000	-0.331755
	14.215000	-0.257618
	14.220000	-0.305968
	14.225000	-0.357542
	14.230000	-0.280181
	14.235000	-0.209268
	14.240000	-0.257618
	14.245000	-0.312415
	14.250000	-0.231831
	14.255000	-0.164141
	14.260000	-0.212491
	14.265000	-0.267288
	14.270000	-0.189927
	14.275000	-0.119014
	14.280000	-0.177034
	14.285000	-0.231831
	14.290000	-0.148024
	14.295000	-0.083557
	14.300000	-0.141577
	14.305000	-0.196374
	14.310000	-0.122237
	14.315000	-0.051323
	14.320000	-0.112567
	14.325000	-0.167364
	14.330000	-0.096450
	14.335000	-0.028759
	14.340000	-0.093227
	14.345000	-0.144800
	14.350000	-0.080333
	14.355000	-0.019089
	14.360000	-0.080333
	14.365000	-0.141577
	14.370000	-0.073886
	14.375000	-0.015866
	14.380000	-0.086780
	14.385000	-0.141577
	14.390000	-0.070663
	14.395000	-0.022313
	14.400000	-0.090003
	14.405000	-0.151247
	14.410000	-0.086780
	14.415000	-0.035206
	14.420000	-0.093227
	14.425000	-0.160917
	14.430000	-0.093227
	14.435000	-0.044876
	14.440000	-0.112567
	14.445000	-0.167364
	14.450000	-0.106120
	14.455000	-0.054546
	14.460000	-0.125460
	14.465000	-0.186704
	14.470000	-0.122237
	14.475000	-0.070663
	14.480000	-0.141577
	14.485000	-0.199597
	14.490000	-0.141577
	14.495000	-0.083557
	14.500000	-0.154470
	14.505000	-0.209268
	14.510000	-0.151247
	14.515000	-0.093227
	14.520000	-0.154470
	14.525000	-0.218938
	14.530000	-0.157694
	14.535000	-0.099673
	14.540000	-0.164141
	14.545000	-0.218938
	14.550000	-0.157694
	14.555000	-0.099673
	14.560000	-0.170587
	14.565000	-0.222161
	14.570000	-0.160917
	14.575000	-0.112567
	14.580000	-0.164141
	14.585000	-0.222161
	14.590000	-0.164141
	14.595000	-0.102897
	14.600000	-0.167364
	14.605000	-0.225384
	14.610000	-0.167364
	14.615000	-0.109343
	14.620000	-0.173811
	14.625000	-0.228608
	14.630000	-0.160917
	14.635000	-0.109343
	14.640000	-0.173811
	14.645000	-0.228608
	14.650000	-0.160917
	14.655000	-0.109343
	14.660000	-0.177034
	14.665000	-0.231831
	14.670000	-0.164141
	14.675000	-0.109343
	14.680000	-0.177034
	14.685000	-0.235054
	14.690000	-0.173811
	14.695000	-0.119014
	14.700000	-0.189927
	14.705000	-0.247948
	14.710000	-0.189927
	14.715000	-0.131907
	14.720000	-0.206044
	14.725000	-0.260841
	14.730000	-0.196374
	14.735000	-0.144800
	14.740000	-0.215714
	14.745000	-0.276958
	14.750000	-0.212491
	14.755000	-0.167364
	14.760000	-0.228608
	14.765000	-0.293075
	14.770000	-0.222161
	14.775000	-0.173811
	14.780000	-0.247948
	14.785000	-0.299522
	14.790000	-0.241501
	14.795000	-0.193151
	14.800000	-0.260841
	14.805000	-0.318862
	14.810000	-0.257618
	14.815000	-0.202821
	14.820000	-0.276958
	14.825000	-0.331755
	14.830000	-0.267288
	14.835000	-0.215714
	14.840000	-0.283405
	14.845000	-0.341425
	14.850000	-0.273735
	14.855000	-0.228608
	14.860000	-0.296298
	14.865000	-0.357542
	14.870000	-0.289852
	14.875000	-0.241501
	14.880000	-0.309192
	14.885000	-0.357542
	14.890000	-0.296298
	14.895000	-0.241501
	14.900000	-0.325308
	14.905000	-0.367212
	14.910000	-0.302745
	14.915000	-0.254395
	14.920000	-0.331755
	14.925000	-0.383329
	14.930000	-0.318862
	14.935000	-0.264065
	14.940000	-0.344649
	14.945000	-0.399446
	14.950000	-0.331755
	14.955000	-0.280181
	14.960000	-0.354319
	14.965000	-0.409116
	14.970000	-0.347872
	14.975000	-0.299522
	14.980000	-0.363989
	14.985000	-0.425233
	14.990000	-0.360765
	14.995000	-0.312415
	15.000000	-0.386552
	15.005000	-0.438126
	15.010000	-0.373659
	15.015000	-0.331755
	15.020000	-0.399446
	15.025000	-0.451019
	15.030000	-0.389776
	15.035000	-0.347872
	15.040000	-0.418786
	15.045000	-0.473583
	15.050000	-0.402669
	15.055000	-0.360765
	15.060000	-0.425233
	15.065000	-0.486476
	15.070000	-0.412339
	15.075000	-0.360765
	15.080000	-0.438126
	15.085000	-0.502593
	15.090000	-0.418786
	15.095000	-0.376882
	15.100000	-0.451019
	15.105000	-0.505817
	15.110000	-0.441349
	15.115000	-0.383329
	15.120000	-0.457466
	15.125000	-0.521933
	15.130000	-0.454243
	15.135000	-0.409116
	15.140000	-0.476806
	15.145000	-0.534827
	15.150000	-0.457466
	15.155000	-0.418786
	15.160000	-0.492923
	15.165000	-0.547720
	15.170000	-0.476806
	15.175000	-0.422009
	15.180000	-0.505817
	15.185000	-0.554167
	15.190000	-0.489700
	15.195000	-0.438126
	15.200000	-0.518710
	15.205000	-0.570284
	15.210000	-0.492923
	15.215000	-0.447796
	15.220000	-0.521933
	15.225000	-0.570284
	15.230000	-0.502593
	15.235000	-0.451019
	15.240000	-0.528380
	15.245000	-0.579954
	15.250000	-0.509040
	15.255000	-0.457466
	15.260000	-0.531603
	15.265000	-0.579954
	15.270000	-0.505817
	15.275000	-0.463913
	15.280000	-0.531603
	15.285000	-0.589624
	15.290000	-0.509040
	15.295000	-0.454243
	15.300000	-0.534827
	15.305000	-0.589624
	15.310000	-0.515487
	15.315000	-0.460690
	15.320000	-0.538050
	15.325000	-0.592847
	15.330000	-0.509040
	15.335000	-0.460690
	15.340000	-0.538050
	15.345000	-0.592847
	15.350000	-0.518710
	15.355000	-0.467136
	15.360000	-0.538050
	15.365000	-0.589624
	15.370000	-0.509040
	15.375000	-0.460690
	15.380000	-0.538050
	15.385000	-0.589624
	15.390000	-0.515487
	15.395000	-0.460690
	15.400000	-0.534827
	15.405000	-0.589624
	15.410000	-0.512263
	15.415000	-0.457466
	15.420000	-0.531603
	15.425000	-0.579954
	15.430000	-0.515487
	15.435000	-0.457466
	15.440000	-0.531603
	15.445000	-0.586401
	15.450000	-0.512263
	15.455000	-0.460690
	15.460000	-0.528380
	15.465000	-0.579954
	15.470000	-0.505817
	15.475000	-0.454243
	15.480000	-0.534827
	15.485000	-0.579954
	15.490000	-0.499370
	15.495000	-0.454243
	15.500000	-0.528380
	15.505000	-0.579954
	15.510000	-0.505817
	15.515000	-0.454243
	15.520000	-0.528380
	15.525000	-0.579954
	15.530000	-0.496147
	15.535000	-0.454243
	15.540000	-0.528380
	15.545000	-0.579954
	15.550000	-0.489700
	15.555000	-0.444573
	15.560000	-0.525157
	15.565000	-0.573507
	15.570000	-0.496147
	15.575000	-0.451019
	15.580000	-0.521933
	15.585000	-0.570284
	15.590000	-0.496147
	15.595000	-0.454243
	15.600000	-0.525157
	15.605000	-0.573507
	15.610000	-0.492923
	15.615000	-0.444573
	15.620000	-0.518710
	15.625000	-0.567060
	15.630000	-0.489700
	15.635000	-0.441349
	15.640000	-0.521933
	15.645000	-0.567060
	15.650000	-0.492923
	15.655000	-0.441349
	15.660000	-0.521933
	15.665000	-0.573507
	15.670000	-0.486476
	15.675000	-0.438126
	15.680000	-0.515487
	15.685000	-0.567060
	15.690000	-0.489700
	15.695000	-0.438126
	15.700000	-0.518710
	15.705000	-0.567060
	15.710000	-0.489700
	15.715000	-0.441349
	15.720000	-0.515487
	15.725000	-0.573507
	15.730000	-0.486476
	15.735000	-0.441349
	15.740000	-0.512263
	15.745000	-0.567060
	15.750000	-0.486476
	15.755000	-0.434903
	15.760000	-0.515487
	15.765000	-0.557390
	15.770000	-0.486476
	15.775000	-0.434903
	15.780000	-0.512263
	15.785000	-0.560614
	15.790000	-0.486476
	15.795000	-0.431679
	15.800000	-0.512263
	15.805000	-0.560614
	15.810000	-0.483253
	15.815000	-0.431679
	15.820000	-0.512263
	15.825000	-0.557390
	15.830000	-0.476806
	15.835000	-0.431679
	15.840000	-0.512263
	15.845000	-0.554167
	15.850000	-0.473583
	15.855000	-0.428456
	15.860000	-0.509040
	15.865000	-0.554167
	15.870000	-0.473583
	15.875000	-0.428456
	15.880000	-0.512263
	15.885000	-0.550944
	15.890000	-0.463913
	15.895000	-0.422009
	15.900000	-0.505817
	15.905000	-0.547720
	15.910000	-0.467136
	15.915000	-0.422009
	15.920000	-0.499370
	15.925000	-0.547720
	15.930000	-0.470360
	15.935000	-0.422009
	15.940000	-0.502593
	15.945000	-0.550944
	15.950000	-0.476806
	15.955000	-0.422009
	15.960000	-0.509040
	15.965000	-0.550944
	15.970000	-0.467136
	15.975000	-0.418786
	15.980000	-0.505817
	15.985000	-0.554167
	15.990000	-0.467136
	15.995000	-0.418786
	16.000000	-0.502593
	16.005000	-0.547720
	16.010000	-0.470360
	16.015000	-0.418786
	16.020000	-0.496147
	16.025000	-0.547720
	16.030000	-0.467136
	16.035000	-0.412339
	16.040000	-0.496147
	16.045000	-0.544497
	16.050000	-0.457466
	16.055000	-0.418786
	16.060000	-0.502593
	16.065000	-0.541274
	16.070000	-0.463913
	16.075000	-0.415563
	16.080000	-0.502593
	16.085000	-0.547720
	16.090000	-0.463913
	16.095000	-0.418786
	16.100000	-0.502593
	16.105000	-0.544497
	16.110000	-0.460690
	16.115000	-0.412339
	16.120000	-0.496147
	16.125000	-0.538050
	16.130000	-0.460690
	16.135000	-0.415563
	16.140000	-0.489700
	16.145000	-0.541274
	16.150000	-0.457466
	16.155000	-0.412339
	16.160000	-0.492923
	16.165000	-0.534827
	16.170000	-0.457466
	16.175000	-0.412339
	16.180000	-0.499370
	16.185000	-0.531603
	16.190000	-0.454243
	16.195000	-0.405892
	16.200000	-0.496147
	16.205000	-0.531603
	16.210000	-0.460690
	16.215000	-0.405892
	16.220000	-0.496147
	16.225000	-0.538050
	16.230000	-0.457466
	16.235000	-0.415563
	16.240000	-0.492923
	16.245000	-0.541274
	16.250000	-0.451019
	16.255000	-0.412339
	16.260000	-0.492923
	16.265000	-0.534827
	16.270000	-0.447796
	16.275000	-0.415563
	16.280000	-0.492923
	16.285000	-0.534827
	16.290000	-0.454243
	16.295000	-0.412339
	16.300000	-0.489700
	16.305000	-0.531603
	16.310000	-0.454243
	16.315000	-0.412339
	16.320000	-0.496147
	16.325000	-0.538050
	16.330000	-0.441349
	16.335000	-0.412339
	16.340000	-0.492923
	16.345000	-0.534827
	16.350000	-0.451019
	16.355000	-0.412339
	16.360000	-0.489700
	16.365000	-0.534827
	16.370000	-0.451019
	16.375000	-0.409116
	16.380000	-0.496147
	16.385000	-0.534827
	16.390000	-0.447796
	16.395000	-0.409116
	16.400000	-0.499370
	16.405000	-0.528380
	16.410000	-0.451019
	16.415000	-0.405892
	16.420000	-0.489700
	16.425000	-0.528380
	16.430000	-0.447796
	16.435000	-0.402669
	16.440000	-0.489700
	16.445000	-0.531603
	16.450000	-0.444573
	16.455000	-0.405892
	16.460000	-0.486476
	16.465000	-0.531603
	16.470000	-0.447796
	16.475000	-0.405892
	16.480000	-0.489700
	16.485000	-0.528380
	16.490000	-0.447796
	16.495000	-0.402669
	16.500000	-0.486476
	16.505000	-0.528380
	16.510000	-0.441349
	16.515000	-0.396222
	16.520000	-0.486476
	16.525000	-0.521933
	16.530000	-0.441349
	16.535000	-0.399446
	16.540000	-0.483253
	16.545000	-0.528380
	16.550000	-0.438126
	16.555000	-0.399446
	16.560000	-0.483253
	16.565000	-0.525157
	16.570000	-0.438126
	16.575000	-0.405892
	16.580000	-0.486476
	16.585000	-0.521933
	16.590000	-0.441349
	16.595000	-0.392999
	16.600000	-0.486476
	16.605000	-0.525157
	16.610000	-0.438126
	16.615000	-0.399446
	16.620000	-0.480030
	16.625000	-0.528380
	16.630000	-0.447796
	16.635000	-0.399446
	16.640000	-0.486476
	16.645000	-0.525157
	16.650000	-0.438126
	16.655000	-0.399446
	16.660000	-0.489700
	16.665000	-0.521933
	16.670000	-0.434903
	16.675000	-0.402669
	16.680000	-0.483253
	16.685000	-0.525157
	16.690000	-0.438126
	16.695000	-0.399446
	16.700000	-0.486476
	16.705000	-0.525157
	16.710000	-0.434903
	16.715000	-0.399446
	16.720000	-0.496147
	16.725000	-0.528380
	16.730000	-0.441349
	16.735000	-0.399446
	16.740000	-0.483253
	16.745000	-0.525157
	16.750000	-0.444573
	16.755000	-0.399446
	16.760000	-0.486476
	16.765000	-0.528380
	16.770000	-0.441349
	16.775000	-0.399446
	16.780000	-0.486476
	16.785000	-0.528380
	16.790000	-0.438126
	16.795000	-0.402669
	16.800000	-0.486476
	16.805000	-0.525157
	16.810000	-0.444573
	16.815000	-0.409116
	16.820000	-0.483253
	16.825000	-0.528380
	16.830000	-0.441349
	16.835000	-0.402669
	16.840000	-0.492923
	16.845000	-0.528380
	16.850000	-0.438126
	16.855000	-0.402669
	16.860000	-0.483253
	16.865000	-0.525157
	16.870000	-0.438126
	16.875000	-0.405892
	16.880000	-0.489700
	16.885000	-0.525157
	16.890000	-0.444573
	16.895000	-0.405892
	16.900000	-0.486476
	16.905000	-0.518710
	16.910000	-0.428456
	16.915000	-0.396222
	16.920000	-0.486476
	16.925000	-0.518710
	16.930000	-0.431679
	16.935000	-0.392999
	16.940000	-0.480030
	16.945000	-0.521933
	16.950000	-0.425233
	16.955000	-0.389776
	16.960000	-0.467136
	16.965000	-0.505817
	16.970000	-0.418786
	16.975000	-0.373659
	16.980000	-0.467136
	16.985000	-0.502593
	16.990000	-0.415563
	16.995000	-0.367212
	17.000000	-0.460690
	17.005000	-0.489700
	17.010000	-0.409116
	17.015000	-0.370436
	17.020000	-0.451019
	17.025000	-0.486476
	17.030000	-0.396222
	17.035000	-0.357542
	17.040000	-0.441349
	17.045000	-0.467136
	17.050000	-0.383329
	17.055000	-0.347872
	17.060000	-0.428456
	17.065000	-0.463913
	17.070000	-0.376882
	17.075000	-0.328532
	17.080000	-0.412339
	17.085000	-0.441349
	17.090000	-0.360765
	17.095000	-0.322085
	17.100000	-0.392999
	17.105000	-0.418786
	17.110000	-0.328532
	17.115000	-0.270511
	17.120000	-0.341425
	17.125000	-0.347872
	17.130000	-0.244725
	17.135000	-0.186704
	17.140000	-0.241501
	17.145000	-0.247948
	17.150000	-0.148024
	17.155000	-0.083557
	17.160000	-0.144800
	17.165000	-0.157694
	17.170000	-0.060993
	17.175000	-0.012643
	17.180000	-0.080333
	17.185000	-0.106120
	17.190000	-0.012643
	17.195000	0.029261
	17.200000	-0.051323
	17.205000	-0.083557
	17.210000	-0.002973
	17.215000	0.035708
	17.220000	-0.038430
	17.225000	-0.073886
	17.230000	0.003474
	17.235000	0.035708
	17.240000	-0.048100
	17.245000	-0.077110
	17.250000	0.000251
	17.255000	0.032484
	17.260000	-0.048100
	17.265000	-0.083557
	17.270000	-0.009419
	17.275000	0.022814
	17.280000	-0.057770
	17.285000	-0.090003
	17.290000	-0.012643
	17.295000	0.013144
	17.300000	-0.067440
	17.305000	-0.096450
	17.310000	-0.019089
	17.315000	0.003474
	17.320000	-0.077110
	17.325000	-0.112567
	17.330000	-0.035206
	17.335000	-0.009419
	17.340000	-0.086780
	17.345000	-0.128684
	17.350000	-0.044876
	17.355000	-0.019089
	17.360000	-0.106120
	17.365000	-0.144800
	17.370000	-0.054546
	17.375000	-0.028759
	17.380000	-0.112567
	17.385000	-0.141577
	17.390000	-0.070663
	17.395000	-0.041653
	17.400000	-0.128684
	17.405000	-0.154470
	17.410000	-0.080333
	17.415000	-0.044876
	17.420000	-0.135130
	17.425000	-0.167364
	17.430000	-0.090003
	17.435000	-0.064216
	17.440000	-0.138354
	17.445000	-0.167364
	17.450000	-0.090003
	17.455000	-0.064216
	17.460000	-0.148024
	17.465000	-0.173811
	17.470000	-0.093227
	17.475000	-0.064216
	17.480000	-0.138354
	17.485000	-0.180257
	17.490000	-0.093227
	17.495000	-0.067440
	17.500000	-0.151247
	17.505000	-0.177034
	17.510000	-0.096450
	17.515000	-0.067440
	17.520000	-0.148024
	17.525000	-0.180257
	17.530000	-0.102897
	17.535000	-0.073886
	17.540000	-0.157694
	17.545000	-0.193151
	17.550000	-0.102897
	17.555000	-0.070663
	17.560000	-0.157694
	17.565000	-0.186704
	17.570000	-0.106120
	17.575000	-0.073886
	17.580000	-0.154470
	17.585000	-0.196374
	17.590000	-0.102897
	17.595000	-0.073886
	17.600000	-0.154470
	17.605000	-0.193151
	17.610000	-0.106120
	17.615000	-0.070663
	17.620000	-0.151247
	17.625000	-0.170587
	17.630000	-0.096450
	17.635000	-0.067440
	17.640000	-0.151247
	17.645000	-0.177034
	17.650000	-0.096450
	17.655000	-0.060993
	17.660000	-0.141577
	17.665000	-0.167364
	17.670000	-0.083557
	17.675000	-0.051323
	17.680000	-0.138354
	17.685000	-0.160917
	17.690000	-0.073886
	17.695000	-0.051323
	17.700000	-0.125460
	17.705000	-0.157694
	17.710000	-0.070663
	17.715000	-0.041653
	17.720000	-0.125460
	17.725000	-0.151247
	17.730000	-0.073886
	17.735000	-0.038430
	17.740000	-0.122237
	17.745000	-0.141577
	17.750000	-0.064216
	17.755000	-0.031983
	17.760000	-0.112567
	17.765000	-0.138354
	17.770000	-0.060993
	17.775000	-0.031983
	17.780000	-0.106120
	17.785000	-0.138354
	17.790000	-0.054546
	17.795000	-0.025536
	17.800000	-0.102897
	17.805000	-0.141577
	17.810000	-0.060993
	17.815000	-0.025536
	17.820000	-0.115790
	17.825000	-0.144800
	17.830000	-0.064216
	17.835000	-0.044876
	17.840000	-0.125460
	17.845000	-0.154470
	17.850000	-0.073886
	17.855000	-0.054546
	17.860000	-0.141577
	17.865000	-0.173811
	17.870000	-0.090003
	17.875000	-0.077110
	17.880000	-0.164141
	17.885000	-0.193151
	17.890000	-0.119014
	17.895000	-0.096450
	17.900000	-0.186704
	17.905000	-0.218938
	17.910000	-0.144800
	17.915000	-0.119014
	17.920000	-0.209268
	17.925000	-0.238278
	17.930000	-0.177034
	17.935000	-0.157694
	17.940000	-0.244725
	17.945000	-0.273735
	17.950000	-0.202821
	17.955000	-0.186704
	17.960000	-0.267288
	17.965000	-0.302745
	17.970000	-0.231831
	17.975000	-0.215714
	17.980000	-0.309192
	17.985000	-0.344649
	17.990000	-0.270511
	17.995000	-0.244725
	18.000000	-0.334979
	18.005000	-0.360765
	18.010000	-0.289852
	18.015000	-0.273735
	18.020000	-0.354319
	18.025000	-0.386552
	18.030000	-0.309192
	18.035000	-0.293075
	18.040000	-0.380106
	18.045000	-0.402669
	18.050000	-0.325308
	18.055000	-0.299522
	18.060000	-0.389776
	18.065000	-0.418786
	18.070000	-0.338202
	18.075000	-0.312415
	18.080000	-0.396222
	18.085000	-0.425233
	18.090000	-0.351095
	18.095000	-0.322085
	18.100000	-0.409116
	18.105000	-0.438126
	18.110000	-0.357542
	18.115000	-0.338202
	18.120000	-0.422009
	18.125000	-0.454243
	18.130000	-0.373659
	18.135000	-0.351095
	18.140000	-0.438126
	18.145000	-0.473583
	18.150000	-0.389776
	18.155000	-0.360765
	18.160000	-0.447796
	18.165000	-0.483253
	18.170000	-0.399446
	18.175000	-0.373659
	18.180000	-0.467136
	18.185000	-0.492923
	18.190000	-0.412339
	18.195000	-0.389776
	18.200000	-0.467136
	18.205000	-0.499370
	18.210000	-0.418786
	18.215000	-0.396222
	18.220000	-0.483253
	18.225000	-0.509040
	18.230000	-0.428456
	18.235000	-0.405892
	18.240000	-0.492923
	18.245000	-0.521933
	18.250000	-0.438126
	18.255000	-0.422009
	18.260000	-0.505817
	18.265000	-0.534827
	18.270000	-0.451019
	18.275000	-0.431679
	18.280000	-0.521933
	18.285000	-0.547720
	18.290000	-0.463913
	18.295000	-0.431679
	18.300000	-0.525157
	18.305000	-0.557390
	18.310000	-0.467136
	18.315000	-0.441349
	18.320000	-0.531603
	18.325000	-0.554167
	18.330000	-0.470360
	18.335000	-0.441349
	18.340000	-0.531603
	18.345000	-0.557390
	18.350000	-0.473583
	18.355000	-0.451019
	18.360000	-0.531603
	18.365000	-0.554167
	18.370000	-0.476806
	18.375000	-0.441349
	18.380000	-0.531603
	18.385000	-0.567060
	18.390000	-0.473583
	18.395000	-0.451019
	18.400000	-0.541274
	18.405000	-0.560614
	18.410000	-0.483253
	18.415000	-0.447796
	18.420000	-0.544497
	18.425000	-0.567060
	18.430000	-0.480030
	18.435000	-0.454243
	18.440000	-0.538050
	18.445000	-0.567060
	18.450000	-0.480030
	18.455000	-0.447796
	18.460000	-0.534827
	18.465000	-0.560614
	18.470000	-0.476806
	18.475000	-0.447796
	18.480000	-0.541274
	18.485000	-0.567060
	18.490000	-0.473583
	18.495000	-0.451019
	18.500000	-0.534827
	18.505000	-0.567060
	18.510000	-0.476806
	18.515000	-0.447796
	18.520000	-0.538050
	18.525000	-0.560614
	18.530000	-0.470360
	18.535000	-0.441349
	18.540000	-0.528380
	18.545000	-0.563837
	18.550000	-0.470360
	18.555000	-0.441349
	18.560000	-0.534827
	18.565000	-0.554167
	18.570000	-0.467136
	18.575000	-0.438126
	18.580000	-0.525157
	18.585000	-0.550944
	18.590000	-0.457466
	18.595000	-0.431679
	18.600000	-0.525157
	18.605000	-0.550944
	18.610000	-0.457466
	18.615000	-0.431679
	18.620000	-0.518710
	18.625000	-0.547720
	18.630000	-0.451019
	18.635000	-0.422009
	18.640000	-0.521933
	18.645000	-0.541274
	18.650000	-0.454243
	18.655000	-0.425233
	18.660000	-0.515487
	18.665000	-0.538050
	18.670000	-0.451019
	18.675000	-0.428456
	18.680000	-0.515487
	18.685000	-0.538050
	18.690000	-0.447796
	18.695000	-0.422009
	18.700000	-0.512263
	18.705000	-0.541274
	18.710000	-0.454243
	18.715000	-0.422009
	18.720000	-0.515487
	18.725000	-0.541274
	18.730000	-0.444573
	18.735000	-0.418786
	18.740000	-0.509040
	18.745000	-0.534827
	18.750000	-0.447796
	18.755000	-0.418786
	18.760000	-0.509040
	18.765000	-0.531603
	18.770000	-0.441349
	18.775000	-0.418786
	18.780000	-0.509040
	18.785000	-0.534827
	18.790000	-0.434903
	18.795000	-0.412339
	18.800000	-0.509040
	18.805000	-0.525157
	18.810000	-0.431679
	18.815000	-0.415563
	18.820000	-0.499370
	18.825000	-0.528380
	18.830000	-0.431679
	18.835000	-0.412339
	18.840000	-0.499370
	18.845000	-0.521933
	18.850000	-0.431679
	18.855000	-0.412339
	18.860000	-0.502593
	18.865000	-0.518710
	18.870000	-0.431679
	18.875000	-0.409116
	18.880000	-0.489700
	18.885000	-0.518710
	18.890000	-0.425233
	18.895000	-0.402669
	18.900000	-0.502593
	18.905000	-0.521933
	18.910000	-0.431679
	18.915000	-0.409116
	18.920000	-0.499370
	18.925000	-0.521933
	18.930000	-0.425233
	18.935000	-0.409116
	18.940000	-0.499370
	18.945000	-0.521933
	18.950000	-0.425233
	18.955000	-0.405892
	18.960000	-0.496147
	18.965000	-0.515487
	18.970000	-0.425233
	18.975000	-0.409116
	18.980000	-0.499370
	18.985000	-0.521933
	18.990000	-0.425233
	18.995000	-0.396222
	19.000000	-0.492923
	19.005000	-0.515487
	19.010000	-0.425233
	19.015000	-0.402669
	19.020000	-0.489700
	19.025000	-0.512263
	19.030000	-0.425233
	19.035000	-0.402669
	19.040000	-0.489700
	19.045000	-0.512263
	19.050000	-0.422009
	19.055000	-0.399446
	19.060000	-0.489700
	19.065000	-0.512263
	19.070000	-0.418786
	19.075000	-0.399446
	19.080000	-0.486476
	19.085000	-0.512263
	19.090000	-0.422009
	19.095000	-0.396222
	19.100000	-0.492923
	19.105000	-0.509040
	19.110000	-0.422009
	19.115000	-0.402669
	19.120000	-0.492923
	19.125000	-0.505817
	19.130000	-0.418786
	19.135000	-0.399446
	19.140000	-0.486476
	19.145000	-0.515487
	19.150000	-0.418786
	19.155000	-0.396222
	19.160000	-0.489700
	19.165000	-0.505817
	19.170000	-0.415563
	19.175000	-0.392999
	19.180000	-0.483253
	19.185000	-0.509040
	19.190000	-0.415563
	19.195000	-0.399446
	19.200000	-0.489700
	19.205000	-0.509040
	19.210000	-0.415563
	19.215000	-0.392999
	19.220000	-0.483253
	19.225000	-0.502593
	19.230000	-0.418786
	19.235000	-0.396222
	19.240000	-0.486476
	19.245000	-0.505817
	19.250000	-0.418786
	19.255000	-0.399446
	19.260000	-0.492923
	19.265000	-0.505817
	19.270000	-0.415563
	19.275000	-0.399446
	19.280000	-0.486476
	19.285000	-0.505817
	19.290000	-0.415563
	19.295000	-0.386552
	19.300000	-0.483253
	19.305000	-0.505817
	19.310000	-0.412339
	19.315000	-0.389776
	19.320000	-0.480030
	19.325000	-0.502593
	19.330000	-0.412339
	19.335000	-0.392999
	19.340000	-0.486476
	19.345000	-0.502593
	19.350000	-0.412339
	19.355000	-0.396222
	19.360000	-0.483253
	19.365000	-0.499370
	19.370000	-0.402669
	19.375000	-0.392999
	19.380000	-0.483253
	19.385000	-0.496147
	19.390000	-0.405892
	19.395000	-0.386552
	19.400000	-0.480030
	19.405000	-0.499370
	19.410000	-0.409116
	19.415000	-0.389776
	19.420000	-0.480030
	19.425000	-0.496147
	19.430000	-0.405892
	19.435000	-0.383329
	19.440000	-0.486476
	19.445000	-0.499370
	19.450000	-0.412339
	19.455000	-0.380106
	19.460000	-0.480030
	19.465000	-0.499370
	19.470000	-0.409116
	19.475000	-0.389776
	19.480000	-0.480030
	19.485000	-0.499370
	19.490000	-0.409116
	19.495000	-0.389776
	19.500000	-0.476806
	19.505000	-0.496147
	19.510000	-0.409116
	19.515000	-0.380106
	19.520000	-0.480030
	19.525000	-0.496147
	19.530000	-0.409116
	19.535000	-0.383329
	19.540000	-0.483253
	19.545000	-0.499370
	19.550000	-0.399446
	19.555000	-0.383329
	19.560000	-0.473583
	19.565000	-0.496147
	19.570000	-0.399446
	19.575000	-0.386552
	19.580000	-0.473583
	19.585000	-0.492923
	19.590000	-0.405892
	19.595000	-0.383329
	19.600000	-0.476806
	19.605000	-0.492923
	19.610000	-0.405892
	19.615000	-0.383329
	19.620000	-0.473583
	19.625000	-0.496147
	19.630000	-0.399446
	19.635000	-0.386552
	19.640000	-0.476806
	19.645000	-0.492923
	19.650000	-0.402669
	19.655000	-0.386552
	19.660000	-0.476806
	19.665000	-0.492923
	19.670000	-0.399446
	19.675000	-0.386552
	19.680000	-0.476806
	19.685000	-0.496147
	19.690000	-0.396222
	19.695000	-0.383329
	19.700000	-0.473583
	19.705000	-0.486476
	19.710000	-0.396222
	19.715000	-0.383329
	19.720000	-0.467136
	19.725000	-0.489700
	19.730000	-0.392999
	19.735000	-0.376882
	19.740000	-0.473583
	19.745000	-0.492923
	19.750000	-0.399446
	19.755000	-0.383329
	19.760000	-0.473583
	19.765000	-0.486476
	19.770000	-0.399446
	19.775000	-0.380106
	19.780000	-0.467136
	19.785000	-0.489700
	19.790000	-0.389776
	19.795000	-0.370436
	19.800000	-0.463913
	19.805000	-0.476806
	19.810000	-0.386552
	19.815000	-0.363989
	19.820000	-0.454243
	19.825000	-0.463913
	19.830000	-0.376882
	19.835000	-0.360765
	19.840000	-0.444573
	19.845000	-0.457466
	19.850000	-0.360765
	19.855000	-0.344649
	19.860000	-0.431679
	19.865000	-0.447796
	19.870000	-0.347872
	19.875000	-0.325308
	19.880000	-0.418786
	19.885000	-0.425233
	19.890000	-0.338202
	19.895000	-0.305968
	19.900000	-0.399446
	19.905000	-0.412339
	19.910000	-0.315638
	19.915000	-0.305968
	19.920000	-0.389776
	19.925000	-0.409116
	19.930000	-0.312415
	19.935000	-0.293075
	19.940000	-0.386552
	19.945000	-0.399446
	19.950000	-0.299522
	19.955000	-0.293075
	19.960000	-0.383329
	19.965000	-0.392999
	19.970000	-0.305968
	19.975000	-0.289852
	19.980000	-0.373659
	19.985000	-0.386552
	19.990000	-0.296298
	19.995000	-0.276958
	20.000000	-0.367212
	20.005000	-0.383329
	20.010000	-0.289852
	20.015000	-0.270511
	20.020000	-0.360765
	20.025000	-0.370436
	20.030000	-0.280181
	20.035000	-0.251171
	20.040000	-0.338202
	20.045000	-0.357542
	20.050000	-0.254395
	20.055000	-0.238278
	20.060000	-0.322085
	20.065000	-0.331755
	20.070000	-0.238278
	20.075000	-0.209268
	20.080000	-0.293075
	20.085000	-0.296298
	20.090000	-0.196374
	20.095000	-0.170587
	20.100000	-0.251171
	20.105000	-0.251171
	20.110000	-0.151247
	20.115000	-0.135130
	20.120000	-0.209268
	20.125000	-0.212491
	20.130000	-0.128684
	20.135000	-0.093227
	20.140000	-0.177034
	20.145000	-0.186704
	20.150000	-0.093227
	20.155000	-0.070663
	20.160000	-0.148024
	20.165000	-0.154470
	20.170000	-0.064216
	20.175000	-0.048100
	20.180000	-0.125460
	20.185000	-0.141577
	20.190000	-0.051323
	20.195000	-0.035206
	20.200000	-0.112567
	20.205000	-0.125460
	20.210000	-0.041653
	20.215000	-0.019089
	20.220000	-0.106120
	20.225000	-0.112567
	20.230000	-0.022313
	20.235000	-0.009419
	20.240000	-0.093227
	20.245000	-0.106120
	20.250000	-0.012643
	20.255000	0.000251
	20.260000	-0.096450
	20.265000	-0.106120
	20.270000	-0.025536
	20.275000	-0.012643
	20.280000	-0.096450
	20.285000	-0.119014
	20.290000	-0.041653
	20.295000	-0.022313
	20.300000	-0.115790
	20.305000	-0.131907
	20.310000	-0.051323
	20.315000	-0.038430
	20.320000	-0.138354
	20.325000	-0.151247
	20.330000	-0.073886
	20.335000	-0.067440
	20.340000	-0.160917
	20.345000	-0.180257
	20.350000	-0.096450
	20.355000	-0.083557
	20.360000	-0.180257
	20.365000	-0.193151
	20.370000	-0.112567
	20.375000	-0.102897
	20.380000	-0.196374
	20.385000	-0.209268
	20.390000	-0.128684
	20.395000	-0.109343
	20.400000	-0.209268
	20.405000	-0.218938
	20.410000	-0.135130
	20.415000	-0.122237
	20.420000	-0.209268
	20.425000	-0.225384
	20.430000	-0.144800
	20.435000	-0.135130
	20.440000	-0.215714
	20.445000	-0.231831
	20.450000	-0.144800
	20.455000	-0.135130
	20.460000	-0.225384
	20.465000	-0.241501
	20.470000	-0.154470
	20.475000	-0.131907
	20.480000	-0.228608
	20.485000	-0.247948
	20.490000	-0.164141
	20.495000	-0.154470
	20.500000	-0.254395
	20.505000	-0.257618
	20.510000	-0.177034
	20.515000	-0.167364
	20.520000	-0.264065
	20.525000	-0.273735
	20.530000	-0.189927
	20.535000	-0.183481
	20.540000	-0.276958
	20.545000	-0.293075
	20.550000	-0.202821
	20.555000	-0.196374
	20.560000	-0.283405
	20.565000	-0.305968
	20.570000	-0.218938
	20.575000	-0.209268
	20.580000	-0.293075
	20.585000	-0.318862
	20.590000	-0.222161
	20.595000	-0.212491
	20.600000	-0.305968
	20.605000	-0.315638
	20.610000	-0.231831
	20.615000	-0.212491
	20.620000	-0.309192
	20.625000	-0.322085
	20.630000	-0.241501
	20.635000	-0.225384
	20.640000	-0.309192
	20.645000	-0.322085
	20.650000	-0.241501
	20.655000	-0.231831
	20.660000	-0.318862
	20.665000	-0.328532
	20.670000	-0.244725
	20.675000	-0.238278
	20.680000	-0.328532
	20.685000	-0.338202
	20.690000	-0.257618
	20.695000	-0.244725
	20.700000	-0.338202
	20.705000	-0.347872
	20.710000	-0.267288
	20.715000	-0.254395
	20.720000	-0.341425
	20.725000	-0.360765
	20.730000	-0.270511
	20.735000	-0.260841
	20.740000	-0.351095
	20.745000	-0.363989
	20.750000	-0.273735
	20.755000	-0.267288
	20.760000	-0.360765
	20.765000	-0.367212
	20.770000	-0.280181
	20.775000	-0.270511
	20.780000	-0.354319
	20.785000	-0.380106
	20.790000	-0.293075
	20.795000	-0.276958
	20.800000	-0.367212
	20.805000	-0.386552
	20.810000	-0.302745
	20.815000	-0.286628
	20.820000	-0.383329
	20.825000	-0.396222
	20.830000	-0.315638
	20.835000	-0.293075
	20.840000	-0.389776
	20.845000	-0.412339
	20.850000	-0.322085
	20.855000	-0.312415
	20.860000	-0.402669
	20.865000	-0.425233
	20.870000	-0.338202
	20.875000	-0.331755
	20.880000	-0.428456
	20.885000	-0.441349
	20.890000	-0.357542
	20.895000	-0.344649
	20.900000	-0.438126
	20.905000	-0.460690
	20.910000	-0.370436
	20.915000	-0.360765
	20.920000	-0.454243
	20.925000	-0.460690
	20.930000	-0.376882
	20.935000	-0.370436
	20.940000	-0.457466
	20.945000	-0.470360
	20.950000	-0.386552
	20.955000	-0.380106
	20.960000	-0.467136
	20.965000	-0.489700
	20.970000	-0.396222
	20.975000	-0.383329
	20.980000	-0.480030
	20.985000	-0.486476
	20.990000	-0.405892
	20.995000	-0.392999
	21.000000	-0.476806
	21.005000	-0.489700
	21.010000	-0.405892
	21.015000	-0.386552
	21.020000	-0.486476
	21.025000	-0.499370
	21.030000	-0.402669
	21.035000	-0.396222
	21.040000	-0.489700
	21.045000	-0.502593
	21.050000	-0.415563
	21.055000	-0.402669
	21.060000	-0.486476
	21.065000	-0.499370
	21.070000	-0.412339
	21.075000	-0.396222
	21.080000	-0.489700
	21.085000	-0.499370
	21.090000	-0.412339
	21.095000	-0.402669
	21.100000	-0.489700
	21.105000	-0.505817
	21.110000	-0.405892
	21.115000	-0.396222
	21.120000	-0.492923
	21.125000	-0.499370
	21.130000	-0.412339
	21.135000	-0.396222
	21.140000	-0.486476
	21.145000	-0.492923
	21.150000	-0.405892
	21.155000	-0.396222
	21.160000	-0.486476
	21.165000	-0.496147
	21.170000	-0.405892
	21.175000	-0.396222
	21.180000	-0.486476
	21.185000	-0.492923
	21.190000	-0.402669
	21.195000	-0.389776
	21.200000	-0.486476
	21.205000	-0.489700
	21.210000	-0.405892
	21.215000	-0.392999
	21.220000	-0.483253
	21.225000	-0.486476
	21.230000	-0.399446
	21.235000	-0.380106
	21.240000	-0.486476
	21.245000	-0.492923
	21.250000	-0.399446
	21.255000	-0.389776
	21.260000	-0.483253
	21.265000	-0.492923
	21.270000	-0.396222
	21.275000	-0.386552
	21.280000	-0.480030
	21.285000	-0.486476
	21.290000	-0.396222
	21.295000	-0.389776
	21.300000	-0.476806
	21.305000	-0.486476
	21.310000	-0.396222
	21.315000	-0.386552
	21.320000	-0.473583
	21.325000	-0.476806
	21.330000	-0.399446
	21.335000	-0.380106
	21.340000	-0.470360
	21.345000	-0.480030
	21.350000	-0.389776
	21.355000	-0.376882
	21.360000	-0.470360
	21.365000	-0.480030
	21.370000	-0.383329
	21.375000	-0.373659
	21.380000	-0.476806
	21.385000	-0.480030
	21.390000	-0.386552
	21.395000	-0.373659
	21.400000	-0.467136
	21.405000	-0.483253
	21.410000	-0.389776
	21.415000	-0.380106
	21.420000	-0.460690
	21.425000	-0.476806
	21.430000	-0.389776
	21.435000	-0.373659
	21.440000	-0.463913
	21.445000	-0.480030
	21.450000	-0.383329
	21.455000	-0.373659
	21.460000	-0.460690
	21.465000	-0.476806
	21.470000	-0.373659
	21.475000	-0.367212
	21.480000	-0.463913
	21.485000	-0.476806
	21.490000	-0.383329
	21.495000	-0.370436
	21.500000	-0.460690
	21.505000	-0.473583
	21.510000	-0.380106
	21.515000	-0.367212
	21.520000	-0.463913
	21.525000	-0.467136
	21.530000	-0.380106
	21.535000	-0.367212
	21.540000	-0.460690
	21.545000	-0.467136
	21.550000	-0.376882
	21.555000	-0.367212
	21.560000	-0.457466
	21.565000	-0.470360
	21.570000	-0.376882
	21.575000	-0.370436
	21.580000	-0.457466
	21.585000	-0.463913
	21.590000	-0.373659
	21.595000	-0.360765
	21.600000	-0.460690
	21.605000	-0.470360
	21.610000	-0.373659
	21.615000	-0.367212
	21.620000	-0.454243
	21.625000	-0.460690
	21.630000	-0.370436
	21.635000	-0.360765
	21.640000	-0.451019
	21.645000	-0.470360
	21.650000	-0.370436
	21.655000	-0.360765
	21.660000	-0.454243
	21.665000	-0.467136
	21.670000	-0.373659
	21.675000	-0.363989
	21.680000	-0.451019
	21.685000	-0.467136
	21.690000	-0.373659
	21.695000	-0.357542
	21.700000	-0.454243
	21.705000	-0.460690
	21.710000	-0.367212
	21.715000	-0.357542
	21.720000	-0.451019
	21.725000	-0.457466
	21.730000	-0.370436
	21.735000	-0.360765
	21.740000	-0.444573
	21.745000	-0.460690
	21.750000	-0.370436
	21.755000	-0.357542
	21.760000	-0.447796
	21.765000	-0.457466
	21.770000	-0.373659
	21.775000	-0.357542
	21.780000	-0.451019
	21.785000	-0.460690
	21.790000	-0.370436
	21.795000	-0.351095
	21.800000	-0.447796
	21.805000	-0.460690
	21.810000	-0.370436
	21.815000	-0.354319
	21.820000	-0.451019
	21.825000	-0.460690
	21.830000	-0.367212
	21.835000	-0.354319
	21.840000	-0.447796
	21.845000	-0.460690
	21.850000	-0.367212
	21.855000	-0.351095
	21.860000	-0.451019
	21.865000	-0.460690
	21.870000	-0.363989
	21.875000	-0.354319
	21.880000	-0.447796
	21.885000	-0.463913
	21.890000	-0.360765
	21.895000	-0.357542
	21.900000	-0.447796
	21.905000	-0.460690
	21.910000	-0.367212
	21.915000	-0.354319
	21.920000	-0.441349
	21.925000	-0.457466
	21.930000	-0.363989
	21.935000	-0.360765
	21.940000	-0.444573
	21.945000	-0.454243
	21.950000	-0.367212
	21.955000	-0.360765
	21.960000	-0.444573
	21.965000	-0.451019
	21.970000	-0.360765
	21.975000	-0.351095
	21.980000	-0.447796
	21.985000	-0.451019
	21.990000	-0.363989
	21.995000	-0.351095
	22.000000	-0.441349
	22.005000	-0.451019
	22.010000	-0.360765
	22.015000	-0.344649
	22.020000	-0.444573
	22.025000	-0.451019
	22.030000	-0.367212
	22.035000	-0.351095
	22.040000	-0.434903
	22.045000	-0.451019
	22.050000	-0.357542
	22.055000	-0.354319
	22.060000	-0.444573
	22.065000	-0.447796
	22.070000	-0.360765
	22.075000	-0.344649
	22.080000	-0.444573
	22.085000	-0.451019
	22.090000	-0.360765
	22.095000	-0.344649
	22.100000	-0.444573
	22.105000	-0.447796
	22.110000	-0.360765
	22.115000	-0.341425
	22.120000	-0.441349
	22.125000	-0.444573
	22.130000	-0.354319
	22.135000	-0.347872
	22.140000	-0.434903
	22.145000	-0.454243
	22.150000	-0.354319
	22.155000	-0.347872
	22.160000	-0.431679
	22.165000	-0.451019
	22.170000	-0.357542
	22.175000	-0.344649
	22.180000	-0.431679
	22.185000	-0.444573
	22.190000	-0.363989
	22.195000	-0.344649
	22.200000	-0.434903
	22.205000	-0.444573
	22.210000	-0.354319
	22.215000	-0.341425
	22.220000	-0.434903
	22.225000	-0.441349
	22.230000	-0.360765
	22.235000	-0.351095
	22.240000	-0.434903
	22.245000	-0.451019
	22.250000	-0.354319
	22.255000	-0.344649
	22.260000	-0.434903
	22.265000	-0.444573
	22.270000	-0.351095
	22.275000	-0.344649
	22.280000	-0.438126
	22.285000	-0.447796
	22.290000	-0.357542
	22.295000	-0.344649
	22.300000	-0.428456
	22.305000	-0.444573
	22.310000	-0.363989
	22.315000	-0.351095
	22.320000	-0.431679
	22.325000	-0.441349
	22.330000	-0.357542
	22.335000	-0.344649
	22.340000	-0.431679
	22.345000	-0.444573
	22.350000	-0.360765
	22.355000	-0.347872
	22.360000	-0.434903
	22.365000	-0.454243
	22.370000	-0.354319
	22.375000	-0.338202
	22.380000	-0.441349
	22.385000	-0.447796
	22.390000	-0.357542
	22.395000	-0.341425
	22.400000	-0.431679
	22.405000	-0.444573
	22.410000	-0.351095
	22.415000	-0.344649
	22.420000	-0.431679
	22.425000	-0.441349
	22.430000	-0.360765
	22.435000	-0.347872
	22.440000	-0.434903
	22.445000	-0.451019
	22.450000	-0.357542
	22.455000	-0.344649
	22.460000	-0.441349
	22.465000	-0.451019
	22.470000	-0.357542
	22.475000	-0.341425
	22.480000	-0.441349
	22.485000	-0.451019
	22.490000	-0.357542
	22.495000	-0.344649
	22.500000	-0.438126
	22.505000	-0.447796
	22.510000	-0.360765
	22.515000	-0.341425
	22.520000	-0.431679
	22.525000	-0.447796
	22.530000	-0.357542
	22.535000	-0.338202
	22.540000	-0.428456
	22.545000	-0.451019
	22.550000	-0.351095
	22.555000	-0.341425
	22.560000	-0.434903
	22.565000	-0.444573
	22.570000	-0.357542
	22.575000	-0.344649
	22.580000	-0.434903
	22.585000	-0.441349
	22.590000	-0.360765
	22.595000	-0.344649
	22.600000	-0.434903
	22.605000	-0.447796
	22.610000	-0.354319
	22.615000	-0.341425
	22.620000	-0.441349
	22.625000	-0.454243
	22.630000	-0.363989
	22.635000	-0.351095
	22.640000	-0.438126
	22.645000	-0.447796
	22.650000	-0.360765
	22.655000	-0.351095
	22.660000	-0.441349
	22.665000	-0.451019
	22.670000	-0.360765
	22.675000	-0.354319
	22.680000	-0.444573
	22.685000	-0.454243
	22.690000	-0.363989
	22.695000	-0.351095
	22.700000	-0.441349
	22.705000	-0.447796
	22.710000	-0.360765
	22.715000	-0.357542
	22.720000	-0.441349
	22.725000	-0.457466
	22.730000	-0.360765
	22.735000	-0.354319
	22.740000	-0.444573
	22.745000	-0.457466
	22.750000	-0.367212
	22.755000	-0.354319
	22.760000	-0.447796
	22.765000	-0.454243
	22.770000	-0.360765
	22.775000	-0.351095
	22.780000	-0.441349
	22.785000	-0.454243
	22.790000	-0.357542
	22.795000	-0.347872
	22.800000	-0.438126
	22.805000	-0.447796
	22.810000	-0.354319
	22.815000	-0.351095
	22.820000	-0.441349
	22.825000	-0.451019
	22.830000	-0.357542
	22.835000	-0.347872
	22.840000	-0.438126
	22.845000	-0.447796
	22.850000	-0.357542
	22.855000	-0.354319
	22.860000	-0.438126
	22.865000	-0.451019
	22.870000	-0.357542
	22.875000	-0.347872
	22.880000	-0.444573
	22.885000	-0.454243
	22.890000	-0.360765
	22.895000	-0.347872
	22.900000	-0.441349
	22.905000	-0.454243
	22.910000	-0.363989
	22.915000	-0.351095
	22.920000	-0.441349
	22.925000	-0.454243
	22.930000	-0.351095
	22.935000	-0.344649
	22.940000	-0.431679
	22.945000	-0.447796
	22.950000	-0.351095
	22.955000	-0.331755
	22.960000	-0.425233
	22.965000	-0.428456
	22.970000	-0.334979
	22.975000	-0.318862
	22.980000	-0.405892
	22.985000	-0.415563
	22.990000	-0.305968
	22.995000	-0.289852
	23.000000	-0.373659
	23.005000	-0.376882
	23.010000	-0.273735
	23.015000	-0.251171
	23.020000	-0.344649
	23.025000	-0.347872
	23.030000	-0.247948
	23.035000	-0.228608
	23.040000	-0.312415
	23.045000	-0.328532
	23.050000	-0.225384
	23.055000	-0.202821
	23.060000	-0.286628
	23.065000	-0.302745
	23.070000	-0.199597
	23.075000	-0.180257
	23.080000	-0.260841
	23.085000	-0.267288
	23.090000	-0.170587
	23.095000	-0.151247
	23.100000	-0.222161
	23.105000	-0.228608
	23.110000	-0.119014
	23.115000	-0.090003
	23.120000	-0.164141
	23.125000	-0.167364
	23.130000	-0.060993
	23.135000	-0.035206
	23.140000	-0.102897
	23.145000	-0.099673
	23.150000	0.009921
	23.155000	0.045378
	23.160000	-0.022313
	23.165000	-0.015866
	23.170000	0.096952
	23.175000	0.129185
	23.180000	0.055048
	23.185000	0.051825
	23.190000	0.154972
	23.195000	0.174312
	23.200000	0.090505
	23.205000	0.090505
	23.210000	0.177536
	23.215000	0.196876
	23.220000	0.113068
	23.225000	0.096952
	23.230000	0.180759
	23.235000	0.196876
	23.240000	0.113068
	23.245000	0.096952
	23.250000	0.174312
	23.255000	0.187206
	23.260000	0.093728
	23.265000	0.080835
	23.270000	0.164642
	23.275000	0.167865
	23.280000	0.084058
	23.285000	0.064718
	23.290000	0.148525
	23.295000	0.161419
	23.300000	0.064718
	23.305000	0.051825
	23.310000	0.129185
	23.315000	0.145302
	23.320000	0.055048
	23.325000	0.045378
	23.330000	0.119515
	23.335000	0.129185
	23.340000	0.048601
	23.345000	0.029261
	23.350000	0.113068
	23.355000	0.119515
	23.360000	0.035708
	23.365000	0.013144
	23.370000	0.096952
	23.375000	0.109845
	23.380000	0.019591
	23.385000	0.006697
	23.390000	0.084058
	23.395000	0.093728
	23.400000	0.006697
	23.405000	-0.009419
	23.410000	0.074388
	23.415000	0.093728
	23.420000	0.006697
	23.425000	-0.012643
	23.430000	0.061495
	23.435000	0.077611
	23.440000	-0.006196
	23.445000	-0.019089
	23.450000	0.061495
	23.455000	0.067941
	23.460000	-0.009419
	23.465000	-0.025536
	23.470000	0.048601
	23.475000	0.071165
	23.480000	-0.015866
	23.485000	-0.025536
	23.490000	0.051825
	23.495000	0.061495
	23.500000	-0.019089
	23.505000	-0.041653
	23.510000	0.042154
	23.515000	0.055048
	23.520000	-0.025536
	23.525000	-0.044876
	23.530000	0.035708
	23.535000	0.048601
	23.540000	-0.038430
	23.545000	-0.051323
	23.550000	0.029261
	23.555000	0.045378
	23.560000	-0.044876
	23.565000	-0.054546
	23.570000	0.026038
	23.575000	0.042154
	23.580000	-0.044876
	23.585000	-0.064216
	23.590000	0.013144
	23.595000	0.022814
	23.600000	-0.060993
	23.605000	-0.067440
	23.610000	0.009921
	23.615000	0.022814
	23.620000	-0.064216
	23.625000	-0.080333
	23.630000	0.003474
	23.635000	0.016368
	23.640000	-0.070663
	23.645000	-0.080333
	23.650000	-0.002973
	23.655000	0.003474
	23.660000	-0.077110
	23.665000	-0.096450
	23.670000	-0.015866
	23.675000	0.000251
	23.680000	-0.080333
	23.685000	-0.093227
	23.690000	-0.019089
	23.695000	-0.009419
	23.700000	-0.090003
	23.705000	-0.109343
	23.710000	-0.031983
	23.715000	-0.012643
	23.720000	-0.096450
	23.725000	-0.115790
	23.730000	-0.031983
	23.735000	-0.019089
	23.740000	-0.102897
	23.745000	-0.122237
	23.750000	-0.031983
	23.755000	-0.025536
	23.760000	-0.102897
	23.765000	-0.128684
	23.770000	-0.038430
	23.775000	-0.025536
	23.780000	-0.109343
	23.785000	-0.125460
	23.790000	-0.048100
	23.795000	-0.028759
	23.800000	-0.119014
	23.805000	-0.141577
	23.810000	-0.051323
	23.815000	-0.041653
	23.820000	-0.131907
	23.825000	-0.135130
	23.830000	-0.064216
	23.835000	-0.044876
	23.840000	-0.125460
	23.845000	-0.148024
	23.850000	-0.067440
	23.855000	-0.057770
	23.860000	-0.138354
	23.865000	-0.154470
	23.870000	-0.077110
	23.875000	-0.051323
	23.880000	-0.144800
	23.885000	-0.154470
	23.890000	-0.067440
	23.895000	-0.064216
	23.900000	-0.138354
	23.905000	-0.154470
	23.910000	-0.083557
	23.915000	-0.057770
	23.920000	-0.148024
	23.925000	-0.154470
	23.930000	-0.073886
	23.935000	-0.060993
	23.940000	-0.148024
	23.945000	-0.160917
	23.950000	-0.073886
	23.955000	-0.060993
	23.960000	-0.144800
	23.965000	-0.160917
	23.970000	-0.077110
	23.975000	-0.054546
	23.980000	-0.148024
	23.985000	-0.164141
	23.990000	-0.073886
	23.995000	-0.064216
	24.000000	-0.151247
	24.005000	-0.157694
	24.010000	-0.086780
	24.015000	-0.077110
	24.020000	-0.157694
	24.025000	-0.189927
	24.030000	-0.109343
	24.035000	-0.106120
	24.040000	-0.206044
	24.045000	-0.228608
	24.050000	-0.154470
	24.055000	-0.154470
	24.060000	-0.260841
	24.065000	-0.283405
	24.070000	-0.218938
	24.075000	-0.222161
	24.080000	-0.318862
	24.085000	-0.347872
	24.090000	-0.276958
	24.095000	-0.264065
	24.100000	-0.360765
	24.105000	-0.386552
	24.110000	-0.318862
	24.115000	-0.309192
	24.120000	-0.405892
	24.125000	-0.431679
	24.130000	-0.363989
	24.135000	-0.351095
	24.140000	-0.438126
	24.145000	-0.463913
	24.150000	-0.392999
	24.155000	-0.376882
	24.160000	-0.473583
	24.165000	-0.496147
	24.170000	-0.422009
	24.175000	-0.405892
	24.180000	-0.496147
	24.185000	-0.521933
	24.190000	-0.447796
	24.195000	-0.431679
	24.200000	-0.521933
	24.205000	-0.547720
	24.210000	-0.460690
	24.215000	-0.451019
	24.220000	-0.547720
	24.225000	-0.570284
	24.230000	-0.480030
	24.235000	-0.463913
	24.240000	-0.557390
	24.245000	-0.573507
	24.250000	-0.489700
	24.255000	-0.476806
	24.260000	-0.563837
	24.265000	-0.583177
	24.270000	-0.489700
	24.275000	-0.476806
	24.280000	-0.563837
	24.285000	-0.583177
	24.290000	-0.496147
	24.295000	-0.480030
	24.300000	-0.573507
	24.305000	-0.589624
	24.310000	-0.499370
	24.315000	-0.483253
	24.320000	-0.573507
	24.325000	-0.589624
	24.330000	-0.505817
	24.335000	-0.476806
	24.340000	-0.570284
	24.345000	-0.583177
	24.350000	-0.499370
	24.355000	-0.473583
	24.360000	-0.570284
	24.365000	-0.586401
	24.370000	-0.496147
	24.375000	-0.483253
	24.380000	-0.570284
	24.385000	-0.583177
	24.390000	-0.496147
	24.395000	-0.480030
	24.400000	-0.567060
	24.405000	-0.589624
	24.410000	-0.492923
	24.415000	-0.463913
	24.420000	-0.567060
	24.425000	-0.579954
	24.430000	-0.486476
	24.435000	-0.467136
	24.440000	-0.557390
	24.445000	-0.579954
	24.450000	-0.486476
	24.455000	-0.467136
	24.460000	-0.557390
	24.465000	-0.567060
	24.470000	-0.476806
	24.475000	-0.457466
	24.480000	-0.554167
	24.485000	-0.563837
	24.490000	-0.470360
	24.495000	-0.454243
	24.500000	-0.547720
	24.505000	-0.567060
	24.510000	-0.473583
	24.515000	-0.447796
	24.520000	-0.544497
	24.525000	-0.557390
	24.530000	-0.467136
	24.535000	-0.454243
	24.540000	-0.534827
	24.545000	-0.557390
	24.550000	-0.463913
	24.555000	-0.444573
	24.560000	-0.528380
	24.565000	-0.554167
	24.570000	-0.460690
	24.575000	-0.434903
	24.580000	-0.531603
	24.585000	-0.547720
	24.590000	-0.454243
	24.595000	-0.438126
	24.600000	-0.525157
	24.605000	-0.554167
	24.610000	-0.454243
	24.615000	-0.431679
	24.620000	-0.521933
	24.625000	-0.541274
	24.630000	-0.454243
	24.635000	-0.431679
	24.640000	-0.525157
	24.645000	-0.541274
	24.650000	-0.454243
	24.655000	-0.428456
	24.660000	-0.518710
	24.665000	-0.538050
	24.670000	-0.447796
	24.675000	-0.434903
	24.680000	-0.512263
	24.685000	-0.531603
	24.690000	-0.444573
	24.695000	-0.425233
	24.700000	-0.509040
	24.705000	-0.534827
	24.710000	-0.444573
	24.715000	-0.418786
	24.720000	-0.505817
	24.725000	-0.531603
	24.730000	-0.431679
	24.735000	-0.418786
	24.740000	-0.502593
	24.745000	-0.528380
	24.750000	-0.434903
	24.755000	-0.415563
	24.760000	-0.502593
	24.765000	-0.531603
	24.770000	-0.434903
	24.775000	-0.409116
	24.780000	-0.499370
	24.785000	-0.525157
	24.790000	-0.431679
	24.795000	-0.405892
	24.800000	-0.502593
	24.805000	-0.521933
	24.810000	-0.428456
	24.815000	-0.409116
	24.820000	-0.499370
	24.825000	-0.518710
	24.830000	-0.425233
	24.835000	-0.402669
	24.840000	-0.492923
	24.845000	-0.512263
	24.850000	-0.422009
	24.855000	-0.402669
	24.860000	-0.489700
	24.865000	-0.512263
	24.870000	-0.422009
	24.875000	-0.392999
	24.880000	-0.489700
	24.885000	-0.509040
	24.890000	-0.425233
	24.895000	-0.392999
	24.900000	-0.489700
	24.905000	-0.509040
	24.910000	-0.425233
	24.915000	-0.392999
	24.920000	-0.486476
	24.925000	-0.509040
	24.930000	-0.412339
	24.935000	-0.396222
	24.940000	-0.486476
	24.945000	-0.505817
	24.950000	-0.415563
	24.955000	-0.392999
	24.960000	-0.492923
	24.965000	-0.502593
	24.970000	-0.412339
	24.975000	-0.392999
	24.980000	-0.483253
	24.985000	-0.505817
	24.990000	-0.412339
	24.995000	-0.386552
	25.000000	-0.480030
	25.005000	-0.502593
	25.010000	-0.415563
	25.015000	-0.389776
	25.020000	-0.483253
	25.025000	-0.505817
	25.030000	-0.415563
	25.035000	-0.392999
	25.040000	-0.483253
	25.045000	-0.502593
	25.050000	-0.412339
	25.055000	-0.389776
	25.060000	-0.470360
	25.065000	-0.499370
	25.070000	-0.409116
	25.075000	-0.386552
	25.080000	-0.473583
	25.085000	-0.496147
	25.090000	-0.409116
	25.095000	-0.383329
	25.100000	-0.473583
	25.105000	-0.496147
	25.110000	-0.402669
	25.115000	-0.386552
	25.120000	-0.467136
	25.125000	-0.496147
	25.130000	-0.399446
	25.135000	-0.376882
	25.140000	-0.467136
	25.145000	-0.492923
	25.150000	-0.402669
	25.155000	-0.376882
	25.160000	-0.470360
	25.165000	-0.492923
	25.170000	-0.396222
	25.175000	-0.373659
	25.180000	-0.473583
	25.185000	-0.489700
	25.190000	-0.396222
	25.195000	-0.370436
	25.200000	-0.467136
	25.205000	-0.486476
	25.210000	-0.396222
	25.215000	-0.370436
	25.220000	-0.467136
	25.225000	-0.489700
	25.230000	-0.399446
	25.235000	-0.380106
	25.240000	-0.460690
	25.245000	-0.483253
	25.250000	-0.402669
	25.255000	-0.370436
	25.260000	-0.460690
	25.265000	-0.486476
	25.270000	-0.396222
	25.275000	-0.370436
	25.280000	-0.454243
	25.285000	-0.480030
	25.290000	-0.389776
	25.295000	-0.373659
	25.300000	-0.460690
	25.305000	-0.483253
	25.310000	-0.392999
	25.315000	-0.367212
	25.320000	-0.457466
	25.325000	-0.483253
	25.330000	-0.392999
	25.335000	-0.360765
	25.340000	-0.463913
	25.345000	-0.483253
	25.350000	-0.389776
	25.355000	-0.363989
	25.360000	-0.457466
	25.365000	-0.480030
	25.370000	-0.386552
	25.375000	-0.367212
	25.380000	-0.451019
	25.385000	-0.473583
	25.390000	-0.392999
	25.395000	-0.360765
	25.400000	-0.447796
	25.405000	-0.476806
	25.410000	-0.389776
	25.415000	-0.360765
	25.420000	-0.447796
	25.425000	-0.473583
	25.430000	-0.383329
	25.435000	-0.360765
	25.440000	-0.444573
	25.445000	-0.467136
	25.450000	-0.380106
	25.455000	-0.357542
	25.460000	-0.451019
	25.465000	-0.470360
	25.470000	-0.380106
	25.475000	-0.360765
	25.480000	-0.451019
	25.485000	-0.473583
	25.490000	-0.386552
	25.495000	-0.357542
	25.500000	-0.441349
	25.505000	-0.470360
	25.510000	-0.380106
	25.515000	-0.351095
	25.520000	-0.444573
	25.525000	-0.470360
	25.530000	-0.383329
	25.535000	-0.357542
	25.540000	-0.441349
	25.545000	-0.473583
	25.550000	-0.376882
	25.555000	-0.357542
	25.560000	-0.451019
	25.565000	-0.473583
	25.570000	-0.383329
	25.575000	-0.351095
	25.580000	-0.441349
	25.585000	-0.470360
	25.590000	-0.383329
	25.595000	-0.351095
	25.600000	-0.441349
	25.605000	-0.470360
	25.610000	-0.380106
	25.615000	-0.357542
	25.620000	-0.441349
	25.625000	-0.473583
	25.630000	-0.383329
	25.635000	-0.354319
	25.640000	-0.438126
	25.645000	-0.470360
	25.650000	-0.376882
	25.655000	-0.347872
	25.660000	-0.441349
	25.665000	-0.463913
	25.670000	-0.386552
	25.675000	-0.357542
	25.680000	-0.441349
	25.685000	-0.470360
	25.690000	-0.383329
	25.695000	-0.354319
	25.700000	-0.441349
	25.705000	-0.467136
	25.710000	-0.380106
	25.715000	-0.360765
	25.720000	-0.441349
	25.725000	-0.473583
	25.730000	-0.380106
	25.735000	-0.354319
	25.740000	-0.438126
	25.745000	-0.473583
	25.750000	-0.386552
	25.755000	-0.351095
	25.760000	-0.447796
	25.765000	-0.467136
	25.770000	-0.383329
	25.775000	-0.357542
	25.780000	-0.444573
	25.785000	-0.467136
	25.790000	-0.376882
	25.795000	-0.351095
	25.800000	-0.431679
	25.805000	-0.470360
	25.810000	-0.380106
	25.815000	-0.351095
	25.820000	-0.441349
	25.825000	-0.470360
	25.830000	-0.376882
	25.835000	-0.341425
	25.840000	-0.434903
	25.845000	-0.463913
	25.850000	-0.383329
	25.855000	-0.347872
	25.860000	-0.434903
	25.865000	-0.470360
	25.870000	-0.376882
	25.875000	-0.354319
	25.880000	-0.438126
	25.885000	-0.463913
	25.890000	-0.380106
	25.895000	-0.347872
	25.900000	-0.438126
	25.905000	-0.467136
	25.910000	-0.380106
	25.915000	-0.354319
	25.920000	-0.438126
	25.925000	-0.467136
	25.930000	-0.383329
	25.935000	-0.354319
	25.940000	-0.447796
	25.945000	-0.470360
	25.950000	-0.383329
	25.955000	-0.351095
	25.960000	-0.441349
	25.965000	-0.460690
	25.970000	-0.380106
	25.975000	-0.351095
	25.980000	-0.438126
	25.985000	-0.470360
	25.990000	-0.383329
	25.995000	-0.347872
	26.000000	-0.434903
	26.005000	-0.467136
	26.010000	-0.380106
	26.015000	-0.347872
	26.020000	-0.434903
	26.025000	-0.467136
	26.030000	-0.376882
	26.035000	-0.344649
	26.040000	-0.434903
	26.045000	-0.463913
	26.050000	-0.376882
	26.055000	-0.341425
	26.060000	-0.428456
	26.065000	-0.463913
	26.070000	-0.376882
	26.075000	-0.344649
	26.080000	-0.431679
	26.085000	-0.463913
	26.090000	-0.373659
	26.095000	-0.347872
	26.100000	-0.438126
	26.105000	-0.467136
	26.110000	-0.376882
	26.115000	-0.341425
	26.120000	-0.428456
	26.125000	-0.463913
	26.130000	-0.367212
	26.135000	-0.341425
	26.140000	-0.425233
	26.145000	-0.460690
	26.150000	-0.367212
	26.155000	-0.338202
	26.160000	-0.418786
	26.165000	-0.451019
	26.170000	-0.363989
	26.175000	-0.331755
	26.180000	-0.412339
	26.185000	-0.438126
	26.190000	-0.357542
	26.195000	-0.315638
	26.200000	-0.409116
	26.205000	-0.434903
	26.210000	-0.347872
	26.215000	-0.312415
	26.220000	-0.399446
	26.225000	-0.434903
	26.230000	-0.338202
	26.235000	-0.305968
	26.240000	-0.386552
	26.245000	-0.425233
	26.250000	-0.334979
	26.255000	-0.299522
	26.260000	-0.389776
	26.265000	-0.422009
	26.270000	-0.341425
	26.275000	-0.302745
	26.280000	-0.389776
	26.285000	-0.422009
	26.290000	-0.331755
	26.295000	-0.299522
	26.300000	-0.383329
	26.305000	-0.415563
	26.310000	-0.328532
	26.315000	-0.296298
	26.320000	-0.380106
	26.325000	-0.415563
	26.330000	-0.334979
	26.335000	-0.299522
	26.340000	-0.383329
	26.345000	-0.418786
	26.350000	-0.334979
	26.355000	-0.293075
	26.360000	-0.389776
	26.365000	-0.418786
	26.370000	-0.328532
	26.375000	-0.293075
	26.380000	-0.376882
	26.385000	-0.412339
	26.390000	-0.322085
	26.395000	-0.286628
	26.400000	-0.373659
	26.405000	-0.399446
	26.410000	-0.312415
	26.415000	-0.270511
	26.420000	-0.357542
	26.425000	-0.392999
	26.430000	-0.296298
	26.435000	-0.257618
	26.440000	-0.338202
	26.445000	-0.370436
	26.450000	-0.276958
	26.455000	-0.241501
	26.460000	-0.322085
	26.465000	-0.347872
	26.470000	-0.254395
	26.475000	-0.212491
	26.480000	-0.296298
	26.485000	-0.322085
	26.490000	-0.231831
	26.495000	-0.196374
	26.500000	-0.264065
	26.505000	-0.293075
	26.510000	-0.199597
	26.515000	-0.167364
	26.520000	-0.238278
	26.525000	-0.264065
	26.530000	-0.177034
	26.535000	-0.128684
	26.540000	-0.209268
	26.545000	-0.244725
	26.550000	-0.160917
	26.555000	-0.109343
	26.560000	-0.193151
	26.565000	-0.228608
	26.570000	-0.135130
	26.575000	-0.102897
	26.580000	-0.173811
	26.585000	-0.206044
	26.590000	-0.128684
	26.595000	-0.083557
	26.600000	-0.160917
	26.605000	-0.196374
	26.610000	-0.106120
	26.615000	-0.073886
	26.620000	-0.157694
	26.625000	-0.199597
	26.630000	-0.112567
	26.635000	-0.086780
	26.640000	-0.160917
	26.645000	-0.206044
	26.650000	-0.128684
	26.655000	-0.099673
	26.660000	-0.186704
	26.665000	-0.225384
	26.670000	-0.148024
	26.675000	-0.109343
	26.680000	-0.202821
	26.685000	-0.241501
	26.690000	-0.170587
	26.695000	-0.135130
	26.700000	-0.218938
	26.705000	-0.251171
	26.710000	-0.170587
	26.715000	-0.141577
	26.720000	-0.225384
	26.725000	-0.264065
	26.730000	-0.186704
	26.735000	-0.144800
	26.740000	-0.235054
	26.745000	-0.270511
	26.750000	-0.183481
	26.755000	-0.154470
	26.760000	-0.241501
	26.765000	-0.273735
	26.770000	-0.196374
	26.775000	-0.154470
	26.780000	-0.241501
	26.785000	-0.280181
	26.790000	-0.206044
	26.795000	-0.170587
	26.800000	-0.247948
	26.805000	-0.283405
	26.810000	-0.202821
	26.815000	-0.170587
	26.820000	-0.244725
	26.825000	-0.280181
	26.830000	-0.206044
	26.835000	-0.170587
	26.840000	-0.251171
	26.845000	-0.286628
	26.850000	-0.209268
	26.855000	-0.170587
	26.860000	-0.251171
	26.865000	-0.293075
	26.870000	-0.202821
	26.875000	-0.167364
	26.880000	-0.247948
	26.885000	-0.286628
	26.890000	-0.202821
	26.895000	-0.167364
	26.900000	-0.251171
	26.905000	-0.289852
	26.910000	-0.202821
	26.915000	-0.164141
	26.920000	-0.244725
	26.925000	-0.293075
	26.930000	-0.206044
	26.935000	-0.170587
	26.940000	-0.251171
	26.945000	-0.289852
	26.950000	-0.202821
	26.955000	-0.164141
	26.960000	-0.251171
	26.965000	-0.286628
	26.970000	-0.206044
	26.975000	-0.167364
	26.980000	-0.251171
	26.985000	-0.286628
	26.990000	-0.206044
	26.995000	-0.167364
	27.000000	-0.244725
	27.005000	-0.289852
	27.010000	-0.206044
	27.015000	-0.170587
	27.020000	-0.251171
	27.025000	-0.293075
	27.030000	-0.212491
	27.035000	-0.177034
	27.040000	-0.257618
	27.045000	-0.293075
	27.050000	-0.218938
	27.055000	-0.177034
	27.060000	-0.254395
	27.065000	-0.302745
	27.070000	-0.228608
	27.075000	-0.186704
	27.080000	-0.267288
	27.085000	-0.312415
	27.090000	-0.241501
	27.095000	-0.199597
	27.100000	-0.283405
	27.105000	-0.322085
	27.110000	-0.241501
	27.115000	-0.215714
	27.120000	-0.293075
	27.125000	-0.334979
	27.130000	-0.254395
	27.135000	-0.222161
	27.140000	-0.302745
	27.145000	-0.344649
	27.150000	-0.276958
	27.155000	-0.238278
	27.160000	-0.325308
	27.165000	-0.367212
	27.170000	-0.296298
	27.175000	-0.260841
	27.180000	-0.344649
	27.185000	-0.389776
	27.190000	-0.315638
	27.195000	-0.283405
	27.200000	-0.373659
	27.205000	-0.418786
	27.210000	-0.341425
	27.215000	-0.309192
	27.220000	-0.396222
	27.225000	-0.438126
	27.230000	-0.363989
	27.235000	-0.334979
	27.240000	-0.418786
	27.245000	-0.457466
	27.250000	-0.389776
	27.255000	-0.347872
	27.260000	-0.425233
	27.265000	-0.476806
	27.270000	-0.405892
	27.275000	-0.357542
	27.280000	-0.438126
	27.285000	-0.476806
	27.290000	-0.405892
	27.295000	-0.363989
	27.300000	-0.451019
	27.305000	-0.483253
	27.310000	-0.409116
	27.315000	-0.367212
	27.320000	-0.444573
	27.325000	-0.499370
	27.330000	-0.412339
	27.335000	-0.370436
	27.340000	-0.451019
	27.345000	-0.496147
	27.350000	-0.418786
	27.355000	-0.373659
	27.360000	-0.460690
	27.365000	-0.502593
	27.370000	-0.422009
	27.375000	-0.380106
	27.380000	-0.467136
	27.385000	-0.505817
	27.390000	-0.428456
	27.395000	-0.383329
	27.400000	-0.467136
	27.405000	-0.509040
	27.410000	-0.431679
	27.415000	-0.389776
	27.420000	-0.463913
	27.425000	-0.515487
	27.430000	-0.434903
	27.435000	-0.396222
	27.440000	-0.473583
	27.445000	-0.521933
	27.450000	-0.438126
	27.455000	-0.396222
	27.460000	-0.473583
	27.465000	-0.521933
	27.470000	-0.438126
	27.475000	-0.389776
	27.480000	-0.483253
	27.485000	-0.518710
	27.490000	-0.441349
	27.495000	-0.396222
	27.500000	-0.470360
	27.505000	-0.521933
	27.510000	-0.441349
	27.515000	-0.389776
	27.520000	-0.473583
	27.525000	-0.512263
	27.530000	-0.441349
	27.535000	-0.389776
	27.540000	-0.473583
	27.545000	-0.521933
	27.550000	-0.434903
	27.555000	-0.386552
	27.560000	-0.476806
	27.565000	-0.515487
	27.570000	-0.431679
	27.575000	-0.392999
	27.580000	-0.473583
	27.585000	-0.512263
	27.590000	-0.438126
	27.595000	-0.392999
	27.600000	-0.467136
	27.605000	-0.515487
	27.610000	-0.434903
	27.615000	-0.392999
	27.620000	-0.460690
	27.625000	-0.509040
	27.630000	-0.434903
	27.635000	-0.389776
	27.640000	-0.470360
	27.645000	-0.509040
	27.650000	-0.428456
	27.655000	-0.389776
	27.660000	-0.457466
	27.665000	-0.509040
	27.670000	-0.428456
	27.675000	-0.386552
	27.680000	-0.460690
	27.685000	-0.505817
	27.690000	-0.431679
	27.695000	-0.380106
	27.700000	-0.454243
	27.705000	-0.505817
	27.710000	-0.428456
	27.715000	-0.376882
	27.720000	-0.457466
	27.725000	-0.499370
	27.730000	-0.422009
	27.735000	-0.373659
	27.740000	-0.447796
	27.745000	-0.505817
	27.750000	-0.418786
	27.755000	-0.373659
	27.760000	-0.444573
	27.765000	-0.496147
	27.770000	-0.412339
	27.775000	-0.363989
	27.780000	-0.447796
	27.785000	-0.499370
	27.790000	-0.418786
	27.795000	-0.367212
	27.800000	-0.441349
	27.805000	-0.489700
	27.810000	-0.415563
	27.815000	-0.367212
	27.820000	-0.444573
	27.825000	-0.496147
	27.830000	-0.409116
	27.835000	-0.360765
	27.840000	-0.441349
	27.845000	-0.489700
	27.850000	-0.412339
	27.855000	-0.370436
	27.860000	-0.441349
	27.865000	-0.496147
	27.870000	-0.415563
	27.875000	-0.363989
	27.880000	-0.438126
	27.885000	-0.489700
	27.890000	-0.415563
	27.895000	-0.357542
	27.900000	-0.444573
	27.905000	-0.492923
	27.910000	-0.418786
	27.915000	-0.360765
	27.920000	-0.438126
	27.925000	-0.486476
	27.930000	-0.405892
	27.935000	-0.363989
	27.940000	-0.434903
	27.945000	-0.483253
	27.950000	-0.415563
	27.955000	-0.357542
	27.960000	-0.441349
	27.965000	-0.483253
	27.970000	-0.405892
	27.975000	-0.360765
	27.980000	-0.434903
	27.985000	-0.489700
	27.990000	-0.405892
	27.995000	-0.360765
	28.000000	-0.434903
	28.005000	-0.486476
	28.010000	-0.405892
	28.015000	-0.360765
	28.020000	-0.441349
	28.025000	-0.486476
	28.030000	-0.405892
	28.035000	-0.354319
	28.040000	-0.428456
	28.045000	-0.486476
	28.050000	-0.415563
	28.055000	-0.354319
	28.060000	-0.431679
	28.065000	-0.483253
	28.070000	-0.405892
	28.075000	-0.351095
	28.080000	-0.431679
	28.085000	-0.476806
	28.090000	-0.402669
	28.095000	-0.351095
	28.100000	-0.434903
	28.105000	-0.486476
	28.110000	-0.405892
	28.115000	-0.351095
	28.120000	-0.428456
	28.125000	-0.480030
	28.130000	-0.405892
	28.135000	-0.357542
	28.140000	-0.428456
	28.145000	-0.483253
	28.150000	-0.405892
	28.155000	-0.351095
	28.160000	-0.431679
	28.165000	-0.476806
	28.170000	-0.402669
	28.175000	-0.347872
	28.180000	-0.425233
	28.185000	-0.486476
	28.190000	-0.405892
	28.195000	-0.351095
	28.200000	-0.428456
	28.205000	-0.476806
	28.210000	-0.399446
	28.215000	-0.351095
	28.220000	-0.428456
	28.225000	-0.480030
	28.230000	-0.399446
	28.235000	-0.341425
	28.240000	-0.428456
	28.245000	-0.473583
	28.250000	-0.396222
	28.255000	-0.347872
	28.260000	-0.418786
	28.265000	-0.480030
	28.270000	-0.405892
	28.275000	-0.347872
	28.280000	-0.425233
	28.285000	-0.480030
	28.290000	-0.405892
	28.295000	-0.354319
	28.300000	-0.425233
	28.305000	-0.476806
	28.310000	-0.396222
	28.315000	-0.347872
	28.320000	-0.425233
	28.325000	-0.476806
	28.330000	-0.399446
	28.335000	-0.344649
	28.340000	-0.425233
	28.345000	-0.476806
	28.350000	-0.399446
	28.355000	-0.347872
	28.360000	-0.418786
	28.365000	-0.476806
	28.370000	-0.399446
	28.375000	-0.347872
	28.380000	-0.418786
	28.385000	-0.473583
	28.390000	-0.399446
	28.395000	-0.344649
	28.400000	-0.418786
	28.405000	-0.473583
	28.410000	-0.396222
	28.415000	-0.347872
	28.420000	-0.418786
	28.425000	-0.470360
	28.430000	-0.405892
	28.435000	-0.341425
	28.440000	-0.415563
	28.445000	-0.473583
	28.450000	-0.396222
	28.455000	-0.341425
	28.460000	-0.418786
	28.465000	-0.470360
	28.470000	-0.399446
	28.475000	-0.341425
	28.480000	-0.415563
	28.485000	-0.473583
	28.490000	-0.399446
	28.495000	-0.347872
	28.500000	-0.415563
	28.505000	-0.476806
	28.510000	-0.396222
	28.515000	-0.351095
	28.520000	-0.412339
	28.525000	-0.470360
	28.530000	-0.396222
	28.535000	-0.341425
	28.540000	-0.418786
	28.545000	-0.476806
	28.550000	-0.399446
	28.555000	-0.344649
	28.560000	-0.412339
	28.565000	-0.473583
	28.570000	-0.399446
	28.575000	-0.341425
	28.580000	-0.418786
	28.585000	-0.473583
	28.590000	-0.399446
	28.595000	-0.347872
	28.600000	-0.422009
	28.605000	-0.476806
	28.610000	-0.402669
	28.615000	-0.347872
	28.620000	-0.418786
	28.625000	-0.476806
	28.630000	-0.402669
	28.635000	-0.344649
	28.640000	-0.418786
	28.645000	-0.473583
	28.650000	-0.399446
	28.655000	-0.347872
	28.660000	-0.415563
	28.665000	-0.476806
	28.670000	-0.405892
	28.675000	-0.344649
	28.680000	-0.412339
	28.685000	-0.476806
	28.690000	-0.405892
	28.695000	-0.344649
	28.700000	-0.418786
	28.705000	-0.476806
	28.710000	-0.402669
	28.715000	-0.344649
	28.720000	-0.422009
	28.725000	-0.476806
	28.730000	-0.405892
	28.735000	-0.344649
	28.740000	-0.412339
	28.745000	-0.470360
	28.750000	-0.399446
	28.755000	-0.347872
	28.760000	-0.415563
	28.765000	-0.483253
	28.770000	-0.399446
	28.775000	-0.347872
	28.780000	-0.415563
	28.785000	-0.476806
	28.790000	-0.399446
	28.795000	-0.347872
	28.800000	-0.418786
	28.805000	-0.476806
	28.810000	-0.405892
	28.815000	-0.344649
	28.820000	-0.418786
	28.825000	-0.480030
	28.830000	-0.412339
	28.835000	-0.347872
	28.840000	-0.415563
	28.845000	-0.480030
	28.850000	-0.402669
	28.855000	-0.344649
	28.860000	-0.412339
	28.865000	-0.473583
	28.870000	-0.405892
	28.875000	-0.351095
	28.880000	-0.415563
	28.885000	-0.473583
	28.890000	-0.405892
	28.895000	-0.347872
	28.900000	-0.418786
	28.905000	-0.476806
	28.910000	-0.402669
	28.915000	-0.344649
	28.920000	-0.415563
	28.925000	-0.476806
	28.930000	-0.405892
	28.935000	-0.347872
	28.940000	-0.412339
	28.945000	-0.476806
	28.950000	-0.412339
	28.955000	-0.344649
	28.960000	-0.412339
	28.965000	-0.473583
	28.970000	-0.405892
	28.975000	-0.344649
	28.980000	-0.415563
	28.985000	-0.480030
	28.990000	-0.409116
	28.995000	-0.341425
	29.000000	-0.415563
	29.005000	-0.470360
	29.010000	-0.409116
	29.015000	-0.347872
	29.020000	-0.415563
	29.025000	-0.473583
	29.030000	-0.405892
	29.035000	-0.347872
	29.040000	-0.412339
	29.045000	-0.473583
	29.050000	-0.405892
	29.055000	-0.351095
	29.060000	-0.415563
	29.065000	-0.483253
	29.070000	-0.405892
	29.075000	-0.344649
	29.080000	-0.409116
	29.085000	-0.476806
	29.090000	-0.409116
	29.095000	-0.344649
	29.100000	-0.412339
	29.105000	-0.473583
	29.110000	-0.412339
	29.115000	-0.351095
	29.120000	-0.412339
	29.125000	-0.480030
	29.130000	-0.409116
	29.135000	-0.347872
	29.140000	-0.422009
	29.145000	-0.480030
	29.150000	-0.409116
	29.155000	-0.347872
	29.160000	-0.415563
	29.165000	-0.480030
	29.170000	-0.409116
	29.175000	-0.347872
	29.180000	-0.415563
	29.185000	-0.473583
	29.190000	-0.409116
	29.195000	-0.341425
	29.200000	-0.412339
	29.205000	-0.476806
	29.210000	-0.412339
	29.215000	-0.341425
	29.220000	-0.412339
	29.225000	-0.480030
	29.230000	-0.412339
	29.235000	-0.344649
	29.240000	-0.409116
	29.245000	-0.473583
	29.250000	-0.409116
	29.255000	-0.344649
	29.260000	-0.409116
	29.265000	-0.476806
	29.270000	-0.409116
	29.275000	-0.344649
	29.280000	-0.409116
	29.285000	-0.473583
	29.290000	-0.412339
	29.295000	-0.347872
	29.300000	-0.405892
	29.305000	-0.476806
	29.310000	-0.412339
	29.315000	-0.341425
	29.320000	-0.399446
	29.325000	-0.470360
	29.330000	-0.409116
	29.335000	-0.338202
	29.340000	-0.402669
	29.345000	-0.467136
	29.350000	-0.405892
	29.355000	-0.347872
	29.360000	-0.405892
	29.365000	-0.473583
	29.370000	-0.409116
	29.375000	-0.341425
	29.380000	-0.402669
	29.385000	-0.476806
	29.390000	-0.412339
	29.395000	-0.341425
	29.400000	-0.399446
	29.405000	-0.470360
	29.410000	-0.405892
	29.415000	-0.341425
	29.420000	-0.402669
	29.425000	-0.470360
	29.430000	-0.409116
	29.435000	-0.338202
	29.440000	-0.402669
	29.445000	-0.473583
	29.450000	-0.405892
	29.455000	-0.341425
	29.460000	-0.396222
	29.465000	-0.467136
	29.470000	-0.402669
	29.475000	-0.341425
	29.480000	-0.402669
	29.485000	-0.470360
	29.490000	-0.405892
	29.495000	-0.341425
	29.500000	-0.399446
	29.505000	-0.467136
	29.510000	-0.402669
	29.515000	-0.344649
	29.520000	-0.402669
	29.525000	-0.473583
	29.530000	-0.402669
	29.535000	-0.341425
	29.540000	-0.409116
	29.545000	-0.473583
	29.550000	-0.405892
	29.555000	-0.338202
	29.560000	-0.402669
	29.565000	-0.463913
	29.570000	-0.405892
	29.575000	-0.338202
	29.580000	-0.402669
	29.585000	-0.473583
	29.590000	-0.405892
	29.595000	-0.331755
	29.600000	-0.396222
	29.605000	-0.470360
	29.610000	-0.405892
	29.615000	-0.338202
	29.620000	-0.399446
	29.625000	-0.473583
	29.630000	-0.409116
	29.635000	-0.334979
	29.640000	-0.396222
	29.645000	-0.470360
	29.650000	-0.405892
	29.655000	-0.334979
	29.660000	-0.399446
	29.665000	-0.463913
	29.670000	-0.409116
	29.675000	-0.341425
	29.680000	-0.396222
	29.685000	-0.463913
	29.690000	-0.405892
	29.695000	-0.338202
	29.700000	-0.399446
	29.705000	-0.467136
	29.710000	-0.402669
	29.715000	-0.341425
	29.720000	-0.396222
	29.725000	-0.467136
	29.730000	-0.402669
	29.735000	-0.338202
	29.740000	-0.392999
	29.745000	-0.467136
	29.750000	-0.399446
	29.755000	-0.334979
	29.760000	-0.386552
	29.765000	-0.460690
	29.770000	-0.396222
	29.775000	-0.322085
	29.780000	-0.389776
	29.785000	-0.454243
	29.790000	-0.383329
	29.795000	-0.312415
	29.800000	-0.373659
	29.805000	-0.441349
	29.810000	-0.376882
	29.815000	-0.302745
	29.820000	-0.360765
	29.825000	-0.431679
	29.830000	-0.360765
	29.835000	-0.289852
	29.840000	-0.344649
	29.845000	-0.412339
	29.850000	-0.354319
	29.855000	-0.276958
	29.860000	-0.341425
	29.865000	-0.402669
	29.870000	-0.347872
	29.875000	-0.270511
	29.880000	-0.331755
	29.885000	-0.399446
	29.890000	-0.334979
	29.895000	-0.260841
	29.900000	-0.315638
	29.905000	-0.386552
	29.910000	-0.322085
	29.915000	-0.251171
	29.920000	-0.302745
	29.925000	-0.373659
	29.930000	-0.309192
	29.935000	-0.238278
	29.940000	-0.286628
	29.945000	-0.354319
	29.950000	-0.296298
	29.955000	-0.218938
	29.960000	-0.264065
	29.965000	-0.325308
	29.970000	-0.267288
	29.975000	-0.193151
	29.980000	-0.238278
	29.985000	-0.302745
	29.990000	-0.231831
	29.995000	-0.144800
	30.000000	-0.193151
	30.005000	-0.257618
	30.010000	-0.183481
	30.015000	-0.102897
	30.020000	-0.148024
	30.025000	-0.206044
	30.030000	-0.144800
	30.035000	-0.067440
	30.040000	-0.106120
	30.045000	-0.177034
	30.050000	-0.102897
	30.055000	-0.025536
	30.060000	-0.067440
	30.065000	-0.138354
	30.070000	-0.070663
	30.075000	0.003474
	30.080000	-0.038430
	30.085000	-0.106120
	30.090000	-0.048100
	30.095000	0.022814
	30.100000	-0.022313
	30.105000	-0.090003
	30.110000	-0.025536
	30.115000	0.038931
	30.120000	-0.009419
	30.125000	-0.083557
	30.130000	-0.028759
	30.135000	0.045378
	30.140000	-0.012643
	30.145000	-0.090003
	30.150000	-0.028759
	30.155000	0.038931
	30.160000	-0.015866
	30.165000	-0.090003
	30.170000	-0.044876
	30.175000	0.022814
	30.180000	-0.031983
	30.185000	-0.102897
	30.190000	-0.064216
	30.195000	0.013144
	30.200000	-0.041653
	30.205000	-0.109343
	30.210000	-0.064216
	30.215000	-0.002973
	30.220000	-0.051323
	30.225000	-0.135130
	30.230000	-0.077110
	30.235000	-0.012643
	30.240000	-0.060993
	30.245000	-0.141577
	30.250000	-0.099673
	30.255000	-0.028759
	30.260000	-0.080333
	30.265000	-0.160917
	30.270000	-0.115790
	30.275000	-0.051323
	30.280000	-0.102897
	30.285000	-0.180257
	30.290000	-0.135130
	30.295000	-0.064216
	30.300000	-0.119014
	30.305000	-0.196374
	30.310000	-0.148024
	30.315000	-0.080333
	30.320000	-0.135130
	30.325000	-0.218938
	30.330000	-0.170587
	30.335000	-0.096450
	30.340000	-0.151247
	30.345000	-0.231831
	30.350000	-0.186704
	30.355000	-0.112567
	30.360000	-0.160917
	30.365000	-0.247948
	30.370000	-0.199597
	30.375000	-0.131907
	30.380000	-0.186704
	30.385000	-0.264065
	30.390000	-0.218938
	30.395000	-0.144800
	30.400000	-0.189927
	30.405000	-0.276958
	30.410000	-0.225384
	30.415000	-0.154470
	30.420000	-0.212491
	30.425000	-0.283405
	30.430000	-0.238278
	30.435000	-0.160917
	30.440000	-0.218938
	30.445000	-0.283405
	30.450000	-0.247948
	30.455000	-0.173811
	30.460000	-0.215714
	30.465000	-0.302745
	30.470000	-0.251171
	30.475000	-0.180257
	30.480000	-0.231831
	30.485000	-0.302745
	30.490000	-0.257618
	30.495000	-0.180257
	30.500000	-0.231831
	30.505000	-0.305968
	30.510000	-0.264065
	30.515000	-0.189927
	30.520000	-0.241501
	30.525000	-0.315638
	30.530000	-0.270511
	30.535000	-0.206044
	30.540000	-0.241501
	30.545000	-0.318862
	30.550000	-0.280181
	30.555000	-0.196374
	30.560000	-0.247948
	30.565000	-0.328532
	30.570000	-0.283405
	30.575000	-0.209268
	30.580000	-0.254395
	30.585000	-0.334979
	30.590000	-0.289852
	30.595000	-0.215714
	30.600000	-0.254395
	30.605000	-0.334979
	30.610000	-0.293075
	30.615000	-0.215714
	30.620000	-0.257618
	30.625000	-0.341425
	30.630000	-0.296298
	30.635000	-0.225384
	30.640000	-0.264065
	30.645000	-0.347872
	30.650000	-0.299522
	30.655000	-0.238278
	30.660000	-0.289852
	30.665000	-0.367212
	30.670000	-0.325308
	30.675000	-0.257618
	30.680000	-0.305968
	30.685000	-0.386552
	30.690000	-0.354319
	30.695000	-0.276958
	30.700000	-0.328532
	30.705000	-0.418786
	30.710000	-0.383329
	30.715000	-0.309192
	30.720000	-0.360765
	30.725000	-0.454243
	30.730000	-0.415563
	30.735000	-0.341425
	30.740000	-0.389776
	30.745000	-0.476806
	30.750000	-0.441349
	30.755000	-0.367212
	30.760000	-0.412339
	30.765000	-0.502593
	30.770000	-0.457466
	30.775000	-0.373659
	30.780000	-0.415563
	30.785000	-0.502593
	30.790000	-0.467136
	30.795000	-0.383329
	30.800000	-0.434903
	30.805000	-0.512263
	30.810000	-0.463913
	30.815000	-0.392999
	30.820000	-0.438126
	30.825000	-0.512263
	30.830000	-0.470360
	30.835000	-0.392999
	30.840000	-0.434903
	30.845000	-0.518710
	30.850000	-0.470360
	30.855000	-0.386552
	30.860000	-0.434903
	30.865000	-0.515487
	30.870000	-0.476806
	30.875000	-0.392999
	30.880000	-0.431679
	30.885000	-0.515487
	30.890000	-0.473583
	30.895000	-0.396222
	30.900000	-0.441349
	30.905000	-0.521933
	30.910000	-0.476806
	30.915000	-0.399446
	30.920000	-0.438126
	30.925000	-0.518710
	30.930000	-0.470360
	30.935000	-0.392999
	30.940000	-0.438126
	30.945000	-0.515487
	30.950000	-0.476806
	30.955000	-0.392999
	30.960000	-0.431679
	30.965000	-0.509040
	30.970000	-0.473583
	30.975000	-0.386552
	30.980000	-0.425233
	30.985000	-0.512263
	30.990000	-0.470360
	30.995000	-0.386552
	31.000000	-0.422009
	31.005000	-0.509040
	31.010000	-0.467136
	31.015000	-0.383329
	31.020000	-0.422009
	31.025000	-0.505817
	31.030000	-0.467136
	31.035000	-0.383329
	31.040000	-0.418786
	31.045000	-0.496147
	31.050000	-0.460690
	31.055000	-0.376882
	31.060000	-0.412339
	31.065000	-0.492923
	31.070000	-0.451019
	31.075000	-0.373659
	31.080000	-0.412339
	31.085000	-0.496147
	31.090000	-0.457466
	31.095000	-0.373659
	31.100000	-0.412339
	31.105000	-0.496147
	31.110000	-0.460690
	31.115000	-0.373659
	31.120000	-0.412339
	31.125000	-0.492923
	31.130000	-0.457466
	31.135000	-0.373659
	31.140000	-0.405892
	31.145000	-0.492923
	31.150000	-0.451019
	31.155000	-0.367212
	31.160000	-0.412339
	31.165000	-0.489700
	31.170000	-0.454243
	31.175000	-0.367212
	31.180000	-0.405892
	31.185000	-0.489700
	31.190000	-0.457466
	31.195000	-0.373659
	31.200000	-0.402669
	31.205000	-0.489700
	31.210000	-0.451019
	31.215000	-0.367212
	31.220000	-0.402669
	31.225000	-0.489700
	31.230000	-0.451019
	31.235000	-0.360765
	31.240000	-0.399446
	31.245000	-0.483253
	31.250000	-0.454243
	31.255000	-0.367212
	31.260000	-0.399446
	31.265000	-0.486476
	31.270000	-0.451019
	31.275000	-0.360765
	31.280000	-0.396222
	31.285000	-0.483253
	31.290000	-0.447796
	31.295000	-0.363989
	31.300000	-0.399446
	31.305000	-0.486476
	31.310000	-0.447796
	31.315000	-0.363989
	31.320000	-0.392999
	31.325000	-0.486476
	31.330000	-0.441349
	31.335000	-0.363989
	31.340000	-0.396222
	31.345000	-0.486476
	31.350000	-0.444573
	31.355000	-0.360765
	31.360000	-0.392999
	31.365000	-0.483253
	31.370000	-0.447796
	31.375000	-0.360765
	31.380000	-0.392999
	31.385000	-0.476806
	31.390000	-0.441349
	31.395000	-0.363989
	31.400000	-0.389776
	31.405000	-0.476806
	31.410000	-0.441349
	31.415000	-0.354319
	31.420000	-0.389776
	31.425000	-0.476806
	31.430000	-0.441349
	31.435000	-0.354319
	31.440000	-0.389776
	31.445000	-0.480030
	31.450000	-0.441349
	31.455000	-0.354319
	31.460000	-0.386552
	31.465000	-0.473583
	31.470000	-0.434903
	31.475000	-0.354319
	31.480000	-0.389776
	31.485000	-0.470360
	31.490000	-0.434903
	31.495000	-0.354319
	31.500000	-0.383329
	31.505000	-0.480030
	31.510000	-0.444573
	31.515000	-0.351095
	31.520000	-0.383329
	31.525000	-0.467136
	31.530000	-0.441349
	31.535000	-0.351095
	31.540000	-0.386552
	31.545000	-0.470360
	31.550000	-0.441349
	31.555000	-0.354319
	31.560000	-0.380106
	31.565000	-0.476806
	31.570000	-0.438126
	31.575000	-0.354319
	31.580000	-0.376882
	31.585000	-0.470360
	31.590000	-0.438126
	31.595000	-0.354319
	31.600000	-0.380106
	31.605000	-0.467136
	31.610000	-0.434903
	31.615000	-0.347872
	31.620000	-0.376882
	31.625000	-0.463913
	31.630000	-0.431679
	31.635000	-0.347872
	31.640000	-0.376882
	31.645000	-0.463913
	31.650000	-0.438126
	31.655000	-0.351095
	31.660000	-0.373659
	31.665000	-0.467136
	31.670000	-0.438126
	31.675000	-0.354319
	31.680000	-0.370436
	31.685000	-0.467136
	31.690000	-0.434903
	31.695000	-0.351095
	31.700000	-0.373659
	31.705000	-0.467136
	31.710000	-0.434903
	31.715000	-0.351095
	31.720000	-0.376882
	31.725000	-0.457466
	31.730000	-0.438126
	31.735000	-0.344649
	31.740000	-0.373659
	31.745000	-0.463913
	31.750000	-0.434903
	31.755000	-0.347872
	31.760000	-0.370436
	31.765000	-0.457466
	31.770000	-0.434903
	31.775000	-0.341425
	31.780000	-0.367212
	31.785000	-0.460690
	31.790000	-0.431679
	31.795000	-0.344649
	31.800000	-0.370436
	31.805000	-0.460690
	31.810000	-0.431679
	31.815000	-0.347872
	31.820000	-0.367212
	31.825000	-0.457466
	31.830000	-0.438126
	31.835000	-0.344649
	31.840000	-0.367212
	31.845000	-0.457466
	31.850000	-0.438126
	31.855000	-0.347872
	31.860000	-0.367212
	31.865000	-0.454243
	31.870000	-0.438126
	31.875000	-0.344649
	31.880000	-0.367212
	31.885000	-0.460690
	31.890000	-0.428456
	31.895000	-0.347872
	31.900000	-0.367212
	31.905000	-0.460690
	31.910000	-0.434903
	31.915000	-0.341425
	31.920000	-0.367212
	31.925000	-0.457466
	31.930000	-0.434903
	31.935000	-0.344649
	31.940000	-0.360765
	31.945000	-0.460690
	31.950000	-0.438126
	31.955000	-0.341425
	31.960000	-0.363989
	31.965000	-0.457466
	31.970000	-0.431679
	31.975000	-0.351095
	31.980000	-0.363989
	31.985000	-0.460690
	31.990000	-0.434903
	31.995000	-0.347872
	32.000000	-0.367212
	32.005000	-0.451019
	32.010000	-0.438126
	32.015000	-0.344649
	32.020000	-0.360765
	32.025000	-0.457466
	32.030000	-0.434903
	32.035000	-0.347872
	32.040000	-0.370436
	32.045000	-0.457466
	32.050000	-0.438126
	32.055000	-0.347872
	32.060000	-0.367212
	32.065000	-0.457466
	32.070000	-0.431679
	32.075000	-0.347872
	32.080000	-0.367212
	32.085000	-0.454243
	32.090000	-0.438126
	32.095000	-0.341425
	32.100000	-0.363989
	32.105000	-0.463913
	32.110000	-0.431679
	32.115000	-0.344649
	32.120000	-0.363989
	32.125000	-0.457466
	32.130000	-0.434903
	32.135000	-0.347872
	32.140000	-0.357542
	32.145000	-0.460690
	32.150000	-0.431679
	32.155000	-0.351095
	32.160000	-0.360765
	32.165000	-0.454243
	32.170000	-0.434903
	32.175000	-0.344649
	32.180000	-0.363989
	32.185000	-0.454243
	32.190000	-0.434903
	32.195000	-0.344649
	32.200000	-0.363989
	32.205000	-0.451019
	32.210000	-0.438126
	32.215000	-0.347872
	32.220000	-0.363989
	32.225000	-0.451019
	32.230000	-0.438126
	32.235000	-0.344649
	32.240000	-0.363989
	32.245000	-0.454243
	32.250000	-0.441349
	32.255000	-0.341425
	32.260000	-0.360765
	32.265000	-0.457466
	32.270000	-0.438126
	32.275000	-0.351095
	32.280000	-0.363989
	32.285000	-0.447796
	32.290000	-0.434903
	32.295000	-0.347872
	32.300000	-0.367212
	32.305000	-0.451019
	32.310000	-0.438126
	32.315000	-0.347872
	32.320000	-0.363989
	32.325000	-0.454243
	32.330000	-0.438126
	32.335000	-0.347872
	32.340000	-0.357542
	32.345000	-0.454243
	32.350000	-0.441349
	32.355000	-0.347872
	32.360000	-0.360765
	32.365000	-0.457466
	32.370000	-0.438126
	32.375000	-0.351095
	32.380000	-0.363989
	32.385000	-0.454243
	32.390000	-0.438126
	32.395000	-0.344649
	32.400000	-0.367212
	32.405000	-0.454243
	32.410000	-0.438126
	32.415000	-0.351095
	32.420000	-0.360765
	32.425000	-0.454243
	32.430000	-0.441349
	32.435000	-0.344649
	32.440000	-0.363989
	32.445000	-0.457466
	32.450000	-0.441349
	32.455000	-0.347872
	32.460000	-0.357542
	32.465000	-0.460690
	32.470000	-0.444573
	32.475000	-0.351095
	32.480000	-0.360765
	32.485000	-0.454243
	32.490000	-0.444573
	32.495000	-0.347872
	32.500000	-0.354319
	32.505000	-0.457466
	32.510000	-0.441349
	32.515000	-0.351095
	32.520000	-0.363989
	32.525000	-0.454243
	32.530000	-0.438126
	32.535000	-0.351095
	32.540000	-0.360765
	32.545000	-0.457466
	32.550000	-0.447796
	32.555000	-0.344649
	32.560000	-0.360765
	32.565000	-0.454243
	32.570000	-0.444573
	32.575000	-0.344649
	32.580000	-0.367212
	32.585000	-0.451019
	32.590000	-0.438126
	32.595000	-0.351095
	32.600000	-0.360765
	32.605000	-0.454243
	32.610000	-0.441349
	32.615000	-0.351095
	32.620000	-0.357542
	32.625000	-0.454243
	32.630000	-0.447796
	32.635000	-0.354319
	32.640000	-0.357542
	32.645000	-0.447796
	32.650000	-0.441349
	32.655000	-0.344649
	32.660000	-0.354319
	32.665000	-0.451019
	32.670000	-0.441349
	32.675000	-0.351095
	32.680000	-0.354319
	32.685000	-0.451019
	32.690000	-0.438126
	32.695000	-0.347872
	32.700000	-0.357542
	32.705000	-0.451019
	32.710000	-0.444573
	32.715000	-0.347872
	32.720000	-0.354319
	32.725000	-0.451019
	32.730000	-0.438126
	32.735000	-0.357542
	32.740000	-0.357542
	32.745000	-0.454243
	32.750000	-0.444573
	32.755000	-0.347872
	32.760000	-0.354319
	32.765000	-0.444573
	32.770000	-0.441349
	32.775000	-0.347872
	32.780000	-0.351095
	32.785000	-0.451019
	32.790000	-0.438126
	32.795000	-0.344649
	32.800000	-0.354319
	32.805000	-0.447796
	32.810000	-0.451019
	32.815000	-0.351095
	32.820000	-0.354319
	32.825000	-0.444573
	32.830000	-0.438126
	32.835000	-0.351095
	32.840000	-0.351095
	32.845000	-0.447796
	32.850000	-0.444573
	32.855000	-0.347872
	32.860000	-0.354319
	32.865000	-0.451019
	32.870000	-0.438126
	32.875000	-0.351095
	32.880000	-0.347872
	32.885000	-0.451019
	32.890000	-0.444573
	32.895000	-0.347872
	32.900000	-0.351095
	32.905000	-0.444573
	32.910000	-0.441349
	32.915000	-0.341425
	32.920000	-0.344649
	32.925000	-0.447796
	32.930000	-0.441349
	32.935000	-0.347872
	32.940000	-0.347872
	32.945000	-0.451019
	32.950000	-0.434903
	32.955000	-0.347872
	32.960000	-0.351095
	32.965000	-0.441349
	32.970000	-0.441349
	32.975000	-0.344649
	32.980000	-0.347872
	32.985000	-0.434903
	32.990000	-0.434903
	32.995000	-0.341425
	33.000000	-0.347872
	33.005000	-0.438126
	33.010000	-0.434903
	33.015000	-0.334979
	33.020000	-0.341425
	33.025000	-0.431679
	33.030000	-0.438126
	33.035000	-0.334979
	33.040000	-0.334979
	33.045000	-0.431679
	33.050000	-0.425233
	33.055000	-0.338202
	33.060000	-0.334979
	33.065000	-0.422009
	33.070000	-0.428456
	33.075000	-0.328532
	33.080000	-0.328532
	33.085000	-0.431679
	33.090000	-0.425233
	33.095000	-0.334979
	33.100000	-0.331755
	33.105000	-0.422009
	33.110000	-0.418786
	33.115000	-0.331755
	33.120000	-0.325308
	33.125000	-0.422009
	33.130000	-0.425233
	33.135000	-0.325308
	33.140000	-0.325308
	33.145000	-0.428456
	33.150000	-0.418786
	33.155000	-0.325308
	33.160000	-0.328532
	33.165000	-0.418786
	33.170000	-0.418786
	33.175000	-0.328532
	33.180000	-0.328532
	33.185000	-0.422009
	33.190000	-0.425233
	33.195000	-0.331755
	33.200000	-0.328532
	33.205000	-0.415563
	33.210000	-0.422009
	33.215000	-0.334979
	33.220000	-0.328532
	33.225000	-0.418786
	33.230000	-0.428456
	33.235000	-0.325308
	33.240000	-0.328532
	33.245000	-0.422009
	33.250000	-0.425233
	33.255000	-0.341425
	33.260000	-0.334979
	33.265000	-0.418786
	33.270000	-0.428456
	33.275000	-0.334979
	33.280000	-0.328532
	33.285000	-0.428456
	33.290000	-0.425233
	33.295000	-0.334979
	33.300000	-0.331755
	33.305000	-0.425233
	33.310000	-0.431679
	33.315000	-0.341425
	33.320000	-0.331755
	33.325000	-0.425233
	33.330000	-0.428456
	33.335000	-0.338202
	33.340000	-0.334979
	33.345000	-0.428456
	33.350000	-0.431679
	33.355000	-0.338202
	33.360000	-0.328532
	33.365000	-0.425233
	33.370000	-0.438126
	33.375000	-0.341425
	33.380000	-0.331755
	33.385000	-0.428456
	33.390000	-0.434903
	33.395000	-0.338202
	33.400000	-0.338202
	33.405000	-0.422009
	33.410000	-0.431679
	33.415000	-0.344649
	33.420000	-0.338202
	33.425000	-0.425233
	33.430000	-0.441349
	33.435000	-0.341425
	33.440000	-0.338202
	33.445000	-0.428456
	33.450000	-0.431679
	33.455000	-0.344649
	33.460000	-0.334979
	33.465000	-0.428456
	33.470000	-0.438126
	33.475000	-0.341425
	33.480000	-0.338202
	33.485000	-0.431679
	33.490000	-0.431679
	33.495000	-0.347872
	33.500000	-0.331755
	33.505000	-0.431679
	33.510000	-0.431679
	33.515000	-0.347872
	33.520000	-0.341425
	33.525000	-0.428456
	33.530000	-0.438126
	33.535000	-0.344649
	33.540000	-0.334979
	33.545000	-0.428456
	33.550000	-0.431679
	33.555000	-0.338202
	33.560000	-0.338202
	33.565000	-0.428456
	33.570000	-0.444573
	33.575000	-0.344649
	33.580000	-0.334979
	33.585000	-0.434903
	33.590000	-0.434903
	33.595000	-0.344649
	33.600000	-0.338202
	33.605000	-0.428456
	33.610000	-0.438126
	33.615000	-0.344649
	33.620000	-0.334979
	33.625000	-0.431679
	33.630000	-0.438126
	33.635000	-0.347872
	33.640000	-0.331755
	33.645000	-0.434903
	33.650000	-0.431679
	33.655000	-0.341425
	33.660000	-0.325308
	33.665000	-0.415563
	33.670000	-0.428456
	33.675000	-0.331755
	33.680000	-0.315638
	33.685000	-0.405892
	33.690000	-0.418786
	33.695000	-0.322085
	33.700000	-0.305968
	33.705000	-0.399446
	33.710000	-0.409116
	33.715000	-0.312415
	33.720000	-0.299522
	33.725000	-0.392999
	33.730000	-0.402669
	33.735000	-0.309192
	33.740000	-0.299522
	33.745000	-0.376882
	33.750000	-0.396222
	33.755000	-0.302745
	33.760000	-0.286628
	33.765000	-0.370436
	33.770000	-0.386552
	33.775000	-0.289852
	33.780000	-0.267288
	33.785000	-0.357542
	33.790000	-0.363989
	33.795000	-0.264065
	33.800000	-0.241501
	33.805000	-0.315638
	33.810000	-0.325308
	33.815000	-0.225384
	33.820000	-0.202821
	33.825000	-0.286628
	33.830000	-0.289852
	33.835000	-0.183481
	33.840000	-0.164141
	33.845000	-0.244725
	33.850000	-0.244725
	33.855000	-0.141577
	33.860000	-0.109343
	33.865000	-0.189927
	33.870000	-0.180257
	33.875000	-0.073886
	33.880000	-0.038430
	33.885000	-0.115790
	33.890000	-0.112567
	33.895000	-0.009419
	33.900000	0.013144
	33.905000	-0.060993
	33.910000	-0.060993
	33.915000	0.038931
	33.920000	0.064718
	33.925000	-0.019089
	33.930000	-0.022313
	33.935000	0.074388
	33.940000	0.093728
	33.945000	0.013144
	33.950000	0.000251
	33.955000	0.103398
	33.960000	0.119515
	33.965000	0.038931
	33.970000	0.022814
	33.975000	0.119515
	33.980000	0.135632
	33.985000	0.048601
	33.990000	0.042154
	33.995000	0.125962
	34.000000	0.151749
	34.005000	0.064718
	34.010000	0.051825
	34.015000	0.129185
	34.020000	0.154972
	34.025000	0.071165
	34.030000	0.051825
	34.035000	0.138855
	34.040000	0.161419
	34.045000	0.080835
	34.050000	0.064718
	34.055000	0.148525
	34.060000	0.171089
	34.065000	0.090505
	34.070000	0.071165
	34.075000	0.151749
	34.080000	0.177536
	34.085000	0.084058
	34.090000	0.067941
	34.095000	0.145302
	34.100000	0.164642
	34.105000	0.084058
	34.110000	0.058271
	34.115000	0.138855
	34.120000	0.154972
	34.125000	0.067941
	34.130000	0.048601
	34.135000	0.125962
	34.140000	0.135632
	34.145000	0.048601
	34.150000	0.026038
	34.155000	0.100175
	34.160000	0.119515
	34.165000	0.029261
	34.170000	0.006697
	34.175000	0.084058
	34.180000	0.096952
	34.185000	0.016368
	34.190000	-0.012643
	34.195000	0.061495
	34.200000	0.087281
	34.205000	-0.006196
	34.210000	-0.028759
	34.215000	0.045378
	34.220000	0.058271
	34.225000	-0.028759
	34.230000	-0.054546
	34.235000	0.019591
	34.240000	0.048601
	34.245000	-0.048100
	34.250000	-0.083557
	34.255000	-0.006196
	34.260000	0.013144
	34.265000	-0.077110
	34.270000	-0.106120
	34.275000	-0.031983
	34.280000	-0.012643
	34.285000	-0.102897
	34.290000	-0.138354
	34.295000	-0.064216
	34.300000	-0.051323
	34.305000	-0.141577
	34.310000	-0.177034
	34.315000	-0.102897
	34.320000	-0.086780
	34.325000	-0.183481
	34.330000	-0.212491
	34.335000	-0.138354
	34.340000	-0.119014
	34.345000	-0.218938
	34.350000	-0.254395
	34.355000	-0.167364
	34.360000	-0.144800
	34.365000	-0.235054
	34.370000	-0.276958
	34.375000	-0.202821
	34.380000	-0.177034
	34.385000	-0.270511
	34.390000	-0.299522
	34.395000	-0.222161
	34.400000	-0.202821
	34.405000	-0.289852
	34.410000	-0.315638
	34.415000	-0.238278
	34.420000	-0.215714
	34.425000	-0.309192
	34.430000	-0.338202
	34.435000	-0.254395
	34.440000	-0.228608
	34.445000	-0.315638
	34.450000	-0.357542
	34.455000	-0.273735
	34.460000	-0.254395
	34.465000	-0.347872
	34.470000	-0.373659
	34.475000	-0.302745
	34.480000	-0.280181
	34.485000	-0.373659
	34.490000	-0.402669
	34.495000	-0.328532
	34.500000	-0.302745
	34.505000	-0.396222
	34.510000	-0.431679
	34.515000	-0.351095
	34.520000	-0.331755
	34.525000	-0.418786
	34.530000	-0.451019
	34.535000	-0.370436
	34.540000	-0.347872
	34.545000	-0.438126
	34.550000	-0.473583
	34.555000	-0.392999
	34.560000	-0.363989
	34.565000	-0.457466
	34.570000	-0.486476
	34.575000	-0.409116
	34.580000	-0.380106
	34.585000	-0.467136
	34.590000	-0.502593
	34.595000	-0.412339
	34.600000	-0.389776
	34.605000	-0.476806
	34.610000	-0.515487
	34.615000	-0.425233
	34.620000	-0.402669
	34.625000	-0.489700
	34.630000	-0.525157
	34.635000	-0.438126
	34.640000	-0.405892
	34.645000	-0.492923
	34.650000	-0.521933
	34.655000	-0.438126
	34.660000	-0.402669
	34.665000	-0.489700
	34.670000	-0.528380
	34.675000	-0.447796
	34.680000	-0.418786
	34.685000	-0.505817
	34.690000	-0.544497
	34.695000	-0.451019
	34.700000	-0.425233
	34.705000	-0.509040
	34.710000	-0.544497
	34.715000	-0.460690
	34.720000	-0.428456
	34.725000	-0.515487
	34.730000	-0.550944
	34.735000	-0.463913
	34.740000	-0.422009
	34.745000	-0.512263
	34.750000	-0.547720
	34.755000	-0.470360
	34.760000	-0.428456
	34.765000	-0.512263
	34.770000	-0.547720
	34.775000	-0.460690
	34.780000	-0.422009
	34.785000	-0.505817
	34.790000	-0.550944
	34.795000	-0.460690
	34.800000	-0.425233
	34.805000	-0.509040
	34.810000	-0.547720
	34.815000	-0.460690
	34.820000	-0.418786
	34.825000	-0.505817
	34.830000	-0.541274
	34.835000	-0.454243
	34.840000	-0.412339
	34.845000	-0.502593
	34.850000	-0.534827
	34.855000	-0.451019
	34.860000	-0.409116
	34.865000	-0.499370
	34.870000	-0.528380
	34.875000	-0.444573
	34.880000	-0.405892
	34.885000	-0.496147
	34.890000	-0.525157
	34.895000	-0.447796
	34.900000	-0.405892
	34.905000	-0.489700
	34.910000	-0.528380
	34.915000	-0.438126
	34.920000	-0.399446
	34.925000	-0.483253
	34.930000	-0.518710
	34.935000	-0.434903
	34.940000	-0.396222
	34.945000	-0.480030
	34.950000	-0.521933
	34.955000	-0.431679
	34.960000	-0.389776
	34.965000	-0.480030
	34.970000	-0.518710
	34.975000	-0.428456
	34.980000	-0.389776
	34.985000	-0.473583
	34.990000	-0.509040
	34.995000	-0.425233
	35.000000	-0.386552
	35.005000	-0.473583
	35.010000	-0.509040
	35.015000	-0.425233
	35.020000	-0.386552
	35.025000	-0.470360
	35.030000	-0.505817
	35.035000	-0.422009
	35.040000	-0.383329
	35.045000	-0.467136
	35.050000	-0.505817
	35.055000	-0.425233
	35.060000	-0.386552
	35.065000	-0.460690
	35.070000	-0.509040
	35.075000	-0.425233
	35.080000	-0.383329
	35.085000	-0.463913
	35.090000	-0.509040
	35.095000	-0.422009
	35.100000	-0.373659
	35.105000	-0.460690
	35.110000	-0.505817
	35.115000	-0.422009
	35.120000	-0.380106
	35.125000	-0.467136
	35.130000	-0.502593
	35.135000	-0.412339
	35.140000	-0.370436
	35.145000	-0.454243
	35.150000	-0.505817
	35.155000	-0.412339
	35.160000	-0.370436
	35.165000	-0.451019
	35.170000	-0.496147
	35.175000	-0.412339
	35.180000	-0.367212
	35.185000	-0.451019
	35.190000	-0.499370
	35.195000	-0.409116
	35.200000	-0.367212
	35.205000	-0.447796
	35.210000	-0.492923
	35.215000	-0.405892
	35.220000	-0.363989
	35.225000	-0.447796
	35.230000	-0.492923
	35.235000	-0.409116
	35.240000	-0.363989
	35.245000	-0.444573
	35.250000	-0.496147
	35.255000	-0.412339
	35.260000	-0.357542
	35.265000	-0.444573
	35.270000	-0.489700
	35.275000	-0.405892
	35.280000	-0.360765
	35.285000	-0.441349
	35.290000	-0.492923
	35.295000	-0.402669
	35.300000	-0.360765
	35.305000	-0.441349
	35.310000	-0.486476
	35.315000	-0.399446
	35.320000	-0.357542
	35.325000	-0.441349
	35.330000	-0.483253
	35.335000	-0.409116
	35.340000	-0.357542
	35.345000	-0.434903
	35.350000	-0.486476
	35.355000	-0.399446
	35.360000	-0.357542
	35.365000	-0.438126
	35.370000	-0.480030
	35.375000	-0.399446
	35.380000	-0.357542
	35.385000	-0.441349
	35.390000	-0.476806
	35.395000	-0.399446
	35.400000	-0.351095
	35.405000	-0.434903
	35.410000	-0.486476
	35.415000	-0.402669
	35.420000	-0.344649
	35.425000	-0.431679
	35.430000	-0.476806
	35.435000	-0.396222
	35.440000	-0.344649
	35.445000	-0.428456
	35.450000	-0.473583
	35.455000	-0.392999
	35.460000	-0.347872
	35.465000	-0.425233
	35.470000	-0.473583
	35.475000	-0.399446
	35.480000	-0.344649
	35.485000	-0.422009
	35.490000	-0.480030
	35.495000	-0.389776
	35.500000	-0.344649
	35.505000	-0.422009
	35.510000	-0.476806
	35.515000	-0.392999
	35.520000	-0.341425
	35.525000	-0.418786
	35.530000	-0.473583
	35.535000	-0.386552
	35.540000	-0.347872
	35.545000	-0.418786
	35.550000	-0.473583
	35.555000	-0.389776
	35.560000	-0.334979
	35.565000	-0.418786
	35.570000	-0.463913
	35.575000	-0.389776
	35.580000	-0.347872
	35.585000	-0.412339
	35.590000	-0.463913
	35.595000	-0.389776
	35.600000	-0.344649
	35.605000	-0.418786
	35.610000	-0.473583
	35.615000	-0.386552
	35.620000	-0.338202
	35.625000	-0.418786
	35.630000	-0.467136
	35.635000	-0.389776
	35.640000	-0.341425
	35.645000	-0.412339
	35.650000	-0.470360
	35.655000	-0.389776
	35.660000	-0.338202
	35.665000	-0.415563
	35.670000	-0.470360
	35.675000	-0.386552
	35.680000	-0.341425
	35.685000	-0.418786
	35.690000	-0.463913
	35.695000	-0.389776
	35.700000	-0.334979
	35.705000	-0.415563
	35.710000	-0.467136
	35.715000	-0.386552
	35.720000	-0.338202
	35.725000	-0.415563
	35.730000	-0.467136
	35.735000	-0.383329
	35.740000	-0.341425
	35.745000	-0.412339
	35.750000	-0.463913
	35.755000	-0.392999
	35.760000	-0.338202
	35.765000	-0.415563
	35.770000	-0.467136
	35.775000	-0.383329
	35.780000	-0.338202
	35.785000	-0.409116
	35.790000	-0.473583
	35.795000	-0.386552
	35.800000	-0.334979
	35.805000	-0.412339
	35.810000	-0.463913
	35.815000	-0.389776
	35.820000	-0.338202
	35.825000	-0.415563
	35.830000	-0.467136
	35.835000	-0.389776
	35.840000	-0.338202
	35.845000	-0.412339
	35.850000	-0.467136
	35.855000	-0.389776
	35.860000	-0.334979
	35.865000	-0.412339
	35.870000	-0.463913
	35.875000	-0.389776
	35.880000	-0.338202
	35.885000	-0.412339
	35.890000	-0.467136
	35.895000	-0.392999
	35.900000	-0.334979
	35.905000	-0.405892
	35.910000	-0.463913
	35.915000	-0.386552
	35.920000	-0.341425
	35.925000	-0.409116
	35.930000	-0.463913
	35.935000	-0.389776
	35.940000	-0.334979
	35.945000	-0.409116
	35.950000	-0.467136
	35.955000	-0.389776
	35.960000	-0.331755
	35.965000	-0.409116
	35.970000	-0.463913
	35.975000	-0.396222
	35.980000	-0.331755
	35.985000	-0.409116
	35.990000	-0.460690
	35.995000	-0.386552
	36.000000	-0.331755
	36.005000	-0.402669
	36.010000	-0.463913
	36.015000	-0.389776
	36.020000	-0.338202
	36.025000	-0.405892
	36.030000	-0.463913
	36.035000	-0.386552
	36.040000	-0.331755
	36.045000	-0.409116
	36.050000	-0.467136
	36.055000	-0.389776
	36.060000	-0.338202
	36.065000	-0.409116
	36.070000	-0.463913
	36.075000	-0.392999
	36.080000	-0.331755
	36.085000	-0.402669
	36.090000	-0.460690
	36.095000	-0.386552
	36.100000	-0.331755
	36.105000	-0.402669
	36.110000	-0.460690
	36.115000	-0.389776
	36.120000	-0.334979
	36.125000	-0.402669
	36.130000	-0.463913
	36.135000	-0.383329
	36.140000	-0.328532
	36.145000	-0.399446
	36.150000	-0.460690
	36.155000	-0.386552
	36.160000	-0.334979
	36.165000	-0.399446
	36.170000	-0.460690
	36.175000	-0.386552
	36.180000	-0.325308
	36.185000	-0.399446
	36.190000	-0.463913
	36.195000	-0.389776
	36.200000	-0.322085
	36.205000	-0.405892
	36.210000	-0.463913
	36.215000	-0.383329
	36.220000	-0.325308
	36.225000	-0.405892
	36.230000	-0.463913
	36.235000	-0.389776
	36.240000	-0.325308
	36.245000	-0.399446
	36.250000	-0.457466
	36.255000	-0.386552
	36.260000	-0.322085
	36.265000	-0.402669
	36.270000	-0.460690
	36.275000	-0.392999
	36.280000	-0.328532
	36.285000	-0.399446
	36.290000	-0.460690
	36.295000	-0.389776
	36.300000	-0.328532
	36.305000	-0.396222
	36.310000	-0.463913
	36.315000	-0.396222
	36.320000	-0.331755
	36.325000	-0.399446
	36.330000	-0.460690
	36.335000	-0.389776
	36.340000	-0.328532
	36.345000	-0.399446
	36.350000	-0.460690
	36.355000	-0.386552
	36.360000	-0.328532
	36.365000	-0.396222
	36.370000	-0.460690
	36.375000	-0.396222
	36.380000	-0.334979
	36.385000	-0.392999
	36.390000	-0.460690
	36.395000	-0.392999
	36.400000	-0.325308
	36.405000	-0.392999
	36.410000	-0.463913
	36.415000	-0.389776
	36.420000	-0.325308
	36.425000	-0.396222
	36.430000	-0.460690
	36.435000	-0.392999
	36.440000	-0.328532
	36.445000	-0.396222
	36.450000	-0.457466
	36.455000	-0.392999
	36.460000	-0.331755
	36.465000	-0.399446
	36.470000	-0.463913
	36.475000	-0.392999
	36.480000	-0.331755
	36.485000	-0.392999
	36.490000	-0.457466
	36.495000	-0.389776
	36.500000	-0.325308
	36.505000	-0.399446
	36.510000	-0.460690
	36.515000	-0.392999
	36.520000	-0.322085
	36.525000	-0.392999
	36.530000	-0.460690
	36.535000	-0.386552
	36.540000	-0.334979
	36.545000	-0.396222
	36.550000	-0.457466
	36.555000	-0.392999
	36.560000	-0.328532
	36.565000	-0.392999
	36.570000	-0.457466
	36.575000	-0.396222
	36.580000	-0.331755
	36.585000	-0.389776
	36.590000	-0.460690
	36.595000	-0.386552
	36.600000	-0.322085
	36.605000	-0.389776
	36.610000	-0.451019
	36.615000	-0.389776
	36.620000	-0.328532
	36.625000	-0.396222
	36.630000	-0.457466
	36.635000	-0.392999
	36.640000	-0.325308
	36.645000	-0.389776
	36.650000	-0.454243
	36.655000	-0.392999
	36.660000	-0.325308
	36.665000	-0.389776
	36.670000	-0.451019
	36.675000	-0.386552
	36.680000	-0.325308
	36.685000	-0.383329
	36.690000	-0.454243
	36.695000	-0.389776
	36.700000	-0.318862
	36.705000	-0.389776
	36.710000	-0.454243
	36.715000	-0.386552
	36.720000	-0.318862
	36.725000	-0.386552
	36.730000	-0.460690
	36.735000	-0.386552
	36.740000	-0.322085
	36.745000	-0.386552
	36.750000	-0.447796
	36.755000	-0.389776
	36.760000	-0.322085
	36.765000	-0.389776
	36.770000	-0.451019
	36.775000	-0.386552
	36.780000	-0.315638
	36.785000	-0.383329
	36.790000	-0.451019
	36.795000	-0.386552
	36.800000	-0.318862
	36.805000	-0.380106
	36.810000	-0.451019
	36.815000	-0.380106
	36.820000	-0.318862
	36.825000	-0.380106
	36.830000	-0.447796
	36.835000	-0.389776
	36.840000	-0.318862
	36.845000	-0.383329
	36.850000	-0.447796
	36.855000	-0.383329
	36.860000	-0.318862
	36.865000	-0.380106
	36.870000	-0.451019
	36.875000	-0.383329
	36.880000	-0.318862
	36.885000	-0.373659
	36.890000	-0.451019
	36.895000	-0.386552
	36.900000	-0.322085
	36.905000	-0.373659
	36.910000	-0.447796
	36.915000	-0.383329
	36.920000	-0.318862
	36.925000	-0.380106
	36.930000	-0.444573
	36.935000	-0.386552
	36.940000	-0.312415
	36.945000	-0.383329
	36.950000	-0.454243
	36.955000	-0.386552
	36.960000	-0.309192
	36.965000	-0.373659
	36.970000	-0.447796
	36.975000	-0.380106
	36.980000	-0.312415
	36.985000	-0.383329
	36.990000	-0.444573
	36.995000	-0.386552
	37.000000	-0.309192
	37.005000	-0.376882
	37.010000	-0.451019
	37.015000	-0.389776
	37.020000	-0.315638
	37.025000	-0.373659
	37.030000	-0.447796
	37.035000	-0.389776
	37.040000	-0.312415
	37.045000	-0.383329
	37.050000	-0.447796
	37.055000	-0.380106
	37.060000	-0.312415
	37.065000	-0.370436
	37.070000	-0.447796
	37.075000	-0.392999
	37.080000	-0.315638
	37.085000	-0.380106
	37.090000	-0.451019
	37.095000	-0.386552
	37.100000	-0.312415
	37.105000	-0.370436
	37.110000	-0.444573
	37.115000	-0.380106
	37.120000	-0.322085
	37.125000	-0.376882
	37.130000	-0.451019
	37.135000	-0.389776
	37.140000	-0.318862
	37.145000	-0.373659
	37.150000	-0.444573
	37.155000	-0.386552
	37.160000	-0.322085
	37.165000	-0.373659
	37.170000	-0.447796
	37.175000	-0.389776
	37.180000	-0.318862
	37.185000	-0.373659
	37.190000	-0.444573
	37.195000	-0.386552
	37.200000	-0.315638
	37.205000	-0.373659
	37.210000	-0.447796
	37.215000	-0.389776
	37.220000	-0.312415
	37.225000	-0.373659
	37.230000	-0.451019
	37.235000	-0.386552
	37.240000	-0.312415
	37.245000	-0.370436
	37.250000	-0.451019
	37.255000	-0.383329
	37.260000	-0.312415
	37.265000	-0.376882
	37.270000	-0.451019
	37.275000	-0.386552
	37.280000	-0.318862
	37.285000	-0.376882
	37.290000	-0.447796
	37.295000	-0.386552
	37.300000	-0.318862
	37.305000	-0.370436
	37.310000	-0.451019
	37.315000	-0.389776
	37.320000	-0.315638
	37.325000	-0.367212
	37.330000	-0.451019
	37.335000	-0.392999
	37.340000	-0.315638
	37.345000	-0.373659
	37.350000	-0.444573
	37.355000	-0.389776
	37.360000	-0.315638
	37.365000	-0.363989
	37.370000	-0.444573
	37.375000	-0.392999
	37.380000	-0.315638
	37.385000	-0.373659
	37.390000	-0.444573
	37.395000	-0.383329
	37.400000	-0.312415
	37.405000	-0.363989
	37.410000	-0.441349
	37.415000	-0.389776
	37.420000	-0.305968
	37.425000	-0.363989
	37.430000	-0.438126
	37.435000	-0.373659
	37.440000	-0.299522
	37.445000	-0.354319
	37.450000	-0.428456
	37.455000	-0.373659
	37.460000	-0.296298
	37.465000	-0.347872
	37.470000	-0.415563
	37.475000	-0.367212
	37.480000	-0.286628
	37.485000	-0.341425
	37.490000	-0.409116
	37.495000	-0.354319
	37.500000	-0.280181
	37.505000	-0.325308
	37.510000	-0.405892
	37.515000	-0.347872
	37.520000	-0.267288
	37.525000	-0.322085
	37.530000	-0.405892
	37.535000	-0.341425
	37.540000	-0.267288
	37.545000	-0.318862
	37.550000	-0.392999
	37.555000	-0.331755
	37.560000	-0.257618
	37.565000	-0.312415
	37.570000	-0.383329
	37.575000	-0.325308
	37.580000	-0.244725
	37.585000	-0.289852
	37.590000	-0.363989
	37.595000	-0.302745
	37.600000	-0.225384
	37.605000	-0.260841
	37.610000	-0.338202
	37.615000	-0.280181
	37.620000	-0.196374
	37.625000	-0.241501
	37.630000	-0.309192
	37.635000	-0.251171
	37.640000	-0.160917
	37.645000	-0.206044
	37.650000	-0.270511
	37.655000	-0.218938
	37.660000	-0.131907
	37.665000	-0.167364
	37.670000	-0.235054
	37.675000	-0.183481
	37.680000	-0.090003
	37.685000	-0.138354
	37.690000	-0.202821
	37.695000	-0.141577
	37.700000	-0.051323
	37.705000	-0.096450
	37.710000	-0.157694
	37.715000	-0.096450
	37.720000	-0.012643
	37.725000	-0.044876
	37.730000	-0.106120
	37.735000	-0.054546
	37.740000	0.022814
	37.745000	-0.006196
	37.750000	-0.073886
	37.755000	-0.025536
	37.760000	0.061495
	37.765000	0.022814
	37.770000	-0.038430
	37.775000	0.013144
	37.780000	0.096952
	37.785000	0.051825
	37.790000	-0.012643
	37.795000	0.038931
	37.800000	0.122738
	37.805000	0.080835
	37.810000	0.006697
	37.815000	0.061495
	37.820000	0.138855
	37.825000	0.090505
	37.830000	0.022814
	37.835000	0.067941
	37.840000	0.145302
	37.845000	0.103398
	37.850000	0.026038
	37.855000	0.077611
	37.860000	0.154972
	37.865000	0.106622
	37.870000	0.029261
	37.875000	0.074388
	37.880000	0.145302
	37.885000	0.100175
	37.890000	0.022814
	37.895000	0.067941
	37.900000	0.138855
	37.905000	0.087281
	37.910000	0.013144
	37.915000	0.058271
	37.920000	0.132408
	37.925000	0.087281
	37.930000	0.009921
	37.935000	0.051825
	37.940000	0.116292
	37.945000	0.077611
	37.950000	-0.002973
	37.955000	0.038931
	37.960000	0.119515
	37.965000	0.061495
	37.970000	-0.015866
	37.975000	0.022814
	37.980000	0.087281
	37.985000	0.042154
	37.990000	-0.038430
	37.995000	-0.012643
	38.000000	0.058271
	38.005000	0.019591
	38.010000	-0.067440
	38.015000	-0.031983
	38.020000	0.035708
	38.025000	-0.012643
	38.030000	-0.090003
	38.035000	-0.054546
	38.040000	0.019591
	38.045000	-0.025536
	38.050000	-0.115790
	38.055000	-0.077110
	38.060000	-0.002973
	38.065000	-0.048100
	38.070000	-0.122237
	38.075000	-0.086780
	38.080000	-0.019089
	38.085000	-0.057770
	38.090000	-0.144800
	38.095000	-0.106120
	38.100000	-0.035206
	38.105000	-0.080333
	38.110000	-0.157694
	38.115000	-0.119014
	38.120000	-0.044876
	38.125000	-0.083557
	38.130000	-0.164141
	38.135000	-0.128684
	38.140000	-0.054546
	38.145000	-0.093227
	38.150000	-0.180257
	38.155000	-0.135130
	38.160000	-0.064216
	38.165000	-0.106120
	38.170000	-0.189927
	38.175000	-0.144800
	38.180000	-0.077110
	38.185000	-0.115790
	38.190000	-0.206044
	38.195000	-0.160917
	38.200000	-0.090003
	38.205000	-0.131907
	38.210000	-0.215714
	38.215000	-0.167364
	38.220000	-0.099673
	38.225000	-0.135130
	38.230000	-0.225384
	38.235000	-0.189927
	38.240000	-0.112567
	38.245000	-0.157694
	38.250000	-0.241501
	38.255000	-0.206044
	38.260000	-0.131907
	38.265000	-0.180257
	38.270000	-0.257618
	38.275000	-0.222161
	38.280000	-0.151247
	38.285000	-0.183481
	38.290000	-0.273735
	38.295000	-0.238278
	38.300000	-0.164141
	38.305000	-0.202821
	38.310000	-0.289852
	38.315000	-0.260841
	38.320000	-0.180257
	38.325000	-0.228608
	38.330000	-0.315638
	38.335000	-0.283405
	38.340000	-0.209268
	38.345000	-0.251171
	38.350000	-0.334979
	38.355000	-0.309192
	38.360000	-0.235054
	38.365000	-0.276958
	38.370000	-0.360765
	38.375000	-0.328532
	38.380000	-0.257618
	38.385000	-0.296298
	38.390000	-0.389776
	38.395000	-0.354319
	38.400000	-0.276958
	38.405000	-0.322085
	38.410000	-0.399446
	38.415000	-0.376882
	38.420000	-0.299522
	38.425000	-0.344649
	38.430000	-0.428456
	38.435000	-0.392999
	38.440000	-0.322085
	38.445000	-0.363989
	38.450000	-0.451019
	38.455000	-0.418786
	38.460000	-0.347872
	38.465000	-0.386552
	38.470000	-0.473583
	38.475000	-0.438126
	38.480000	-0.360765
	38.485000	-0.402669
	38.490000	-0.489700
	38.495000	-0.454243
	38.500000	-0.376882
	38.505000	-0.415563
	38.510000	-0.499370
	38.515000	-0.467136
	38.520000	-0.386552
	38.525000	-0.418786
	38.530000	-0.502593
	38.535000	-0.480030
	38.540000	-0.396222
	38.545000	-0.431679
	38.550000	-0.515487
	38.555000	-0.483253
	38.560000	-0.399446
	38.565000	-0.431679
	38.570000	-0.521933
	38.575000	-0.483253
	38.580000	-0.402669
	38.585000	-0.434903
	38.590000	-0.518710
	38.595000	-0.489700
	38.600000	-0.402669
	38.605000	-0.431679
	38.610000	-0.528380
	38.615000	-0.486476
	38.620000	-0.405892
	38.625000	-0.431679
	38.630000	-0.525157
	38.635000	-0.489700
	38.640000	-0.402669
	38.645000	-0.434903
	38.650000	-0.521933
	38.655000	-0.489700
	38.660000	-0.402669
	38.665000	-0.438126
	38.670000	-0.521933
	38.675000	-0.483253
	38.680000	-0.402669
	38.685000	-0.438126
	38.690000	-0.521933
	38.695000	-0.483253
	38.700000	-0.399446
	38.705000	-0.431679
	38.710000	-0.515487
	38.715000	-0.480030
	38.720000	-0.392999
	38.725000	-0.431679
	38.730000	-0.512263
	38.735000	-0.480030
	38.740000	-0.396222
	38.745000	-0.428456
	38.750000	-0.512263
	38.755000	-0.476806
	38.760000	-0.392999
	38.765000	-0.422009
	38.770000	-0.512263
	38.775000	-0.483253
	38.780000	-0.396222
	38.785000	-0.425233
	38.790000	-0.502593
	38.795000	-0.476806
	38.800000	-0.386552
	38.805000	-0.422009
	38.810000	-0.512263
	38.815000	-0.473583
	38.820000	-0.386552
	38.825000	-0.412339
	38.830000	-0.505817
	38.835000	-0.470360
	38.840000	-0.380106
	38.845000	-0.409116
	38.850000	-0.492923
	38.855000	-0.470360
	38.860000	-0.383329
	38.865000	-0.405892
	38.870000	-0.496147
	38.875000	-0.463913
	38.880000	-0.376882
	38.885000	-0.405892
	38.890000	-0.492923
	38.895000	-0.463913
	38.900000	-0.373659
	38.905000	-0.412339
	38.910000	-0.489700
	38.915000	-0.454243
	38.920000	-0.367212
	38.925000	-0.392999
	38.930000	-0.486476
	38.935000	-0.457466
	38.940000	-0.367212
	38.945000	-0.389776
	38.950000	-0.480030
	38.955000	-0.454243
	38.960000	-0.360765
	38.965000	-0.392999
	38.970000	-0.476806
	38.975000	-0.444573
	38.980000	-0.354319
	38.985000	-0.386552
	38.990000	-0.473583
	38.995000	-0.451019
	39.000000	-0.357542
	39.005000	-0.380106
	39.010000	-0.476806
	39.015000	-0.441349
	39.020000	-0.347872
	39.025000	-0.383329
	39.030000	-0.467136
	39.035000	-0.441349
	39.040000	-0.357542
	39.045000	-0.383329
	39.050000	-0.467136
	39.055000	-0.438126
	39.060000	-0.351095
	39.065000	-0.376882
	39.070000	-0.470360
	39.075000	-0.434903
	39.080000	-0.354319
	39.085000	-0.376882
	39.090000	-0.460690
	39.095000	-0.441349
	39.100000	-0.347872
	39.105000	-0.367212
	39.110000	-0.457466
	39.115000	-0.428456
	39.120000	-0.351095
	39.125000	-0.370436
	39.130000	-0.467136
	39.135000	-0.438126
	39.140000	-0.347872
	39.145000	-0.370436
	39.150000	-0.460690
	39.155000	-0.431679
	39.160000	-0.338202
	39.165000	-0.373659
	39.170000	-0.457466
	39.175000	-0.434903
	39.180000	-0.341425
	39.185000	-0.363989
	39.190000	-0.463913
	39.195000	-0.428456
	39.200000	-0.347872
	39.205000	-0.370436
	39.210000	-0.451019
	39.215000	-0.431679
	39.220000	-0.341425
	39.225000	-0.363989
	39.230000	-0.454243
	39.235000	-0.425233
	39.240000	-0.347872
	39.245000	-0.363989
	39.250000	-0.454243
	39.255000	-0.428456
	39.260000	-0.338202
	39.265000	-0.360765
	39.270000	-0.457466
	39.275000	-0.431679
	39.280000	-0.341425
	39.285000	-0.360765
	39.290000	-0.451019
	39.295000	-0.428456
	39.300000	-0.341425
	39.305000	-0.363989
	39.310000	-0.447796
	39.315000	-0.431679
	39.320000	-0.344649
	39.325000	-0.354319
	39.330000	-0.460690
	39.335000	-0.425233
	39.340000	-0.338202
	39.345000	-0.360765
	39.350000	-0.454243
	39.355000	-0.425233
	39.360000	-0.338202
	39.365000	-0.357542
	39.370000	-0.454243
	39.375000	-0.428456
	39.380000	-0.341425
	39.385000	-0.357542
	39.390000	-0.451019
	39.395000	-0.438126
	39.400000	-0.334979
	39.405000	-0.360765
	39.410000	-0.454243
	39.415000	-0.434903
	39.420000	-0.341425
	39.425000	-0.360765
	39.430000	-0.454243
	39.435000	-0.428456
	39.440000	-0.338202
	39.445000	-0.360765
	39.450000	-0.451019
	39.455000	-0.431679
	39.460000	-0.341425
	39.465000	-0.360765
	39.470000	-0.454243
	39.475000	-0.431679
	39.480000	-0.341425
	39.485000	-0.354319
	39.490000	-0.447796
	39.495000	-0.425233
	39.500000	-0.344649
	39.505000	-0.360765
	39.510000	-0.451019
	39.515000	-0.431679
	39.520000	-0.341425
	39.525000	-0.363989
	39.530000	-0.451019
	39.535000	-0.434903
	39.540000	-0.334979
	39.545000	-0.360765
	39.550000	-0.451019
	39.555000	-0.431679
	39.560000	-0.334979
	39.565000	-0.357542
	39.570000	-0.451019
	39.575000	-0.428456
	39.580000	-0.341425
	39.585000	-0.347872
	39.590000	-0.447796
	39.595000	-0.422009
	39.600000	-0.338202
	39.605000	-0.360765
	39.610000	-0.441349
	39.615000	-0.431679
	39.620000	-0.338202
	39.625000	-0.354319
	39.630000	-0.444573
	39.635000	-0.428456
	39.640000	-0.341425
	39.645000	-0.360765
	39.650000	-0.441349
	39.655000	-0.431679
	39.660000	-0.341425
	39.665000	-0.354319
	39.670000	-0.447796
	39.675000	-0.425233
	39.680000	-0.338202
	39.685000	-0.360765
	39.690000	-0.441349
	39.695000	-0.438126
	39.700000	-0.334979
	39.705000	-0.351095
	39.710000	-0.444573
	39.715000	-0.428456
	39.720000	-0.338202
	39.725000	-0.354319
	39.730000	-0.447796
	39.735000	-0.425233
	39.740000	-0.338202
	39.745000	-0.347872
	39.750000	-0.444573
	39.755000	-0.431679
	39.760000	-0.334979
	39.765000	-0.347872
	39.770000	-0.444573
	39.775000	-0.431679
	39.780000	-0.347872
	39.785000	-0.351095
	39.790000	-0.444573
	39.795000	-0.428456
	39.800000	-0.341425
	39.805000	-0.347872
	39.810000	-0.447796
	39.815000	-0.425233
	39.820000	-0.338202
	39.825000	-0.347872
	39.830000	-0.444573
	39.835000	-0.431679
	39.840000	-0.334979
	39.845000	-0.351095
	39.850000	-0.441349
	39.855000	-0.438126
	39.860000	-0.341425
	39.865000	-0.347872
	39.870000	-0.444573
	39.875000	-0.431679
	39.880000	-0.338202
	39.885000	-0.344649
	39.890000	-0.444573
	39.895000	-0.431679
	39.900000	-0.341425
	39.905000	-0.347872
	39.910000	-0.438126
	39.915000	-0.431679
	39.920000	-0.338202
	39.925000	-0.344649
	39.930000	-0.444573
	39.935000	-0.434903
	39.940000	-0.338202
	39.945000	-0.344649
	39.950000	-0.441349
	39.955000	-0.431679
	39.960000	-0.344649
	39.965000	-0.354319
	39.970000	-0.444573
	39.975000	-0.431679
	39.980000	-0.341425
	39.985000	-0.347872
	39.990000	-0.441349
	39.995000	-0.431679
	40.000000	-0.341425
	40.005000	-0.347872
	40.010000	-0.441349
	40.015000	-0.428456
	40.020000	-0.347872
	40.025000	-0.344649
	40.030000	-0.441349
	40.035000	-0.434903
	40.040000	-0.341425
	40.045000	-0.351095
	40.050000	-0.444573
	40.055000	-0.431679
	40.060000	-0.338202
	40.065000	-0.347872
	40.070000	-0.438126
	40.075000	-0.434903
	40.080000	-0.341425
	40.085000	-0.341425
	40.090000	-0.441349
	40.095000	-0.434903
	40.100000	-0.338202
	40.105000	-0.351095
	40.110000	-0.441349
	40.115000	-0.431679
	40.120000	-0.341425
	40.125000	-0.347872
	40.130000	-0.447796
	40.135000	-0.441349
	40.140000	-0.341425
	40.145000	-0.351095
	40.150000	-0.438126
	40.155000	-0.434903
	40.160000	-0.341425
	40.165000	-0.344649
	40.170000	-0.447796
	40.175000	-0.434903
	40.180000	-0.341425
	40.185000	-0.347872
	40.190000	-0.438126
	40.195000	-0.438126
	40.200000	-0.341425
	40.205000	-0.344649
	40.210000	-0.444573
	40.215000	-0.431679
	40.220000	-0.341425
	40.225000	-0.341425
	40.230000	-0.444573
	40.235000	-0.434903
	40.240000	-0.341425
	40.245000	-0.344649
	40.250000	-0.438126
	40.255000	-0.438126
	40.260000	-0.341425
	40.265000	-0.344649
	40.270000	-0.434903
	40.275000	-0.434903
	40.280000	-0.338202
	40.285000	-0.334979
	40.290000	-0.438126
	40.295000	-0.428456
	40.300000	-0.331755
	40.305000	-0.338202
	40.310000	-0.425233
	40.315000	-0.422009
	40.320000	-0.331755
	40.325000	-0.334979
	40.330000	-0.422009
	40.335000	-0.422009
	40.340000	-0.325308
	40.345000	-0.325308
	40.350000	-0.415563
	40.355000	-0.418786
	40.360000	-0.318862
	40.365000	-0.322085
	40.370000	-0.412339
	40.375000	-0.412339
	40.380000	-0.315638
	40.385000	-0.318862
	40.390000	-0.405892
	40.395000	-0.409116
	40.400000	-0.315638
	40.405000	-0.318862
	40.410000	-0.409116
	40.415000	-0.409116
	40.420000	-0.309192
	40.425000	-0.312415
	40.430000	-0.405892
	40.435000	-0.399446
	40.440000	-0.305968
	40.445000	-0.305968
	40.450000	-0.402669
	40.455000	-0.396222
	40.460000	-0.299522
	40.465000	-0.296298
	40.470000	-0.389776
	40.475000	-0.386552
	40.480000	-0.296298
	40.485000	-0.289852
	40.490000	-0.380106
	40.495000	-0.380106
	40.500000	-0.280181
	40.505000	-0.283405
	40.510000	-0.367212
	40.515000	-0.360765
	40.520000	-0.260841
	40.525000	-0.247948
	40.530000	-0.341425
	40.535000	-0.338202
	40.540000	-0.238278
	40.545000	-0.225384
	40.550000	-0.322085
	40.555000	-0.322085
	40.560000	-0.218938
	40.565000	-0.206044
	40.570000	-0.289852
	40.575000	-0.283405
	40.580000	-0.183481
	40.585000	-0.160917
	40.590000	-0.247948
	40.595000	-0.238278
	40.600000	-0.131907
	40.605000	-0.106120
	40.610000	-0.183481
	40.615000	-0.170587
	40.620000	-0.054546
	40.625000	-0.031983
	40.630000	-0.102897
	40.635000	-0.093227
	40.640000	0.016368
	40.645000	0.042154
	40.650000	-0.038430
	40.655000	-0.025536
	40.660000	0.077611
	40.665000	0.090505
	40.670000	0.013144
	40.675000	0.016368
	40.680000	0.109845
	40.685000	0.125962
	40.690000	0.055048
	40.695000	0.051825
	40.700000	0.145302
	40.705000	0.158195
	40.710000	0.074388
	40.715000	0.071165
	40.720000	0.161419
	40.725000	0.180759
	40.730000	0.090505
	40.735000	0.084058
	40.740000	0.177536
	40.745000	0.183982
	40.750000	0.093728
	40.755000	0.090505
	40.760000	0.180759
	40.765000	0.187206
	40.770000	0.096952
	40.775000	0.090505
	40.780000	0.171089
	40.785000	0.180759
	40.790000	0.090505
	40.795000	0.087281
	40.800000	0.164642
	40.805000	0.171089
	40.810000	0.084058
	40.815000	0.074388
	40.820000	0.148525
	40.825000	0.164642
	40.830000	0.071165
	40.835000	0.061495
	40.840000	0.145302
	40.845000	0.154972
	40.850000	0.064718
	40.855000	0.055048
	40.860000	0.135632
	40.865000	0.148525
	40.870000	0.058271
	40.875000	0.042154
	40.880000	0.125962
	40.885000	0.132408
	40.890000	0.045378
	40.895000	0.032484
	40.900000	0.109845
	40.905000	0.119515
	40.910000	0.022814
	40.915000	0.009921
	40.920000	0.090505
	40.925000	0.093728
	40.930000	0.000251
	40.935000	-0.009419
	40.940000	0.064718
	40.945000	0.077611
	40.950000	-0.015866
	40.955000	-0.031983
	40.960000	0.051825
	40.965000	0.048601
	40.970000	-0.038430
	40.975000	-0.051323
	40.980000	0.022814
	40.985000	0.035708
	40.990000	-0.064216
	40.995000	-0.070663
	41.000000	0.009921
	41.005000	0.016368
	41.010000	-0.080333
	41.015000	-0.099673
	41.020000	-0.022313
	41.025000	-0.006196
	41.030000	-0.096450
	41.035000	-0.112567
	41.040000	-0.031983
	41.045000	-0.015866
	41.050000	-0.102897
	41.055000	-0.122237
	41.060000	-0.035206
	41.065000	-0.031983
	41.070000	-0.115790
	41.075000	-0.128684
	41.080000	-0.051323
	41.085000	-0.031983
	41.090000	-0.125460
	41.095000	-0.141577
	41.100000	-0.054546
	41.105000	-0.048100
	41.110000	-0.128684
	41.115000	-0.144800
	41.120000	-0.067440
	41.125000	-0.054546
	41.130000	-0.138354
	41.135000	-0.154470
	41.140000	-0.067440
	41.145000	-0.057770
	41.150000	-0.144800
	41.155000	-0.157694
	41.160000	-0.077110
	41.165000	-0.060993
	41.170000	-0.148024
	41.175000	-0.170587
	41.180000	-0.090003
	41.185000	-0.070663
	41.190000	-0.164141
	41.195000	-0.189927
	41.200000	-0.106120
	41.205000	-0.099673
	41.210000	-0.189927
	41.215000	-0.209268
	41.220000	-0.135130
	41.225000	-0.125460
	41.230000	-0.222161
	41.235000	-0.241501
	41.240000	-0.167364
	41.245000	-0.154470
	41.250000	-0.254395
	41.255000	-0.280181
	41.260000	-0.206044
	41.265000	-0.196374
	41.270000	-0.289852
	41.275000	-0.325308
	41.280000	-0.247948
	41.285000	-0.235054
	41.290000	-0.334979
	41.295000	-0.363989
	41.300000	-0.289852
	41.305000	-0.283405
	41.310000	-0.386552
	41.315000	-0.418786
	41.320000	-0.334979
	41.325000	-0.338202
	41.330000	-0.431679
	41.335000	-0.460690
	41.340000	-0.389776
	41.345000	-0.370436
	41.350000	-0.470360
	41.355000	-0.499370
	41.360000	-0.425233
	41.365000	-0.409116
	41.370000	-0.499370
	41.375000	-0.531603
	41.380000	-0.447796
	41.385000	-0.428456
	41.390000	-0.521933
	41.395000	-0.538050
	41.400000	-0.457466
	41.405000	-0.441349
	41.410000	-0.534827
	41.415000	-0.557390
	41.420000	-0.470360
	41.425000	-0.451019
	41.430000	-0.534827
	41.435000	-0.560614
	41.440000	-0.476806
	41.445000	-0.451019
	41.450000	-0.544497
	41.455000	-0.563837
	41.460000	-0.480030
	41.465000	-0.454243
	41.470000	-0.538050
	41.475000	-0.563837
	41.480000	-0.476806
	41.485000	-0.457466
	41.490000	-0.541274
	41.495000	-0.567060
	41.500000	-0.476806
	41.505000	-0.451019
	41.510000	-0.547720
	41.515000	-0.560614
	41.520000	-0.470360
	41.525000	-0.457466
	41.530000	-0.538050
	41.535000	-0.560614
	41.540000	-0.470360
	41.545000	-0.444573
	41.550000	-0.534827
	41.555000	-0.554167
	41.560000	-0.470360
	41.565000	-0.434903
	41.570000	-0.534827
	41.575000	-0.547720
	41.580000	-0.463913
	41.585000	-0.438126
	41.590000	-0.531603
	41.595000	-0.544497
	41.600000	-0.460690
	41.605000	-0.428456
	41.610000	-0.518710
	41.615000	-0.544497
	41.620000	-0.457466
	41.625000	-0.428456
	41.630000	-0.518710
	41.635000	-0.541274
	41.640000	-0.447796
	41.645000	-0.422009
	41.650000	-0.512263
	41.655000	-0.538050
	41.660000	-0.451019
	41.665000	-0.418786
	41.670000	-0.505817
	41.675000	-0.534827
	41.680000	-0.444573
	41.685000	-0.415563
	41.690000	-0.502593
	41.695000	-0.521933
	41.700000	-0.441349
	41.705000	-0.405892
	41.710000	-0.502593
	41.715000	-0.521933
	41.720000	-0.431679
	41.725000	-0.402669
	41.730000	-0.492923
	41.735000	-0.518710
	41.740000	-0.431679
	41.745000	-0.396222
	41.750000	-0.492923
	41.755000	-0.515487
	41.760000	-0.422009
	41.765000	-0.392999
	41.770000	-0.486476
	41.775000	-0.512263
	41.780000	-0.422009
	41.785000	-0.392999
	41.790000	-0.480030
	41.795000	-0.512263
	41.800000	-0.422009
	41.805000	-0.389776
	41.810000	-0.476806
	41.815000	-0.509040
	41.820000	-0.418786
	41.825000	-0.386552
	41.830000	-0.476806
	41.835000	-0.512263
	41.840000	-0.415563
	41.845000	-0.389776
	41.850000	-0.480030
	41.855000	-0.496147
	41.860000	-0.415563
	41.865000	-0.386552
	41.870000	-0.467136
	41.875000	-0.499370
	41.880000	-0.412339
	41.885000	-0.386552
	41.890000	-0.467136
	41.895000	-0.509040
	41.900000	-0.412339
	41.905000	-0.383329
	41.910000	-0.467136
	41.915000	-0.499370
	41.920000	-0.412339
	41.925000	-0.380106
	41.930000	-0.467136
	41.935000	-0.496147
	41.940000	-0.412339
	41.945000	-0.376882
	41.950000	-0.460690
	41.955000	-0.499370
	41.960000	-0.402669
	41.965000	-0.376882
	41.970000	-0.457466
	41.975000	-0.499370
	41.980000	-0.405892
	41.985000	-0.376882
	41.990000	-0.463913
	41.995000	-0.492923
	42.000000	-0.402669
	42.005000	-0.370436
	42.010000	-0.460690
	42.015000	-0.486476
	42.020000	-0.409116
	42.025000	-0.373659
	42.030000	-0.454243
	42.035000	-0.489700
	42.040000	-0.402669
	42.045000	-0.373659
	42.050000	-0.457466
	42.055000	-0.486476
	42.060000	-0.402669
	42.065000	-0.367212
	42.070000	-0.457466
	42.075000	-0.489700
	42.080000	-0.392999
	42.085000	-0.363989
	42.090000	-0.451019
	42.095000	-0.483253
	42.100000	-0.396222
	42.105000	-0.360765
	42.110000	-0.451019
	42.115000	-0.486476
	42.120000	-0.396222
	42.125000	-0.367212
	42.130000	-0.447796
	42.135000	-0.476806
	42.140000	-0.386552
	42.145000	-0.354319
	42.150000	-0.434903
	42.155000	-0.480030
	42.160000	-0.389776
	42.165000	-0.351095
	42.170000	-0.441349
	42.175000	-0.476806
	42.180000	-0.392999
	42.185000	-0.354319
	42.190000	-0.438126
	42.195000	-0.476806
	42.200000	-0.392999
	42.205000	-0.351095
	42.210000	-0.441349
	42.215000	-0.473583
	42.220000	-0.389776
	42.225000	-0.351095
	42.230000	-0.438126
	42.235000	-0.476806
	42.240000	-0.386552
	42.245000	-0.347872
	42.250000	-0.434903
	42.255000	-0.473583
	42.260000	-0.389776
	42.265000	-0.347872
	42.270000	-0.441349
	42.275000	-0.473583
	42.280000	-0.389776
	42.285000	-0.354319
	42.290000	-0.438126
	42.295000	-0.473583
	42.300000	-0.389776
	42.305000	-0.347872
	42.310000	-0.434903
	42.315000	-0.473583
	42.320000	-0.383329
	42.325000	-0.354319
	42.330000	-0.431679
	42.335000	-0.470360
	42.340000	-0.386552
	42.345000	-0.341425
	42.350000	-0.425233
	42.355000	-0.473583
	42.360000	-0.386552
	42.365000	-0.347872
	42.370000	-0.431679
	42.375000	-0.467136
	42.380000	-0.383329
	42.385000	-0.344649
	42.390000	-0.428456
	42.395000	-0.463913
	42.400000	-0.386552
	42.405000	-0.341425
	42.410000	-0.425233
	42.415000	-0.473583
	42.420000	-0.383329
	42.425000	-0.347872
	42.430000	-0.428456
	42.435000	-0.467136
	42.440000	-0.380106
	42.445000	-0.338202
	42.450000	-0.422009
	42.455000	-0.457466
	42.460000	-0.380106
	42.465000	-0.338202
	42.470000	-0.422009
	42.475000	-0.457466
	42.480000	-0.376882
	42.485000	-0.338202
	42.490000	-0.422009
	42.495000	-0.457466
	42.500000	-0.380106
	42.505000	-0.341425
	42.510000	-0.415563
	42.515000	-0.463913
	42.520000	-0.383329
	42.525000	-0.331755
	42.530000	-0.418786
	42.535000	-0.457466
	42.540000	-0.373659
	42.545000	-0.331755
	42.550000	-0.418786
	42.555000	-0.460690
	42.560000	-0.380106
	42.565000	-0.331755
	42.570000	-0.412339
	42.575000	-0.463913
	42.580000	-0.376882
	42.585000	-0.334979
	42.590000	-0.415563
	42.595000	-0.460690
	42.600000	-0.373659
	42.605000	-0.331755
	42.610000	-0.412339
	42.615000	-0.457466
	42.620000	-0.373659
	42.625000	-0.331755
	42.630000	-0.412339
	42.635000	-0.460690
	42.640000	-0.373659
	42.645000	-0.331755
	42.650000	-0.412339
	42.655000	-0.460690
	42.660000	-0.376882
	42.665000	-0.331755
	42.670000	-0.409116
	42.675000	-0.457466
	42.680000	-0.370436
	42.685000	-0.325308
	42.690000	-0.412339
	42.695000	-0.447796
	42.700000	-0.373659
	42.705000	-0.331755
	42.710000	-0.412339
	42.715000	-0.457466
	42.720000	-0.376882
	42.725000	-0.331755
	42.730000	-0.409116
	42.735000	-0.451019
	42.740000	-0.370436
	42.745000	-0.331755
	42.750000	-0.415563
	42.755000	-0.451019
	42.760000	-0.370436
	42.765000	-0.328532
	42.770000	-0.405892
	42.775000	-0.454243
	42.780000	-0.373659
	42.785000	-0.331755
	42.790000	-0.405892
	42.795000	-0.454243
	42.800000	-0.376882
	42.805000	-0.325308
	42.810000	-0.402669
	42.815000	-0.454243
	42.820000	-0.373659
	42.825000	-0.322085
	42.830000	-0.405892
	42.835000	-0.457466
	42.840000	-0.373659
	42.845000	-0.325308
	42.850000	-0.402669
	42.855000	-0.454243
	42.860000	-0.376882
	42.865000	-0.318862
	42.870000	-0.402669
	42.875000	-0.451019
	42.880000	-0.373659
	42.885000	-0.322085
	42.890000	-0.402669
	42.895000	-0.451019
	42.900000	-0.373659
	42.905000	-0.325308
	42.910000	-0.402669
	42.915000	-0.447796
	42.920000	-0.367212
	42.925000	-0.331755
	42.930000	-0.405892
	42.935000	-0.454243
	42.940000	-0.373659
	42.945000	-0.328532
	42.950000	-0.402669
	42.955000	-0.451019
	42.960000	-0.376882
	42.965000	-0.322085
	42.970000	-0.405892
	42.975000	-0.447796
	42.980000	-0.376882
	42.985000	-0.318862
	42.990000	-0.396222
	42.995000	-0.447796
	43.000000	-0.370436
	43.005000	-0.328532
	43.010000	-0.399446
	43.015000	-0.447796
	43.020000	-0.367212
	43.025000	-0.325308
	43.030000	-0.396222
	43.035000	-0.447796
	43.040000	-0.367212
	43.045000	-0.318862
	43.050000	-0.399446
	43.055000	-0.451019
	43.060000	-0.367212
	43.065000	-0.322085
	43.070000	-0.396222
	43.075000	-0.451019
	43.080000	-0.370436
	43.085000	-0.318862
	43.090000	-0.399446
	43.095000	-0.447796
	43.100000	-0.380106
	43.105000	-0.325308
	43.110000	-0.399446
	43.115000	-0.454243
	43.120000	-0.376882
	43.125000	-0.318862
	43.130000	-0.399446
	43.135000	-0.454243
	43.140000	-0.373659
	43.145000	-0.322085
	43.150000	-0.392999
	43.155000	-0.447796
	43.160000	-0.370436
	43.165000	-0.318862
	43.170000	-0.396222
	43.175000	-0.444573
	43.180000	-0.373659
	43.185000	-0.322085
	43.190000	-0.392999
	43.195000	-0.451019
	43.200000	-0.373659
	43.205000	-0.318862
	43.210000	-0.389776
	43.215000	-0.444573
	43.220000	-0.370436
	43.225000	-0.315638
	43.230000	-0.392999
	43.235000	-0.444573
	43.240000	-0.373659
	43.245000	-0.315638
	43.250000	-0.392999
	43.255000	-0.451019
	43.260000	-0.373659
	43.265000	-0.322085
	43.270000	-0.392999
	43.275000	-0.438126
	43.280000	-0.370436
	43.285000	-0.315638
	43.290000	-0.389776
	43.295000	-0.438126
	43.300000	-0.370436
	43.305000	-0.318862
	43.310000	-0.396222
	43.315000	-0.451019
	43.320000	-0.373659
	43.325000	-0.318862
	43.330000	-0.392999
	43.335000	-0.451019
	43.340000	-0.370436
	43.345000	-0.318862
	43.350000	-0.389776
	43.355000	-0.447796
	43.360000	-0.376882
	43.365000	-0.322085
	43.370000	-0.396222
	43.375000	-0.441349
	43.380000	-0.373659
	43.385000	-0.322085
	43.390000	-0.392999
	43.395000	-0.451019
	43.400000	-0.373659
	43.405000	-0.322085
	43.410000	-0.399446
	43.415000	-0.438126
	43.420000	-0.373659
	43.425000	-0.312415
	43.430000	-0.389776
	43.435000	-0.447796
	43.440000	-0.370436
	43.445000	-0.318862
	43.450000	-0.392999
	43.455000	-0.451019
	43.460000	-0.373659
	43.465000	-0.318862
	43.470000	-0.389776
	43.475000	-0.447796
	43.480000	-0.376882
	43.485000	-0.318862
	43.490000	-0.386552
	43.495000	-0.447796
	43.500000	-0.380106
	43.505000	-0.322085
	43.510000	-0.389776
	43.515000	-0.451019
	43.520000	-0.376882
	43.525000	-0.318862
	43.530000	-0.389776
	43.535000	-0.451019
	43.540000	-0.376882
	43.545000	-0.315638
	43.550000	-0.396222
	43.555000	-0.451019
	43.560000	-0.376882
	43.565000	-0.312415
	43.570000	-0.392999
	43.575000	-0.451019
	43.580000	-0.380106
	43.585000	-0.315638
	43.590000	-0.392999
	43.595000	-0.451019
	43.600000	-0.376882
	43.605000	-0.322085
	43.610000	-0.396222
	43.615000	-0.451019
	43.620000	-0.376882
	43.625000	-0.322085
	43.630000	-0.392999
	43.635000	-0.457466
	43.640000	-0.380106
	43.645000	-0.318862
	43.650000	-0.392999
	43.655000	-0.451019
	43.660000	-0.383329
	43.665000	-0.318862
	43.670000	-0.383329
	43.675000	-0.451019
	43.680000	-0.380106
	43.685000	-0.318862
	43.690000	-0.389776
	43.695000	-0.447796
	43.700000	-0.376882
	43.705000	-0.312415
	43.710000	-0.389776
	43.715000	-0.451019
	43.720000	-0.376882
	43.725000	-0.318862
	43.730000	-0.386552
	43.735000	-0.444573
	43.740000	-0.376882
	43.745000	-0.318862
	43.750000	-0.386552
	43.755000	-0.451019
	43.760000	-0.373659
	43.765000	-0.318862
	43.770000	-0.389776
	43.775000	-0.447796
	43.780000	-0.376882
	43.785000	-0.315638
	43.790000	-0.389776
	43.795000	-0.451019
	43.800000	-0.380106
	43.805000	-0.318862
	43.810000	-0.389776
	43.815000	-0.441349
	43.820000	-0.373659
	43.825000	-0.318862
	43.830000	-0.389776
	43.835000	-0.447796
	43.840000	-0.373659
	43.845000	-0.322085
	43.850000	-0.383329
	43.855000	-0.447796
	43.860000	-0.376882
	43.865000	-0.315638
	43.870000	-0.380106
	43.875000	-0.447796
	43.880000	-0.376882
	43.885000	-0.309192
	43.890000	-0.380106
	43.895000	-0.447796
	43.900000	-0.373659
	43.905000	-0.312415
	43.910000	-0.380106
	43.915000	-0.447796
	43.920000	-0.373659
	43.925000	-0.315638
	43.930000	-0.383329
	43.935000	-0.447796
	43.940000	-0.376882
	43.945000	-0.315638
	43.950000	-0.376882
	43.955000	-0.441349
	43.960000	-0.380106
	43.965000	-0.312415
	43.970000	-0.380106
	43.975000	-0.447796
	43.980000	-0.376882
	43.985000	-0.312415
	43.990000	-0.376882
	43.995000	-0.454243
	44.000000	-0.376882
	44.005000	-0.312415
	44.010000	-0.380106
	44.015000	-0.447796
	44.020000	-0.376882
	44.025000	-0.309192
	44.030000	-0.376882
	44.035000	-0.444573
	44.040000	-0.376882
	44.045000	-0.315638
	44.050000	-0.380106
	44.055000	-0.444573
	44.060000	-0.373659
	44.065000	-0.318862
	44.070000	-0.383329
	44.075000	-0.447796
	44.080000	-0.380106
	44.085000	-0.312415
	44.090000	-0.380106
	44.095000	-0.444573
	44.100000	-0.376882
	44.105000	-0.312415
	44.110000	-0.386552
	44.115000	-0.447796
	44.120000	-0.380106
	44.125000	-0.309192
	44.130000	-0.383329
	44.135000	-0.444573
	44.140000	-0.383329
	44.145000	-0.318862
	44.150000	-0.383329
	44.155000	-0.451019
	44.160000	-0.380106
	44.165000	-0.312415
	44.170000	-0.383329
	44.175000	-0.451019
	44.180000	-0.376882
	44.185000	-0.312415
	44.190000	-0.380106
	44.195000	-0.444573
	44.200000	-0.380106
	44.205000	-0.312415
	44.210000	-0.376882
	44.215000	-0.444573
	44.220000	-0.380106
	44.225000	-0.325308
	44.230000	-0.380106
	44.235000	-0.447796
	44.240000	-0.373659
	44.245000	-0.315638
	44.250000	-0.380106
	44.255000	-0.444573
	44.260000	-0.383329
	44.265000	-0.318862
	44.270000	-0.376882
	44.275000	-0.447796
	44.280000	-0.380106
	44.285000	-0.315638
	44.290000	-0.380106
	44.295000	-0.438126
	44.300000	-0.386552
	44.305000	-0.318862
	44.310000	-0.383329
	44.315000	-0.451019
	44.320000	-0.380106
	44.325000	-0.315638
	44.330000	-0.373659
	44.335000	-0.438126
	44.340000	-0.383329
	44.345000	-0.312415
	44.350000	-0.373659
	44.355000	-0.444573
	44.360000	-0.386552
	44.365000	-0.312415
	44.370000	-0.373659
	44.375000	-0.441349
	44.380000	-0.383329
	44.385000	-0.318862
	44.390000	-0.380106
	44.395000	-0.451019
	44.400000	-0.383329
	44.405000	-0.322085
	44.410000	-0.376882
	44.415000	-0.451019
	44.420000	-0.383329
	44.425000	-0.318862
	44.430000	-0.380106
	44.435000	-0.444573
	44.440000	-0.380106
	44.445000	-0.312415
	44.450000	-0.370436
	44.455000	-0.447796
	44.460000	-0.386552
	44.465000	-0.315638
	44.470000	-0.373659
	44.475000	-0.438126
	44.480000	-0.386552
	44.485000	-0.315638
	44.490000	-0.373659
	44.495000	-0.444573
	44.500000	-0.380106
	44.505000	-0.315638
	44.510000	-0.373659
	44.515000	-0.447796
	44.520000	-0.383329
	44.525000	-0.312415
	44.530000	-0.367212
	44.535000	-0.444573
	44.540000	-0.386552
	44.545000	-0.309192
	44.550000	-0.373659
	44.555000	-0.447796
	44.560000	-0.386552
	44.565000	-0.312415
	44.570000	-0.370436
	44.575000	-0.441349
	44.580000	-0.383329
	44.585000	-0.309192
	44.590000	-0.370436
	44.595000	-0.441349
	44.600000	-0.386552
	44.605000	-0.312415
	44.610000	-0.376882
	44.615000	-0.444573
	44.620000	-0.383329
	44.625000	-0.312415
	44.630000	-0.370436
	44.635000	-0.434903
	44.640000	-0.389776
	44.645000	-0.312415
	44.650000	-0.370436
	44.655000	-0.438126
	44.660000	-0.383329
	44.665000	-0.312415
	44.670000	-0.367212
	44.675000	-0.438126
	44.680000	-0.383329
	44.685000	-0.309192
	44.690000	-0.370436
	44.695000	-0.447796
	44.700000	-0.383329
	44.705000	-0.309192
	44.710000	-0.373659
	44.715000	-0.441349
	44.720000	-0.386552
	44.725000	-0.309192
	44.730000	-0.367212
	44.735000	-0.441349
	44.740000	-0.383329
