2024/7/23 	 15:55:50 
 This file comes from Vt only measurement 	 1.000000E-1 
 Voltage Sensitivity 	 0.000000E+0 
 Sampling rate 	 200 
 Number of samples per channel 	 -1 
 No filter from Labview 	 	 	 
 	 
 ***End_of_Header*** 
 	 Time 	  Voltage 	 Filtered Voltage 	 
	0.000000	0.192307
	0.005000	0.004850
	0.010000	0.004850
	0.015000	0.192307
	0.020000	0.192307
	0.025000	0.001561
	0.030000	0.001561
	0.035000	0.189018
	0.040000	0.192307
	0.045000	0.004850
	0.050000	-0.001728
	0.055000	0.185730
	0.060000	0.195596
	0.065000	0.004850
	0.070000	-0.001728
	0.075000	0.192307
	0.080000	0.192307
	0.085000	0.004850
	0.090000	-0.005016
	0.095000	0.189018
	0.100000	0.195596
	0.105000	0.004850
	0.110000	0.001561
	0.115000	0.185730
	0.120000	0.195596
	0.125000	0.001561
	0.130000	-0.001728
	0.135000	0.182441
	0.140000	0.195596
	0.145000	0.004850
	0.150000	-0.008305
	0.155000	0.182441
	0.160000	0.189018
	0.165000	0.004850
	0.170000	-0.005016
	0.175000	0.185730
	0.180000	0.192307
	0.185000	0.011427
	0.190000	-0.005016
	0.195000	0.189018
	0.200000	0.195596
	0.205000	0.008138
	0.210000	0.001561
	0.215000	0.189018
	0.220000	0.198884
	0.225000	0.001561
	0.230000	-0.001728
	0.235000	0.185730
	0.240000	0.192307
	0.245000	0.008138
	0.250000	-0.005016
	0.255000	0.185730
	0.260000	0.192307
	0.265000	0.001561
	0.270000	-0.001728
	0.275000	0.185730
	0.280000	0.198884
	0.285000	0.011427
	0.290000	0.001561
	0.295000	0.189018
	0.300000	0.198884
	0.305000	0.014716
	0.310000	-0.001728
	0.315000	0.185730
	0.320000	0.198884
	0.325000	0.011427
	0.330000	-0.001728
	0.335000	0.182441
	0.340000	0.198884
	0.345000	0.008138
	0.350000	-0.005016
	0.355000	0.185730
	0.360000	0.202173
	0.365000	0.011427
	0.370000	-0.001728
	0.375000	0.179152
	0.380000	0.205462
	0.385000	0.011427
	0.390000	-0.005016
	0.395000	0.182441
	0.400000	0.202173
	0.405000	0.014716
	0.410000	-0.001728
	0.415000	0.185730
	0.420000	0.198884
	0.425000	0.014716
	0.430000	-0.005016
	0.435000	0.189018
	0.440000	0.202173
	0.445000	0.014716
	0.450000	-0.001728
	0.455000	0.189018
	0.460000	0.202173
	0.465000	0.014716
	0.470000	-0.005016
	0.475000	0.182441
	0.480000	0.202173
	0.485000	0.011427
	0.490000	0.001561
	0.495000	0.182441
	0.500000	0.205462
	0.505000	0.018005
	0.510000	-0.001728
	0.515000	0.182441
	0.520000	0.202173
	0.525000	0.021293
	0.530000	-0.001728
	0.535000	0.182441
	0.540000	0.208751
	0.545000	0.018005
	0.550000	-0.001728
	0.555000	0.185730
	0.560000	0.208751
	0.565000	0.018005
	0.570000	0.001561
	0.575000	0.185730
	0.580000	0.212039
	0.585000	0.018005
	0.590000	-0.008305
	0.595000	0.182441
	0.600000	0.212039
	0.605000	0.024582
	0.610000	-0.005016
	0.615000	0.179152
	0.620000	0.208751
	0.625000	0.021293
	0.630000	-0.005016
	0.635000	0.185730
	0.640000	0.205462
	0.645000	0.018005
	0.650000	-0.001728
	0.655000	0.185730
	0.660000	0.208751
	0.665000	0.021293
	0.670000	-0.005016
	0.675000	0.182441
	0.680000	0.208751
	0.685000	0.018005
	0.690000	-0.008305
	0.695000	0.182441
	0.700000	0.208751
	0.705000	0.024582
	0.710000	-0.005016
	0.715000	0.179152
	0.720000	0.208751
	0.725000	0.021293
	0.730000	-0.001728
	0.735000	0.182441
	0.740000	0.208751
	0.745000	0.021293
	0.750000	-0.005016
	0.755000	0.182441
	0.760000	0.205462
	0.765000	0.018005
	0.770000	-0.001728
	0.775000	0.182441
	0.780000	0.208751
	0.785000	0.018005
	0.790000	-0.008305
	0.795000	0.185730
	0.800000	0.212039
	0.805000	0.024582
	0.810000	-0.005016
	0.815000	0.185730
	0.820000	0.212039
	0.825000	0.024582
	0.830000	-0.001728
	0.835000	0.182441
	0.840000	0.215328
	0.845000	0.024582
	0.850000	-0.005016
	0.855000	0.182441
	0.860000	0.212039
	0.865000	0.024582
	0.870000	-0.001728
	0.875000	0.179152
	0.880000	0.212039
	0.885000	0.024582
	0.890000	-0.005016
	0.895000	0.182441
	0.900000	0.215328
	0.905000	0.027871
	0.910000	-0.005016
	0.915000	0.185730
	0.920000	0.215328
	0.925000	0.027871
	0.930000	-0.001728
	0.935000	0.182441
	0.940000	0.215328
	0.945000	0.031160
	0.950000	-0.005016
	0.955000	0.185730
	0.960000	0.215328
	0.965000	0.027871
	0.970000	-0.005016
	0.975000	0.182441
	0.980000	0.212039
	0.985000	0.031160
	0.990000	-0.005016
	0.995000	0.182441
	1.000000	0.215328
	1.005000	0.034448
	1.010000	-0.005016
	1.015000	0.182441
	1.020000	0.221905
	1.025000	0.031160
	1.030000	0.001561
	1.035000	0.182441
	1.040000	0.218617
	1.045000	0.031160
	1.050000	-0.001728
	1.055000	0.179152
	1.060000	0.218617
	1.065000	0.034448
	1.070000	-0.008305
	1.075000	0.182441
	1.080000	0.218617
	1.085000	0.037737
	1.090000	0.001561
	1.095000	0.182441
	1.100000	0.218617
	1.105000	0.037737
	1.110000	-0.001728
	1.115000	0.185730
	1.120000	0.221905
	1.125000	0.031160
	1.130000	-0.008305
	1.135000	0.182441
	1.140000	0.218617
	1.145000	0.034448
	1.150000	-0.005016
	1.155000	0.185730
	1.160000	0.218617
	1.165000	0.037737
	1.170000	-0.005016
	1.175000	0.175863
	1.180000	0.215328
	1.185000	0.034448
	1.190000	-0.001728
	1.195000	0.172575
	1.200000	0.218617
	1.205000	0.037737
	1.210000	-0.005016
	1.215000	0.175863
	1.220000	0.218617
	1.225000	0.034448
	1.230000	-0.001728
	1.235000	0.179152
	1.240000	0.221905
	1.245000	0.031160
	1.250000	-0.011594
	1.255000	0.182441
	1.260000	0.218617
	1.265000	0.037737
	1.270000	-0.008305
	1.275000	0.182441
	1.280000	0.221905
	1.285000	0.041026
	1.290000	-0.005016
	1.295000	0.182441
	1.300000	0.218617
	1.305000	0.044314
	1.310000	-0.001728
	1.315000	0.175863
	1.320000	0.228483
	1.325000	0.041026
	1.330000	-0.001728
	1.335000	0.182441
	1.340000	0.225194
	1.345000	0.041026
	1.350000	0.001561
	1.355000	0.182441
	1.360000	0.228483
	1.365000	0.047603
	1.370000	0.001561
	1.375000	0.185730
	1.380000	0.235060
	1.385000	0.047603
	1.390000	0.001561
	1.395000	0.185730
	1.400000	0.235060
	1.405000	0.050892
	1.410000	0.001561
	1.415000	0.189018
	1.420000	0.235060
	1.425000	0.054181
	1.430000	0.014716
	1.435000	0.192307
	1.440000	0.238349
	1.445000	0.057469
	1.450000	0.011427
	1.455000	0.189018
	1.460000	0.244927
	1.465000	0.060758
	1.470000	0.014716
	1.475000	0.198884
	1.480000	0.244927
	1.485000	0.064047
	1.490000	0.018005
	1.495000	0.198884
	1.500000	0.248215
	1.505000	0.070624
	1.510000	0.024582
	1.515000	0.198884
	1.520000	0.244927
	1.525000	0.070624
	1.530000	0.021293
	1.535000	0.202173
	1.540000	0.251504
	1.545000	0.064047
	1.550000	0.021293
	1.555000	0.202173
	1.560000	0.251504
	1.565000	0.077202
	1.570000	0.021293
	1.575000	0.202173
	1.580000	0.248215
	1.585000	0.073913
	1.590000	0.027871
	1.595000	0.205462
	1.600000	0.251504
	1.605000	0.080490
	1.610000	0.031160
	1.615000	0.208751
	1.620000	0.258081
	1.625000	0.087068
	1.630000	0.031160
	1.635000	0.208751
	1.640000	0.261370
	1.645000	0.090357
	1.650000	0.027871
	1.655000	0.208751
	1.660000	0.261370
	1.665000	0.090357
	1.670000	0.034448
	1.675000	0.208751
	1.680000	0.264659
	1.685000	0.087068
	1.690000	0.034448
	1.695000	0.212039
	1.700000	0.264659
	1.705000	0.090357
	1.710000	0.037737
	1.715000	0.215328
	1.720000	0.267948
	1.725000	0.096934
	1.730000	0.037737
	1.735000	0.212039
	1.740000	0.261370
	1.745000	0.093645
	1.750000	0.034448
	1.755000	0.208751
	1.760000	0.264659
	1.765000	0.087068
	1.770000	0.034448
	1.775000	0.205462
	1.780000	0.258081
	1.785000	0.087068
	1.790000	0.027871
	1.795000	0.198884
	1.800000	0.251504
	1.805000	0.077202
	1.810000	0.021293
	1.815000	0.192307
	1.820000	0.248215
	1.825000	0.080490
	1.830000	0.014716
	1.835000	0.195596
	1.840000	0.248215
	1.845000	0.077202
	1.850000	0.014716
	1.855000	0.195596
	1.860000	0.248215
	1.865000	0.077202
	1.870000	0.011427
	1.875000	0.189018
	1.880000	0.244927
	1.885000	0.067335
	1.890000	0.011427
	1.895000	0.185730
	1.900000	0.244927
	1.905000	0.067335
	1.910000	0.011427
	1.915000	0.179152
	1.920000	0.238349
	1.925000	0.064047
	1.930000	-0.001728
	1.935000	0.172575
	1.940000	0.235060
	1.945000	0.060758
	1.950000	-0.005016
	1.955000	0.169286
	1.960000	0.231772
	1.965000	0.054181
	1.970000	-0.011594
	1.975000	0.165997
	1.980000	0.225194
	1.985000	0.047603
	1.990000	-0.021460
	1.995000	0.156131
	2.000000	0.221905
	2.005000	0.044314
	2.010000	-0.018171
	2.015000	0.152842
	2.020000	0.218617
	2.025000	0.037737
	2.030000	-0.031326
	2.035000	0.142976
	2.040000	0.205462
	2.045000	0.027871
	2.050000	-0.041192
	2.055000	0.129821
	2.060000	0.202173
	2.065000	0.018005
	2.070000	-0.054347
	2.075000	0.123244
	2.080000	0.189018
	2.085000	0.014716
	2.090000	-0.047770
	2.095000	0.126533
	2.100000	0.195596
	2.105000	0.021293
	2.110000	-0.047770
	2.115000	0.129821
	2.120000	0.195596
	2.125000	0.021293
	2.130000	-0.047770
	2.135000	0.129821
	2.140000	0.205462
	2.145000	0.027871
	2.150000	-0.041192
	2.155000	0.133110
	2.160000	0.208751
	2.165000	0.027871
	2.170000	-0.041192
	2.175000	0.136399
	2.180000	0.205462
	2.185000	0.031160
	2.190000	-0.037904
	2.195000	0.136399
	2.200000	0.212039
	2.205000	0.037737
	2.210000	-0.034615
	2.215000	0.142976
	2.220000	0.212039
	2.225000	0.044314
	2.230000	-0.028037
	2.235000	0.149554
	2.240000	0.218617
	2.245000	0.044314
	2.250000	-0.021460
	2.255000	0.149554
	2.260000	0.225194
	2.265000	0.054181
	2.270000	-0.021460
	2.275000	0.152842
	2.280000	0.225194
	2.285000	0.054181
	2.290000	-0.021460
	2.295000	0.149554
	2.300000	0.221905
	2.305000	0.050892
	2.310000	-0.014883
	2.315000	0.152842
	2.320000	0.225194
	2.325000	0.057469
	2.330000	-0.018171
	2.335000	0.156131
	2.340000	0.228483
	2.345000	0.057469
	2.350000	-0.014883
	2.355000	0.156131
	2.360000	0.228483
	2.365000	0.057469
	2.370000	-0.014883
	2.375000	0.156131
	2.380000	0.228483
	2.385000	0.054181
	2.390000	-0.014883
	2.395000	0.152842
	2.400000	0.225194
	2.405000	0.054181
	2.410000	-0.014883
	2.415000	0.146265
	2.420000	0.221905
	2.425000	0.054181
	2.430000	-0.024749
	2.435000	0.146265
	2.440000	0.218617
	2.445000	0.050892
	2.450000	-0.018171
	2.455000	0.142976
	2.460000	0.215328
	2.465000	0.054181
	2.470000	-0.021460
	2.475000	0.146265
	2.480000	0.218617
	2.485000	0.054181
	2.490000	-0.024749
	2.495000	0.142976
	2.500000	0.221905
	2.505000	0.050892
	2.510000	-0.018171
	2.515000	0.142976
	2.520000	0.218617
	2.525000	0.054181
	2.530000	-0.024749
	2.535000	0.142976
	2.540000	0.221905
	2.545000	0.054181
	2.550000	-0.024749
	2.555000	0.139687
	2.560000	0.212039
	2.565000	0.047603
	2.570000	-0.028037
	2.575000	0.133110
	2.580000	0.208751
	2.585000	0.041026
	2.590000	-0.037904
	2.595000	0.123244
	2.600000	0.208751
	2.605000	0.041026
	2.610000	-0.037904
	2.615000	0.126533
	2.620000	0.205462
	2.625000	0.041026
	2.630000	-0.037904
	2.635000	0.123244
	2.640000	0.198884
	2.645000	0.031160
	2.650000	-0.037904
	2.655000	0.119955
	2.660000	0.202173
	2.665000	0.034448
	2.670000	-0.044481
	2.675000	0.123244
	2.680000	0.198884
	2.685000	0.034448
	2.690000	-0.041192
	2.695000	0.116666
	2.700000	0.195596
	2.705000	0.031160
	2.710000	-0.047770
	2.715000	0.119955
	2.720000	0.198884
	2.725000	0.031160
	2.730000	-0.047770
	2.735000	0.119955
	2.740000	0.202173
	2.745000	0.031160
	2.750000	-0.051059
	2.755000	0.116666
	2.760000	0.195596
	2.765000	0.027871
	2.770000	-0.051059
	2.775000	0.113378
	2.780000	0.195596
	2.785000	0.024582
	2.790000	-0.054347
	2.795000	0.110089
	2.800000	0.192307
	2.805000	0.027871
	2.810000	-0.057636
	2.815000	0.106800
	2.820000	0.192307
	2.825000	0.024582
	2.830000	-0.060925
	2.835000	0.103511
	2.840000	0.185730
	2.845000	0.021293
	2.850000	-0.060925
	2.855000	0.103511
	2.860000	0.185730
	2.865000	0.021293
	2.870000	-0.060925
	2.875000	0.103511
	2.880000	0.189018
	2.885000	0.024582
	2.890000	-0.057636
	2.895000	0.106800
	2.900000	0.189018
	2.905000	0.024582
	2.910000	-0.060925
	2.915000	0.106800
	2.920000	0.189018
	2.925000	0.027871
	2.930000	-0.060925
	2.935000	0.106800
	2.940000	0.195596
	2.945000	0.024582
	2.950000	-0.060925
	2.955000	0.106800
	2.960000	0.189018
	2.965000	0.021293
	2.970000	-0.060925
	2.975000	0.106800
	2.980000	0.192307
	2.985000	0.027871
	2.990000	-0.064213
	2.995000	0.106800
	3.000000	0.195596
	3.005000	0.024582
	3.010000	-0.057636
	3.015000	0.106800
	3.020000	0.198884
	3.025000	0.031160
	3.030000	-0.057636
	3.035000	0.110089
	3.040000	0.198884
	3.045000	0.034448
	3.050000	-0.054347
	3.055000	0.113378
	3.060000	0.198884
	3.065000	0.037737
	3.070000	-0.051059
	3.075000	0.116666
	3.080000	0.202173
	3.085000	0.037737
	3.090000	-0.054347
	3.095000	0.119955
	3.100000	0.198884
	3.105000	0.034448
	3.110000	-0.051059
	3.115000	0.113378
	3.120000	0.205462
	3.125000	0.034448
	3.130000	-0.051059
	3.135000	0.116666
	3.140000	0.205462
	3.145000	0.041026
	3.150000	-0.047770
	3.155000	0.110089
	3.160000	0.205462
	3.165000	0.041026
	3.170000	-0.054347
	3.175000	0.110089
	3.180000	0.202173
	3.185000	0.031160
	3.190000	-0.054347
	3.195000	0.110089
	3.200000	0.205462
	3.205000	0.041026
	3.210000	-0.057636
	3.215000	0.113378
	3.220000	0.202173
	3.225000	0.034448
	3.230000	-0.054347
	3.235000	0.110089
	3.240000	0.202173
	3.245000	0.041026
	3.250000	-0.057636
	3.255000	0.110089
	3.260000	0.202173
	3.265000	0.037737
	3.270000	-0.051059
	3.275000	0.110089
	3.280000	0.208751
	3.285000	0.037737
	3.290000	-0.060925
	3.295000	0.110089
	3.300000	0.202173
	3.305000	0.037737
	3.310000	-0.057636
	3.315000	0.110089
	3.320000	0.205462
	3.325000	0.037737
	3.330000	-0.051059
	3.335000	0.110089
	3.340000	0.202173
	3.345000	0.041026
	3.350000	-0.051059
	3.355000	0.116666
	3.360000	0.208751
	3.365000	0.041026
	3.370000	-0.054347
	3.375000	0.110089
	3.380000	0.212039
	3.385000	0.044314
	3.390000	-0.051059
	3.395000	0.110089
	3.400000	0.212039
	3.405000	0.041026
	3.410000	-0.057636
	3.415000	0.113378
	3.420000	0.208751
	3.425000	0.037737
	3.430000	-0.057636
	3.435000	0.106800
	3.440000	0.205462
	3.445000	0.041026
	3.450000	-0.054347
	3.455000	0.103511
	3.460000	0.205462
	3.465000	0.044314
	3.470000	-0.054347
	3.475000	0.106800
	3.480000	0.205462
	3.485000	0.041026
	3.490000	-0.054347
	3.495000	0.110089
	3.500000	0.205462
	3.505000	0.044314
	3.510000	-0.054347
	3.515000	0.110089
	3.520000	0.202173
	3.525000	0.044314
	3.530000	-0.054347
	3.535000	0.110089
	3.540000	0.212039
	3.545000	0.047603
	3.550000	-0.054347
	3.555000	0.106800
	3.560000	0.212039
	3.565000	0.047603
	3.570000	-0.054347
	3.575000	0.110089
	3.580000	0.212039
	3.585000	0.050892
	3.590000	-0.051059
	3.595000	0.116666
	3.600000	0.218617
	3.605000	0.054181
	3.610000	-0.047770
	3.615000	0.116666
	3.620000	0.215328
	3.625000	0.054181
	3.630000	-0.047770
	3.635000	0.113378
	3.640000	0.215328
	3.645000	0.057469
	3.650000	-0.051059
	3.655000	0.116666
	3.660000	0.218617
	3.665000	0.054181
	3.670000	-0.051059
	3.675000	0.116666
	3.680000	0.218617
	3.685000	0.050892
	3.690000	-0.051059
	3.695000	0.110089
	3.700000	0.215328
	3.705000	0.054181
	3.710000	-0.047770
	3.715000	0.110089
	3.720000	0.215328
	3.725000	0.054181
	3.730000	-0.054347
	3.735000	0.110089
	3.740000	0.215328
	3.745000	0.050892
	3.750000	-0.054347
	3.755000	0.110089
	3.760000	0.218617
	3.765000	0.054181
	3.770000	-0.051059
	3.775000	0.103511
	3.780000	0.212039
	3.785000	0.050892
	3.790000	-0.051059
	3.795000	0.103511
	3.800000	0.212039
	3.805000	0.054181
	3.810000	-0.051059
	3.815000	0.103511
	3.820000	0.215328
	3.825000	0.050892
	3.830000	-0.051059
	3.835000	0.106800
	3.840000	0.208751
	3.845000	0.054181
	3.850000	-0.054347
	3.855000	0.106800
	3.860000	0.215328
	3.865000	0.054181
	3.870000	-0.051059
	3.875000	0.103511
	3.880000	0.215328
	3.885000	0.060758
	3.890000	-0.051059
	3.895000	0.106800
	3.900000	0.215328
	3.905000	0.057469
	3.910000	-0.047770
	3.915000	0.106800
	3.920000	0.218617
	3.925000	0.064047
	3.930000	-0.051059
	3.935000	0.113378
	3.940000	0.215328
	3.945000	0.060758
	3.950000	-0.051059
	3.955000	0.106800
	3.960000	0.218617
	3.965000	0.054181
	3.970000	-0.054347
	3.975000	0.106800
	3.980000	0.218617
	3.985000	0.060758
	3.990000	-0.051059
	3.995000	0.106800
	4.000000	0.221905
	4.005000	0.060758
	4.010000	-0.047770
	4.015000	0.113378
	4.020000	0.221905
	4.025000	0.064047
	4.030000	-0.047770
	4.035000	0.106800
	4.040000	0.221905
	4.045000	0.067335
	4.050000	-0.051059
	4.055000	0.110089
	4.060000	0.225194
	4.065000	0.060758
	4.070000	-0.047770
	4.075000	0.103511
	4.080000	0.221905
	4.085000	0.067335
	4.090000	-0.051059
	4.095000	0.106800
	4.100000	0.221905
	4.105000	0.064047
	4.110000	-0.047770
	4.115000	0.106800
	4.120000	0.221905
	4.125000	0.064047
	4.130000	-0.047770
	4.135000	0.106800
	4.140000	0.221905
	4.145000	0.067335
	4.150000	-0.047770
	4.155000	0.113378
	4.160000	0.221905
	4.165000	0.064047
	4.170000	-0.047770
	4.175000	0.106800
	4.180000	0.221905
	4.185000	0.067335
	4.190000	-0.047770
	4.195000	0.106800
	4.200000	0.221905
	4.205000	0.070624
	4.210000	-0.051059
	4.215000	0.103511
	4.220000	0.225194
	4.225000	0.073913
	4.230000	-0.051059
	4.235000	0.103511
	4.240000	0.225194
	4.245000	0.070624
	4.250000	-0.047770
	4.255000	0.110089
	4.260000	0.225194
	4.265000	0.064047
	4.270000	-0.044481
	4.275000	0.110089
	4.280000	0.221905
	4.285000	0.070624
	4.290000	-0.047770
	4.295000	0.103511
	4.300000	0.221905
	4.305000	0.070624
	4.310000	-0.051059
	4.315000	0.100223
	4.320000	0.221905
	4.325000	0.064047
	4.330000	-0.054347
	4.335000	0.100223
	4.340000	0.218617
	4.345000	0.070624
	4.350000	-0.054347
	4.355000	0.096934
	4.360000	0.221905
	4.365000	0.064047
	4.370000	-0.054347
	4.375000	0.103511
	4.380000	0.221905
	4.385000	0.070624
	4.390000	-0.057636
	4.395000	0.100223
	4.400000	0.225194
	4.405000	0.067335
	4.410000	-0.057636
	4.415000	0.100223
	4.420000	0.221905
	4.425000	0.067335
	4.430000	-0.054347
	4.435000	0.096934
	4.440000	0.221905
	4.445000	0.067335
	4.450000	-0.047770
	4.455000	0.096934
	4.460000	0.228483
	4.465000	0.067335
	4.470000	-0.051059
	4.475000	0.100223
	4.480000	0.221905
	4.485000	0.067335
	4.490000	-0.054347
	4.495000	0.100223
	4.500000	0.225194
	4.505000	0.080490
	4.510000	-0.051059
	4.515000	0.096934
	4.520000	0.228483
	4.525000	0.073913
	4.530000	-0.054347
	4.535000	0.096934
	4.540000	0.225194
	4.545000	0.070624
	4.550000	-0.054347
	4.555000	0.096934
	4.560000	0.221905
	4.565000	0.077202
	4.570000	-0.051059
	4.575000	0.100223
	4.580000	0.228483
	4.585000	0.077202
	4.590000	-0.051059
	4.595000	0.100223
	4.600000	0.231772
	4.605000	0.080490
	4.610000	-0.051059
	4.615000	0.100223
	4.620000	0.225194
	4.625000	0.080490
	4.630000	-0.051059
	4.635000	0.103511
	4.640000	0.225194
	4.645000	0.073913
	4.650000	-0.051059
	4.655000	0.100223
	4.660000	0.225194
	4.665000	0.080490
	4.670000	-0.047770
	4.675000	0.106800
	4.680000	0.235060
	4.685000	0.087068
	4.690000	-0.037904
	4.695000	0.110089
	4.700000	0.238349
	4.705000	0.096934
	4.710000	-0.028037
	4.715000	0.116666
	4.720000	0.244927
	4.725000	0.100223
	4.730000	-0.024749
	4.735000	0.119955
	4.740000	0.244927
	4.745000	0.110089
	4.750000	-0.018171
	4.755000	0.123244
	4.760000	0.254793
	4.765000	0.113378
	4.770000	-0.014883
	4.775000	0.126533
	4.780000	0.258081
	4.785000	0.116666
	4.790000	-0.011594
	4.795000	0.126533
	4.800000	0.258081
	4.805000	0.119955
	4.810000	-0.008305
	4.815000	0.129821
	4.820000	0.261370
	4.825000	0.129821
	4.830000	-0.005016
	4.835000	0.136399
	4.840000	0.267948
	4.845000	0.133110
	4.850000	0.004850
	4.855000	0.139687
	4.860000	0.271236
	4.865000	0.133110
	4.870000	0.004850
	4.875000	0.142976
	4.880000	0.271236
	4.885000	0.136399
	4.890000	0.008138
	4.895000	0.142976
	4.900000	0.277814
	4.905000	0.139687
	4.910000	0.011427
	4.915000	0.149554
	4.920000	0.274525
	4.925000	0.146265
	4.930000	0.018005
	4.935000	0.149554
	4.940000	0.281102
	4.945000	0.146265
	4.950000	0.021293
	4.955000	0.152842
	4.960000	0.284391
	4.965000	0.149554
	4.970000	0.021293
	4.975000	0.152842
	4.980000	0.281102
	4.985000	0.149554
	4.990000	0.018005
	4.995000	0.149554
	5.000000	0.281102
	5.005000	0.152842
	5.010000	0.018005
	5.015000	0.149554
	5.020000	0.277814
	5.025000	0.149554
	5.030000	0.018005
	5.035000	0.146265
	5.040000	0.277814
	5.045000	0.152842
	5.050000	0.021293
	5.055000	0.149554
	5.060000	0.284391
	5.065000	0.156131
	5.070000	0.024582
	5.075000	0.146265
	5.080000	0.281102
	5.085000	0.152842
	5.090000	0.024582
	5.095000	0.146265
	5.100000	0.284391
	5.105000	0.156131
	5.110000	0.024582
	5.115000	0.156131
	5.120000	0.281102
	5.125000	0.156131
	5.130000	0.018005
	5.135000	0.142976
	5.140000	0.277814
	5.145000	0.149554
	5.150000	0.014716
	5.155000	0.146265
	5.160000	0.274525
	5.165000	0.152842
	5.170000	0.014716
	5.175000	0.139687
	5.180000	0.271236
	5.185000	0.146265
	5.190000	0.014716
	5.195000	0.139687
	5.200000	0.274525
	5.205000	0.146265
	5.210000	0.011427
	5.215000	0.133110
	5.220000	0.267948
	5.225000	0.142976
	5.230000	0.008138
	5.235000	0.129821
	5.240000	0.261370
	5.245000	0.142976
	5.250000	0.004850
	5.255000	0.126533
	5.260000	0.264659
	5.265000	0.142976
	5.270000	-0.001728
	5.275000	0.119955
	5.280000	0.258081
	5.285000	0.136399
	5.290000	-0.005016
	5.295000	0.116666
	5.300000	0.251504
	5.305000	0.126533
	5.310000	-0.008305
	5.315000	0.106800
	5.320000	0.241638
	5.325000	0.119955
	5.330000	-0.024749
	5.335000	0.103511
	5.340000	0.241638
	5.345000	0.113378
	5.350000	-0.028037
	5.355000	0.100223
	5.360000	0.231772
	5.365000	0.103511
	5.370000	-0.041192
	5.375000	0.087068
	5.380000	0.228483
	5.385000	0.096934
	5.390000	-0.041192
	5.395000	0.080490
	5.400000	0.225194
	5.405000	0.103511
	5.410000	-0.041192
	5.415000	0.083779
	5.420000	0.221905
	5.425000	0.100223
	5.430000	-0.047770
	5.435000	0.073913
	5.440000	0.212039
	5.445000	0.093645
	5.450000	-0.054347
	5.455000	0.064047
	5.460000	0.212039
	5.465000	0.090357
	5.470000	-0.064213
	5.475000	0.057469
	5.480000	0.195596
	5.485000	0.070624
	5.490000	-0.077368
	5.495000	0.041026
	5.500000	0.185730
	5.505000	0.060758
	5.510000	-0.087234
	5.515000	0.034448
	5.520000	0.179152
	5.525000	0.064047
	5.530000	-0.087234
	5.535000	0.037737
	5.540000	0.182441
	5.545000	0.057469
	5.550000	-0.083946
	5.555000	0.037737
	5.560000	0.185730
	5.565000	0.073913
	5.570000	-0.083946
	5.575000	0.044314
	5.580000	0.198884
	5.585000	0.080490
	5.590000	-0.070791
	5.595000	0.050892
	5.600000	0.208751
	5.605000	0.087068
	5.610000	-0.060925
	5.615000	0.060758
	5.620000	0.212039
	5.625000	0.096934
	5.630000	-0.060925
	5.635000	0.064047
	5.640000	0.218617
	5.645000	0.100223
	5.650000	-0.051059
	5.655000	0.070624
	5.660000	0.221905
	5.665000	0.103511
	5.670000	-0.051059
	5.675000	0.064047
	5.680000	0.218617
	5.685000	0.096934
	5.690000	-0.060925
	5.695000	0.057469
	5.700000	0.208751
	5.705000	0.087068
	5.710000	-0.067502
	5.715000	0.044314
	5.720000	0.198884
	5.725000	0.077202
	5.730000	-0.074080
	5.735000	0.037737
	5.740000	0.192307
	5.745000	0.077202
	5.750000	-0.070791
	5.755000	0.044314
	5.760000	0.189018
	5.765000	0.080490
	5.770000	-0.070791
	5.775000	0.044314
	5.780000	0.198884
	5.785000	0.083779
	5.790000	-0.067502
	5.795000	0.044314
	5.800000	0.198884
	5.805000	0.093645
	5.810000	-0.057636
	5.815000	0.057469
	5.820000	0.212039
	5.825000	0.106800
	5.830000	-0.037904
	5.835000	0.070624
	5.840000	0.228483
	5.845000	0.119955
	5.850000	-0.028037
	5.855000	0.087068
	5.860000	0.241638
	5.865000	0.133110
	5.870000	-0.014883
	5.875000	0.100223
	5.880000	0.251504
	5.885000	0.146265
	5.890000	0.004850
	5.895000	0.116666
	5.900000	0.267948
	5.905000	0.159420
	5.910000	0.014716
	5.915000	0.123244
	5.920000	0.267948
	5.925000	0.156131
	5.930000	0.004850
	5.935000	0.116666
	5.940000	0.264659
	5.945000	0.149554
	5.950000	0.001561
	5.955000	0.110089
	5.960000	0.254793
	5.965000	0.142976
	5.970000	-0.011594
	5.975000	0.093645
	5.980000	0.238349
	5.985000	0.133110
	5.990000	-0.014883
	5.995000	0.087068
	6.000000	0.235060
	6.005000	0.129821
	6.010000	-0.024749
	6.015000	0.077202
	6.020000	0.225194
	6.025000	0.119955
	6.030000	-0.031326
	6.035000	0.070624
	6.040000	0.225194
	6.045000	0.119955
	6.050000	-0.031326
	6.055000	0.077202
	6.060000	0.221905
	6.065000	0.119955
	6.070000	-0.031326
	6.075000	0.077202
	6.080000	0.228483
	6.085000	0.123244
	6.090000	-0.031326
	6.095000	0.070624
	6.100000	0.221905
	6.105000	0.123244
	6.110000	-0.028037
	6.115000	0.070624
	6.120000	0.225194
	6.125000	0.119955
	6.130000	-0.031326
	6.135000	0.070624
	6.140000	0.221905
	6.145000	0.113378
	6.150000	-0.034615
	6.155000	0.067335
	6.160000	0.218617
	6.165000	0.110089
	6.170000	-0.041192
	6.175000	0.060758
	6.180000	0.215328
	6.185000	0.110089
	6.190000	-0.041192
	6.195000	0.057469
	6.200000	0.215328
	6.205000	0.110089
	6.210000	-0.044481
	6.215000	0.054181
	6.220000	0.208751
	6.225000	0.103511
	6.230000	-0.051059
	6.235000	0.054181
	6.240000	0.205462
	6.245000	0.103511
	6.250000	-0.047770
	6.255000	0.054181
	6.260000	0.205462
	6.265000	0.100223
	6.270000	-0.054347
	6.275000	0.050892
	6.280000	0.205462
	6.285000	0.103511
	6.290000	-0.054347
	6.295000	0.050892
	6.300000	0.205462
	6.305000	0.100223
	6.310000	-0.054347
	6.315000	0.041026
	6.320000	0.202173
	6.325000	0.096934
	6.330000	-0.060925
	6.335000	0.041026
	6.340000	0.198884
	6.345000	0.100223
	6.350000	-0.060925
	6.355000	0.037737
	6.360000	0.198884
	6.365000	0.096934
	6.370000	-0.057636
	6.375000	0.034448
	6.380000	0.198884
	6.385000	0.096934
	6.390000	-0.054347
	6.395000	0.047603
	6.400000	0.198884
	6.405000	0.100223
	6.410000	-0.054347
	6.415000	0.044314
	6.420000	0.208751
	6.425000	0.103511
	6.430000	-0.054347
	6.435000	0.047603
	6.440000	0.205462
	6.445000	0.106800
	6.450000	-0.057636
	6.455000	0.047603
	6.460000	0.205462
	6.465000	0.110089
	6.470000	-0.051059
	6.475000	0.041026
	6.480000	0.208751
	6.485000	0.113378
	6.490000	-0.054347
	6.495000	0.050892
	6.500000	0.208751
	6.505000	0.106800
	6.510000	-0.051059
	6.515000	0.054181
	6.520000	0.208751
	6.525000	0.106800
	6.530000	-0.054347
	6.535000	0.041026
	6.540000	0.205462
	6.545000	0.110089
	6.550000	-0.054347
	6.555000	0.041026
	6.560000	0.202173
	6.565000	0.106800
	6.570000	-0.060925
	6.575000	0.044314
	6.580000	0.202173
	6.585000	0.103511
	6.590000	-0.057636
	6.595000	0.041026
	6.600000	0.198884
	6.605000	0.096934
	6.610000	-0.064213
	6.615000	0.031160
	6.620000	0.195596
	6.625000	0.103511
	6.630000	-0.064213
	6.635000	0.027871
	6.640000	0.195596
	6.645000	0.096934
	6.650000	-0.060925
	6.655000	0.034448
	6.660000	0.202173
	6.665000	0.103511
	6.670000	-0.060925
	6.675000	0.044314
	6.680000	0.205462
	6.685000	0.106800
	6.690000	-0.054347
	6.695000	0.037737
	6.700000	0.208751
	6.705000	0.106800
	6.710000	-0.054347
	6.715000	0.044314
	6.720000	0.202173
	6.725000	0.110089
	6.730000	-0.057636
	6.735000	0.041026
	6.740000	0.208751
	6.745000	0.116666
	6.750000	-0.054347
	6.755000	0.037737
	6.760000	0.205462
	6.765000	0.106800
	6.770000	-0.057636
	6.775000	0.037737
	6.780000	0.205462
	6.785000	0.110089
	6.790000	-0.051059
	6.795000	0.041026
	6.800000	0.208751
	6.805000	0.113378
	6.810000	-0.054347
	6.815000	0.044314
	6.820000	0.208751
	6.825000	0.116666
	6.830000	-0.051059
	6.835000	0.041026
	6.840000	0.212039
	6.845000	0.119955
	6.850000	-0.051059
	6.855000	0.044314
	6.860000	0.212039
	6.865000	0.116666
	6.870000	-0.054347
	6.875000	0.041026
	6.880000	0.208751
	6.885000	0.116666
	6.890000	-0.051059
	6.895000	0.037737
	6.900000	0.212039
	6.905000	0.116666
	6.910000	-0.054347
	6.915000	0.037737
	6.920000	0.208751
	6.925000	0.113378
	6.930000	-0.054347
	6.935000	0.037737
	6.940000	0.208751
	6.945000	0.116666
	6.950000	-0.054347
	6.955000	0.037737
	6.960000	0.205462
	6.965000	0.116666
	6.970000	-0.051059
	6.975000	0.031160
	6.980000	0.208751
	6.985000	0.116666
	6.990000	-0.051059
	6.995000	0.044314
	7.000000	0.215328
	7.005000	0.119955
	7.010000	-0.044481
	7.015000	0.044314
	7.020000	0.212039
	7.025000	0.123244
	7.030000	-0.044481
	7.035000	0.044314
	7.040000	0.215328
	7.045000	0.129821
	7.050000	-0.047770
	7.055000	0.044314
	7.060000	0.218617
	7.065000	0.129821
	7.070000	-0.041192
	7.075000	0.044314
	7.080000	0.215328
	7.085000	0.123244
	7.090000	-0.044481
	7.095000	0.044314
	7.100000	0.218617
	7.105000	0.126533
	7.110000	-0.051059
	7.115000	0.044314
	7.120000	0.218617
	7.125000	0.126533
	7.130000	-0.051059
	7.135000	0.041026
	7.140000	0.215328
	7.145000	0.126533
	7.150000	-0.041192
	7.155000	0.041026
	7.160000	0.215328
	7.165000	0.129821
	7.170000	-0.041192
	7.175000	0.037737
	7.180000	0.212039
	7.185000	0.126533
	7.190000	-0.044481
	7.195000	0.041026
	7.200000	0.215328
	7.205000	0.129821
	7.210000	-0.044481
	7.215000	0.041026
	7.220000	0.208751
	7.225000	0.126533
	7.230000	-0.047770
	7.235000	0.037737
	7.240000	0.212039
	7.245000	0.126533
	7.250000	-0.057636
	7.255000	0.037737
	7.260000	0.212039
	7.265000	0.123244
	7.270000	-0.054347
	7.275000	0.034448
	7.280000	0.205462
	7.285000	0.126533
	7.290000	-0.054347
	7.295000	0.034448
	7.300000	0.202173
	7.305000	0.123244
	7.310000	-0.051059
	7.315000	0.031160
	7.320000	0.208751
	7.325000	0.129821
	7.330000	-0.054347
	7.335000	0.031160
	7.340000	0.212039
	7.345000	0.129821
	7.350000	-0.047770
	7.355000	0.034448
	7.360000	0.208751
	7.365000	0.129821
	7.370000	-0.044481
	7.375000	0.037737
	7.380000	0.212039
	7.385000	0.129821
	7.390000	-0.047770
	7.395000	0.034448
	7.400000	0.212039
	7.405000	0.126533
	7.410000	-0.047770
	7.415000	0.034448
	7.420000	0.215328
	7.425000	0.129821
	7.430000	-0.044481
	7.435000	0.037737
	7.440000	0.212039
	7.445000	0.133110
	7.450000	-0.041192
	7.455000	0.041026
	7.460000	0.215328
	7.465000	0.133110
	7.470000	-0.041192
	7.475000	0.037737
	7.480000	0.212039
	7.485000	0.139687
	7.490000	-0.037904
	7.495000	0.041026
	7.500000	0.221905
	7.505000	0.136399
	7.510000	-0.044481
	7.515000	0.041026
	7.520000	0.221905
	7.525000	0.142976
	7.530000	-0.037904
	7.535000	0.047603
	7.540000	0.225194
	7.545000	0.146265
	7.550000	-0.031326
	7.555000	0.041026
	7.560000	0.221905
	7.565000	0.146265
	7.570000	-0.028037
	7.575000	0.047603
	7.580000	0.225194
	7.585000	0.149554
	7.590000	-0.028037
	7.595000	0.047603
	7.600000	0.225194
	7.605000	0.152842
	7.610000	-0.024749
	7.615000	0.054181
	7.620000	0.231772
	7.625000	0.152842
	7.630000	-0.021460
	7.635000	0.050892
	7.640000	0.225194
	7.645000	0.156131
	7.650000	-0.018171
	7.655000	0.064047
	7.660000	0.231772
	7.665000	0.159420
	7.670000	-0.018171
	7.675000	0.057469
	7.680000	0.235060
	7.685000	0.162708
	7.690000	-0.011594
	7.695000	0.060758
	7.700000	0.238349
	7.705000	0.172575
	7.710000	-0.011594
	7.715000	0.060758
	7.720000	0.238349
	7.725000	0.165997
	7.730000	-0.005016
	7.735000	0.064047
	7.740000	0.241638
	7.745000	0.165997
	7.750000	-0.008305
	7.755000	0.067335
	7.760000	0.241638
	7.765000	0.172575
	7.770000	-0.001728
	7.775000	0.067335
	7.780000	0.238349
	7.785000	0.169286
	7.790000	-0.001728
	7.795000	0.070624
	7.800000	0.248215
	7.805000	0.175863
	7.810000	-0.005016
	7.815000	0.070624
	7.820000	0.244927
	7.825000	0.175863
	7.830000	0.001561
	7.835000	0.077202
	7.840000	0.248215
	7.845000	0.179152
	7.850000	0.004850
	7.855000	0.073913
	7.860000	0.248215
	7.865000	0.182441
	7.870000	0.004850
	7.875000	0.073913
	7.880000	0.251504
	7.885000	0.179152
	7.890000	0.011427
	7.895000	0.070624
	7.900000	0.244927
	7.905000	0.182441
	7.910000	0.004850
	7.915000	0.073913
	7.920000	0.248215
	7.925000	0.182441
	7.930000	0.004850
	7.935000	0.070624
	7.940000	0.244927
	7.945000	0.182441
	7.950000	0.004850
	7.955000	0.077202
	7.960000	0.244927
	7.965000	0.182441
	7.970000	0.011427
	7.975000	0.073913
	7.980000	0.244927
	7.985000	0.182441
	7.990000	0.011427
	7.995000	0.070624
	8.000000	0.241638
	8.005000	0.179152
	8.010000	0.011427
	8.015000	0.070624
	8.020000	0.241638
	8.025000	0.189018
	8.030000	0.011427
	8.035000	0.070624
	8.040000	0.248215
	8.045000	0.185730
	8.050000	0.011427
	8.055000	0.077202
	8.060000	0.251504
	8.065000	0.185730
	8.070000	0.011427
	8.075000	0.077202
	8.080000	0.248215
	8.085000	0.182441
	8.090000	0.014716
	8.095000	0.073913
	8.100000	0.248215
	8.105000	0.185730
	8.110000	0.018005
	8.115000	0.070624
	8.120000	0.244927
	8.125000	0.185730
	8.130000	0.014716
	8.135000	0.070624
	8.140000	0.248215
	8.145000	0.185730
	8.150000	0.014716
	8.155000	0.070624
	8.160000	0.248215
	8.165000	0.192307
	8.170000	0.014716
	8.175000	0.077202
	8.180000	0.251504
	8.185000	0.185730
	8.190000	0.014716
	8.195000	0.073913
	8.200000	0.248215
	8.205000	0.192307
	8.210000	0.011427
	8.215000	0.070624
	8.220000	0.241638
	8.225000	0.185730
	8.230000	0.011427
	8.235000	0.067335
	8.240000	0.244927
	8.245000	0.185730
	8.250000	0.011427
	8.255000	0.067335
	8.260000	0.238349
	8.265000	0.185730
	8.270000	0.004850
	8.275000	0.067335
	8.280000	0.241638
	8.285000	0.179152
	8.290000	0.004850
	8.295000	0.064047
	8.300000	0.235060
	8.305000	0.185730
	8.310000	0.011427
	8.315000	0.057469
	8.320000	0.235060
	8.325000	0.175863
	8.330000	0.001561
	8.335000	0.054181
	8.340000	0.231772
	8.345000	0.179152
	8.350000	0.001561
	8.355000	0.054181
	8.360000	0.231772
	8.365000	0.179152
	8.370000	0.004850
	8.375000	0.050892
	8.380000	0.228483
	8.385000	0.175863
	8.390000	-0.001728
	8.395000	0.057469
	8.400000	0.231772
	8.405000	0.182441
	8.410000	0.001561
	8.415000	0.057469
	8.420000	0.238349
	8.425000	0.182441
	8.430000	-0.001728
	8.435000	0.054181
	8.440000	0.231772
	8.445000	0.182441
	8.450000	0.001561
	8.455000	0.047603
	8.460000	0.221905
	8.465000	0.172575
	8.470000	-0.005016
	8.475000	0.044314
	8.480000	0.228483
	8.485000	0.175863
	8.490000	-0.005016
	8.495000	0.047603
	8.500000	0.221905
	8.505000	0.175863
	8.510000	-0.008305
	8.515000	0.041026
	8.520000	0.225194
	8.525000	0.172575
	8.530000	-0.008305
	8.535000	0.041026
	8.540000	0.215328
	8.545000	0.165997
	8.550000	-0.014883
	8.555000	0.027871
	8.560000	0.208751
	8.565000	0.162708
	8.570000	-0.028037
	8.575000	0.021293
	8.580000	0.205462
	8.585000	0.152842
	8.590000	-0.031326
	8.595000	0.014716
	8.600000	0.192307
	8.605000	0.146265
	8.610000	-0.037904
	8.615000	0.011427
	8.620000	0.195596
	8.625000	0.139687
	8.630000	-0.041192
	8.635000	0.004850
	8.640000	0.189018
	8.645000	0.139687
	8.650000	-0.047770
	8.655000	0.004850
	8.660000	0.189018
	8.665000	0.142976
	8.670000	-0.037904
	8.675000	0.001561
	8.680000	0.189018
	8.685000	0.149554
	8.690000	-0.034615
	8.695000	0.011427
	8.700000	0.195596
	8.705000	0.152842
	8.710000	-0.031326
	8.715000	0.018005
	8.720000	0.195596
	8.725000	0.159420
	8.730000	-0.024749
	8.735000	0.021293
	8.740000	0.205462
	8.745000	0.162708
	8.750000	-0.021460
	8.755000	0.024582
	8.760000	0.208751
	8.765000	0.162708
	8.770000	-0.018171
	8.775000	0.027871
	8.780000	0.205462
	8.785000	0.165997
	8.790000	-0.018171
	8.795000	0.024582
	8.800000	0.208751
	8.805000	0.159420
	8.810000	-0.021460
	8.815000	0.024582
	8.820000	0.208751
	8.825000	0.162708
	8.830000	-0.018171
	8.835000	0.021293
	8.840000	0.205462
	8.845000	0.169286
	8.850000	-0.008305
	8.855000	0.034448
	8.860000	0.212039
	8.865000	0.175863
	8.870000	-0.001728
	8.875000	0.047603
	8.880000	0.225194
	8.885000	0.182441
	8.890000	0.004850
	8.895000	0.047603
	8.900000	0.228483
	8.905000	0.182441
	8.910000	0.004850
	8.915000	0.050892
	8.920000	0.228483
	8.925000	0.185730
	8.930000	0.004850
	8.935000	0.047603
	8.940000	0.221905
	8.945000	0.182441
	8.950000	-0.001728
	8.955000	0.037737
	8.960000	0.218617
	8.965000	0.179152
	8.970000	-0.005016
	8.975000	0.037737
	8.980000	0.208751
	8.985000	0.172575
	8.990000	-0.008305
	8.995000	0.027871
	9.000000	0.205462
	9.005000	0.169286
	9.010000	-0.014883
	9.015000	0.031160
	9.020000	0.205462
	9.025000	0.162708
	9.030000	-0.018171
	9.035000	0.027871
	9.040000	0.195596
	9.045000	0.156131
	9.050000	-0.018171
	9.055000	0.014716
	9.060000	0.195596
	9.065000	0.156131
	9.070000	-0.024749
	9.075000	0.018005
	9.080000	0.192307
	9.085000	0.152842
	9.090000	-0.024749
	9.095000	0.011427
	9.100000	0.192307
	9.105000	0.152842
	9.110000	-0.028037
	9.115000	0.011427
	9.120000	0.185730
	9.125000	0.146265
	9.130000	-0.031326
	9.135000	0.004850
	9.140000	0.185730
	9.145000	0.149554
	9.150000	-0.034615
	9.155000	0.001561
	9.160000	0.182441
	9.165000	0.139687
	9.170000	-0.031326
	9.175000	0.004850
	9.180000	0.185730
	9.185000	0.146265
	9.190000	-0.037904
	9.195000	0.004850
	9.200000	0.182441
	9.205000	0.146265
	9.210000	-0.028037
	9.215000	0.004850
	9.220000	0.189018
	9.225000	0.149554
	9.230000	-0.028037
	9.235000	0.004850
	9.240000	0.185730
	9.245000	0.146265
	9.250000	-0.034615
	9.255000	0.001561
	9.260000	0.189018
	9.265000	0.149554
	9.270000	-0.031326
	9.275000	0.004850
	9.280000	0.185730
	9.285000	0.152842
	9.290000	-0.034615
	9.295000	0.008138
	9.300000	0.182441
	9.305000	0.149554
	9.310000	-0.031326
	9.315000	0.008138
	9.320000	0.182441
	9.325000	0.146265
	9.330000	-0.031326
	9.335000	0.001561
	9.340000	0.182441
	9.345000	0.142976
	9.350000	-0.034615
	9.355000	-0.001728
	9.360000	0.179152
	9.365000	0.146265
	9.370000	-0.031326
	9.375000	-0.005016
	9.380000	0.175863
	9.385000	0.142976
	9.390000	-0.037904
	9.395000	-0.011594
	9.400000	0.175863
	9.405000	0.146265
	9.410000	-0.037904
	9.415000	-0.008305
	9.420000	0.175863
	9.425000	0.142976
	9.430000	-0.041192
	9.435000	-0.008305
	9.440000	0.172575
	9.445000	0.146265
	9.450000	-0.041192
	9.455000	-0.005016
	9.460000	0.175863
	9.465000	0.139687
	9.470000	-0.034615
	9.475000	-0.005016
	9.480000	0.179152
	9.485000	0.146265
	9.490000	-0.044481
	9.495000	-0.011594
	9.500000	0.175863
	9.505000	0.149554
	9.510000	-0.037904
	9.515000	-0.011594
	9.520000	0.179152
	9.525000	0.142976
	9.530000	-0.044481
	9.535000	-0.008305
	9.540000	0.175863
	9.545000	0.149554
	9.550000	-0.037904
	9.555000	-0.008305
	9.560000	0.175863
	9.565000	0.146265
	9.570000	-0.037904
	9.575000	-0.008305
	9.580000	0.182441
	9.585000	0.149554
	9.590000	-0.034615
	9.595000	-0.008305
	9.600000	0.182441
	9.605000	0.146265
	9.610000	-0.034615
	9.615000	-0.005016
	9.620000	0.175863
	9.625000	0.152842
	9.630000	-0.034615
	9.635000	-0.005016
	9.640000	0.172575
	9.645000	0.152842
	9.650000	-0.037904
	9.655000	-0.011594
	9.660000	0.175863
	9.665000	0.142976
	9.670000	-0.037904
	9.675000	-0.014883
	9.680000	0.172575
	9.685000	0.142976
	9.690000	-0.041192
	9.695000	-0.014883
	9.700000	0.172575
	9.705000	0.142976
	9.710000	-0.044481
	9.715000	-0.011594
	9.720000	0.175863
	9.725000	0.139687
	9.730000	-0.044481
	9.735000	-0.018171
	9.740000	0.172575
	9.745000	0.142976
	9.750000	-0.041192
	9.755000	-0.014883
	9.760000	0.175863
	9.765000	0.149554
	9.770000	-0.037904
	9.775000	-0.008305
	9.780000	0.179152
	9.785000	0.149554
	9.790000	-0.034615
	9.795000	-0.011594
	9.800000	0.182441
	9.805000	0.152842
	9.810000	-0.031326
	9.815000	-0.011594
	9.820000	0.175863
	9.825000	0.152842
	9.830000	-0.037904
	9.835000	-0.008305
	9.840000	0.182441
	9.845000	0.149554
	9.850000	-0.034615
	9.855000	-0.014883
	9.860000	0.182441
	9.865000	0.149554
	9.870000	-0.037904
	9.875000	-0.008305
	9.880000	0.175863
	9.885000	0.149554
	9.890000	-0.037904
	9.895000	-0.014883
	9.900000	0.175863
	9.905000	0.152842
	9.910000	-0.041192
	9.915000	-0.011594
	9.920000	0.179152
	9.925000	0.156131
	9.930000	-0.037904
	9.935000	-0.011594
	9.940000	0.182441
	9.945000	0.159420
	9.950000	-0.034615
	9.955000	-0.008305
	9.960000	0.182441
	9.965000	0.156131
	9.970000	-0.031326
	9.975000	-0.008305
	9.980000	0.182441
	9.985000	0.159420
	9.990000	-0.034615
	9.995000	-0.011594
	10.000000	0.179152
	10.005000	0.156131
	10.010000	-0.031326
	10.015000	-0.008305
	10.020000	0.179152
	10.025000	0.159420
	10.030000	-0.031326
	10.035000	-0.005016
	10.040000	0.182441
	10.045000	0.162708
	10.050000	-0.031326
	10.055000	-0.001728
	10.060000	0.182441
	10.065000	0.162708
	10.070000	-0.024749
	10.075000	-0.005016
	10.080000	0.182441
	10.085000	0.169286
	10.090000	-0.024749
	10.095000	-0.001728
	10.100000	0.189018
	10.105000	0.169286
	10.110000	-0.021460
	10.115000	-0.001728
	10.120000	0.185730
	10.125000	0.169286
	10.130000	-0.018171
	10.135000	-0.001728
	10.140000	0.189018
	10.145000	0.169286
	10.150000	-0.021460
	10.155000	-0.001728
	10.160000	0.189018
	10.165000	0.172575
	10.170000	-0.018171
	10.175000	-0.001728
	10.180000	0.192307
	10.185000	0.172575
	10.190000	-0.014883
	10.195000	0.001561
	10.200000	0.192307
	10.205000	0.172575
	10.210000	-0.014883
	10.215000	0.004850
	10.220000	0.195596
	10.225000	0.175863
	10.230000	-0.014883
	10.235000	0.004850
	10.240000	0.195596
	10.245000	0.182441
	10.250000	-0.014883
	10.255000	0.008138
	10.260000	0.202173
	10.265000	0.182441
	10.270000	-0.008305
	10.275000	0.008138
	10.280000	0.198884
	10.285000	0.182441
	10.290000	-0.008305
	10.295000	0.008138
	10.300000	0.202173
	10.305000	0.182441
	10.310000	-0.011594
	10.315000	0.004850
	10.320000	0.192307
	10.325000	0.179152
	10.330000	-0.014883
	10.335000	0.004850
	10.340000	0.195596
	10.345000	0.182441
	10.350000	-0.011594
	10.355000	0.001561
	10.360000	0.195596
	10.365000	0.179152
	10.370000	-0.011594
	10.375000	-0.001728
	10.380000	0.195596
	10.385000	0.179152
	10.390000	-0.014883
	10.395000	0.001561
	10.400000	0.198884
	10.405000	0.182441
	10.410000	-0.014883
	10.415000	0.004850
	10.420000	0.195596
	10.425000	0.182441
	10.430000	-0.011594
	10.435000	0.001561
	10.440000	0.198884
	10.445000	0.185730
	10.450000	-0.014883
	10.455000	0.004850
	10.460000	0.195596
	10.465000	0.185730
	10.470000	-0.008305
	10.475000	0.001561
	10.480000	0.195596
	10.485000	0.185730
	10.490000	-0.005016
	10.495000	-0.001728
	10.500000	0.195596
	10.505000	0.189018
	10.510000	-0.008305
	10.515000	-0.001728
	10.520000	0.189018
	10.525000	0.182441
	10.530000	-0.011594
	10.535000	-0.005016
	10.540000	0.195596
	10.545000	0.182441
	10.550000	-0.014883
	10.555000	-0.001728
	10.560000	0.192307
	10.565000	0.185730
	10.570000	-0.008305
	10.575000	-0.001728
	10.580000	0.189018
	10.585000	0.182441
	10.590000	-0.018171
	10.595000	-0.005016
	10.600000	0.192307
	10.605000	0.179152
	10.610000	-0.014883
	10.615000	-0.005016
	10.620000	0.185730
	10.625000	0.179152
	10.630000	-0.018171
	10.635000	-0.008305
	10.640000	0.189018
	10.645000	0.175863
	10.650000	-0.014883
	10.655000	-0.011594
	10.660000	0.185730
	10.665000	0.182441
	10.670000	-0.014883
	10.675000	-0.008305
	10.680000	0.182441
	10.685000	0.179152
	10.690000	-0.024749
	10.695000	-0.011594
	10.700000	0.185730
	10.705000	0.175863
	10.710000	-0.021460
	10.715000	-0.011594
	10.720000	0.182441
	10.725000	0.175863
	10.730000	-0.018171
	10.735000	-0.014883
	10.740000	0.179152
	10.745000	0.175863
	10.750000	-0.021460
	10.755000	-0.018171
	10.760000	0.182441
	10.765000	0.172575
	10.770000	-0.018171
	10.775000	-0.021460
	10.780000	0.172575
	10.785000	0.172575
	10.790000	-0.024749
	10.795000	-0.021460
	10.800000	0.179152
	10.805000	0.172575
	10.810000	-0.021460
	10.815000	-0.011594
	10.820000	0.175863
	10.825000	0.175863
	10.830000	-0.018171
	10.835000	-0.018171
	10.840000	0.179152
	10.845000	0.179152
	10.850000	-0.021460
	10.855000	-0.014883
	10.860000	0.175863
	10.865000	0.175863
	10.870000	-0.024749
	10.875000	-0.011594
	10.880000	0.175863
	10.885000	0.172575
	10.890000	-0.021460
	10.895000	-0.018171
	10.900000	0.172575
	10.905000	0.179152
	10.910000	-0.014883
	10.915000	-0.014883
	10.920000	0.175863
	10.925000	0.182441
	10.930000	-0.008305
	10.935000	-0.011594
	10.940000	0.185730
	10.945000	0.189018
	10.950000	-0.008305
	10.955000	-0.005016
	10.960000	0.189018
	10.965000	0.195596
	10.970000	-0.005016
	10.975000	-0.001728
	10.980000	0.189018
	10.985000	0.198884
	10.990000	-0.001728
	10.995000	-0.001728
	11.000000	0.189018
	11.005000	0.195596
	11.010000	0.001561
	11.015000	-0.001728
	11.020000	0.192307
	11.025000	0.198884
	11.030000	0.001561
	11.035000	0.004850
	11.040000	0.195596
	11.045000	0.198884
	11.050000	0.008138
	11.055000	0.001561
	11.060000	0.198884
	11.065000	0.198884
	11.070000	0.011427
	11.075000	0.001561
	11.080000	0.198884
	11.085000	0.205462
	11.090000	0.008138
	11.095000	0.001561
	11.100000	0.198884
	11.105000	0.202173
	11.110000	0.011427
	11.115000	0.004850
	11.120000	0.195596
	11.125000	0.205462
	11.130000	0.011427
	11.135000	0.004850
	11.140000	0.195596
	11.145000	0.205462
	11.150000	0.014716
	11.155000	0.011427
	11.160000	0.198884
	11.165000	0.205462
	11.170000	0.014716
	11.175000	0.004850
	11.180000	0.195596
	11.185000	0.205462
	11.190000	0.018005
	11.195000	0.011427
	11.200000	0.195596
	11.205000	0.212039
	11.210000	0.021293
	11.215000	0.008138
	11.220000	0.202173
	11.225000	0.208751
	11.230000	0.021293
	11.235000	0.014716
	11.240000	0.205462
	11.245000	0.212039
	11.250000	0.021293
	11.255000	0.018005
	11.260000	0.205462
	11.265000	0.212039
	11.270000	0.027871
	11.275000	0.011427
	11.280000	0.202173
	11.285000	0.208751
	11.290000	0.027871
	11.295000	0.021293
	11.300000	0.202173
	11.305000	0.212039
	11.310000	0.027871
	11.315000	0.018005
	11.320000	0.202173
	11.325000	0.215328
	11.330000	0.027871
	11.335000	0.021293
	11.340000	0.202173
	11.345000	0.218617
	11.350000	0.031160
	11.355000	0.014716
	11.360000	0.202173
	11.365000	0.215328
	11.370000	0.031160
	11.375000	0.018005
	11.380000	0.202173
	11.385000	0.215328
	11.390000	0.024582
	11.395000	0.011427
	11.400000	0.198884
	11.405000	0.215328
	11.410000	0.027871
	11.415000	0.011427
	11.420000	0.202173
	11.425000	0.212039
	11.430000	0.031160
	11.435000	0.018005
	11.440000	0.198884
	11.445000	0.215328
	11.450000	0.034448
	11.455000	0.014716
	11.460000	0.198884
	11.465000	0.215328
	11.470000	0.034448
	11.475000	0.014716
	11.480000	0.198884
	11.485000	0.218617
	11.490000	0.027871
	11.495000	0.014716
	11.500000	0.198884
	11.505000	0.215328
	11.510000	0.034448
	11.515000	0.014716
	11.520000	0.195596
	11.525000	0.208751
	11.530000	0.027871
	11.535000	0.024582
	11.540000	0.192307
	11.545000	0.218617
	11.550000	0.031160
	11.555000	0.014716
	11.560000	0.198884
	11.565000	0.221905
	11.570000	0.037737
	11.575000	0.014716
	11.580000	0.202173
	11.585000	0.221905
	11.590000	0.041026
	11.595000	0.021293
	11.600000	0.198884
	11.605000	0.221905
	11.610000	0.037737
	11.615000	0.021293
	11.620000	0.202173
	11.625000	0.221905
	11.630000	0.037737
	11.635000	0.014716
	11.640000	0.208751
	11.645000	0.221905
	11.650000	0.041026
	11.655000	0.018005
	11.660000	0.195596
	11.665000	0.218617
	11.670000	0.041026
	11.675000	0.021293
	11.680000	0.195596
	11.685000	0.218617
	11.690000	0.041026
	11.695000	0.014716
	11.700000	0.202173
	11.705000	0.221905
	11.710000	0.044314
	11.715000	0.018005
	11.720000	0.192307
	11.725000	0.221905
	11.730000	0.041026
	11.735000	0.018005
	11.740000	0.195596
	11.745000	0.221905
	11.750000	0.037737
	11.755000	0.014716
	11.760000	0.198884
	11.765000	0.212039
	11.770000	0.034448
	11.775000	0.008138
	11.780000	0.192307
	11.785000	0.215328
	11.790000	0.031160
	11.795000	0.008138
	11.800000	0.189018
	11.805000	0.212039
	11.810000	0.034448
	11.815000	0.008138
	11.820000	0.185730
	11.825000	0.212039
	11.830000	0.024582
	11.835000	0.001561
	11.840000	0.189018
	11.845000	0.212039
	11.850000	0.027871
	11.855000	0.001561
	11.860000	0.185730
	11.865000	0.205462
	11.870000	0.021293
	11.875000	-0.008305
	11.880000	0.182441
	11.885000	0.202173
	11.890000	0.014716
	11.895000	-0.008305
	11.900000	0.169286
	11.905000	0.205462
	11.910000	0.011427
	11.915000	-0.014883
	11.920000	0.159420
	11.925000	0.192307
	11.930000	0.001561
	11.935000	-0.031326
	11.940000	0.159420
	11.945000	0.182441
	11.950000	-0.008305
	11.955000	-0.037904
	11.960000	0.149554
	11.965000	0.175863
	11.970000	-0.014883
	11.975000	-0.047770
	11.980000	0.142976
	11.985000	0.172575
	11.990000	-0.014883
	11.995000	-0.051059
	12.000000	0.139687
	12.005000	0.169286
	12.010000	-0.018171
	12.015000	-0.051059
	12.020000	0.139687
	12.025000	0.169286
	12.030000	-0.018171
	12.035000	-0.051059
	12.040000	0.136399
	12.045000	0.162708
	12.050000	-0.021460
	12.055000	-0.051059
	12.060000	0.142976
	12.065000	0.169286
	12.070000	-0.014883
	12.075000	-0.054347
	12.080000	0.136399
	12.085000	0.169286
	12.090000	-0.014883
	12.095000	-0.044481
	12.100000	0.146265
	12.105000	0.179152
	12.110000	-0.008305
	12.115000	-0.037904
	12.120000	0.152842
	12.125000	0.185730
	12.130000	0.001561
	12.135000	-0.034615
	12.140000	0.156131
	12.145000	0.198884
	12.150000	0.011427
	12.155000	-0.021460
	12.160000	0.165997
	12.165000	0.202173
	12.170000	0.014716
	12.175000	-0.018171
	12.180000	0.162708
	12.185000	0.202173
	12.190000	0.021293
	12.195000	-0.014883
	12.200000	0.172575
	12.205000	0.202173
	12.210000	0.018005
	12.215000	-0.008305
	12.220000	0.172575
	12.225000	0.208751
	12.230000	0.027871
	12.235000	-0.008305
	12.240000	0.172575
	12.245000	0.212039
	12.250000	0.037737
	12.255000	-0.005016
	12.260000	0.179152
	12.265000	0.221905
	12.270000	0.044314
	12.275000	0.004850
	12.280000	0.182441
	12.285000	0.221905
	12.290000	0.044314
	12.295000	0.008138
	12.300000	0.189018
	12.305000	0.221905
	12.310000	0.041026
	12.315000	0.004850
	12.320000	0.182441
	12.325000	0.215328
	12.330000	0.041026
	12.335000	0.001561
	12.340000	0.185730
	12.345000	0.218617
	12.350000	0.041026
	12.355000	0.001561
	12.360000	0.175863
	12.365000	0.212039
	12.370000	0.031160
	12.375000	-0.008305
	12.380000	0.165997
	12.385000	0.205462
	12.390000	0.024582
	12.395000	-0.011594
	12.400000	0.162708
	12.405000	0.212039
	12.410000	0.027871
	12.415000	-0.011594
	12.420000	0.162708
	12.425000	0.198884
	12.430000	0.014716
	12.435000	-0.021460
	12.440000	0.156131
	12.445000	0.195596
	12.450000	0.014716
	12.455000	-0.028037
	12.460000	0.156131
	12.465000	0.189018
	12.470000	0.011427
	12.475000	-0.031326
	12.480000	0.149554
	12.485000	0.189018
	12.490000	0.004850
	12.495000	-0.034615
	12.500000	0.142976
	12.505000	0.185730
	12.510000	0.001561
	12.515000	-0.037904
	12.520000	0.136399
	12.525000	0.175863
	12.530000	0.001561
	12.535000	-0.044481
	12.540000	0.133110
	12.545000	0.179152
	12.550000	-0.005016
	12.555000	-0.041192
	12.560000	0.133110
	12.565000	0.172575
	12.570000	-0.008305
	12.575000	-0.047770
	12.580000	0.129821
	12.585000	0.172575
	12.590000	-0.005016
	12.595000	-0.047770
	12.600000	0.133110
	12.605000	0.172575
	12.610000	-0.001728
	12.615000	-0.041192
	12.620000	0.136399
	12.625000	0.172575
	12.630000	-0.001728
	12.635000	-0.041192
	12.640000	0.139687
	12.645000	0.179152
	12.650000	-0.001728
	12.655000	-0.044481
	12.660000	0.136399
	12.665000	0.182441
	12.670000	0.001561
	12.675000	-0.044481
	12.680000	0.136399
	12.685000	0.179152
	12.690000	-0.001728
	12.695000	-0.044481
	12.700000	0.136399
	12.705000	0.182441
	12.710000	-0.001728
	12.715000	-0.047770
	12.720000	0.139687
	12.725000	0.175863
	12.730000	-0.005016
	12.735000	-0.047770
	12.740000	0.136399
	12.745000	0.185730
	12.750000	0.001561
	12.755000	-0.047770
	12.760000	0.133110
	12.765000	0.189018
	12.770000	-0.005016
	12.775000	-0.044481
	12.780000	0.139687
	12.785000	0.182441
	12.790000	-0.001728
	12.795000	-0.041192
	12.800000	0.133110
	12.805000	0.185730
	12.810000	-0.005016
	12.815000	-0.044481
	12.820000	0.136399
	12.825000	0.179152
	12.830000	-0.001728
	12.835000	-0.051059
	12.840000	0.133110
	12.845000	0.175863
	12.850000	-0.008305
	12.855000	-0.054347
	12.860000	0.129821
	12.865000	0.179152
	12.870000	-0.005016
	12.875000	-0.054347
	12.880000	0.129821
	12.885000	0.179152
	12.890000	-0.005016
	12.895000	-0.051059
	12.900000	0.133110
	12.905000	0.182441
	12.910000	-0.001728
	12.915000	-0.051059
	12.920000	0.133110
	12.925000	0.182441
	12.930000	0.001561
	12.935000	-0.051059
	12.940000	0.133110
	12.945000	0.185730
	12.950000	-0.001728
	12.955000	-0.047770
	12.960000	0.139687
	12.965000	0.182441
	12.970000	0.001561
	12.975000	-0.051059
	12.980000	0.139687
	12.985000	0.192307
	12.990000	0.004850
	12.995000	-0.047770
	13.000000	0.139687
	13.005000	0.189018
	13.010000	0.004850
	13.015000	-0.051059
	13.020000	0.136399
	13.025000	0.189018
	13.030000	0.008138
	13.035000	-0.051059
	13.040000	0.136399
	13.045000	0.185730
	13.050000	0.001561
	13.055000	-0.051059
	13.060000	0.133110
	13.065000	0.185730
	13.070000	0.001561
	13.075000	-0.047770
	13.080000	0.133110
	13.085000	0.189018
	13.090000	0.001561
	13.095000	-0.051059
	13.100000	0.133110
	13.105000	0.189018
	13.110000	-0.001728
	13.115000	-0.051059
	13.120000	0.133110
	13.125000	0.185730
	13.130000	0.001561
	13.135000	-0.051059
	13.140000	0.133110
	13.145000	0.189018
	13.150000	0.008138
	13.155000	-0.051059
	13.160000	0.133110
	13.165000	0.192307
	13.170000	0.004850
	13.175000	-0.051059
	13.180000	0.133110
	13.185000	0.195596
	13.190000	0.001561
	13.195000	-0.054347
	13.200000	0.136399
	13.205000	0.192307
	13.210000	0.004850
	13.215000	-0.047770
	13.220000	0.136399
	13.225000	0.192307
	13.230000	0.004850
	13.235000	-0.051059
	13.240000	0.133110
	13.245000	0.195596
	13.250000	0.004850
	13.255000	-0.047770
	13.260000	0.136399
	13.265000	0.195596
	13.270000	0.008138
	13.275000	-0.051059
	13.280000	0.136399
	13.285000	0.195596
	13.290000	0.011427
	13.295000	-0.047770
	13.300000	0.139687
	13.305000	0.195596
	13.310000	0.008138
	13.315000	-0.044481
	13.320000	0.139687
	13.325000	0.198884
	13.330000	0.014716
	13.335000	-0.047770
	13.340000	0.142976
	13.345000	0.195596
	13.350000	0.018005
	13.355000	-0.044481
	13.360000	0.139687
	13.365000	0.202173
	13.370000	0.018005
	13.375000	-0.041192
	13.380000	0.139687
	13.385000	0.198884
	13.390000	0.014716
	13.395000	-0.044481
	13.400000	0.142976
	13.405000	0.202173
	13.410000	0.014716
	13.415000	-0.037904
	13.420000	0.146265
	13.425000	0.208751
	13.430000	0.024582
	13.435000	-0.037904
	13.440000	0.146265
	13.445000	0.212039
	13.450000	0.027871
	13.455000	-0.034615
	13.460000	0.149554
	13.465000	0.212039
	13.470000	0.027871
	13.475000	-0.034615
	13.480000	0.146265
	13.485000	0.215328
	13.490000	0.027871
	13.495000	-0.031326
	13.500000	0.149554
	13.505000	0.215328
	13.510000	0.027871
	13.515000	-0.034615
	13.520000	0.149554
	13.525000	0.212039
	13.530000	0.027871
	13.535000	-0.034615
	13.540000	0.149554
	13.545000	0.212039
	13.550000	0.031160
	13.555000	-0.034615
	13.560000	0.152842
	13.565000	0.215328
	13.570000	0.031160
	13.575000	-0.028037
	13.580000	0.156131
	13.585000	0.215328
	13.590000	0.031160
	13.595000	-0.024749
	13.600000	0.156131
	13.605000	0.221905
	13.610000	0.037737
	13.615000	-0.024749
	13.620000	0.149554
	13.625000	0.215328
	13.630000	0.031160
	13.635000	-0.028037
	13.640000	0.149554
	13.645000	0.218617
	13.650000	0.034448
	13.655000	-0.034615
	13.660000	0.149554
	13.665000	0.218617
	13.670000	0.034448
	13.675000	-0.031326
	13.680000	0.149554
	13.685000	0.215328
	13.690000	0.031160
	13.695000	-0.034615
	13.700000	0.149554
	13.705000	0.212039
	13.710000	0.034448
	13.715000	-0.031326
	13.720000	0.149554
	13.725000	0.215328
	13.730000	0.031160
	13.735000	-0.028037
	13.740000	0.149554
	13.745000	0.212039
	13.750000	0.034448
	13.755000	-0.031326
	13.760000	0.149554
	13.765000	0.215328
	13.770000	0.027871
	13.775000	-0.034615
	13.780000	0.142976
	13.785000	0.215328
	13.790000	0.027871
	13.795000	-0.034615
	13.800000	0.142976
	13.805000	0.212039
	13.810000	0.031160
	13.815000	-0.041192
	13.820000	0.142976
	13.825000	0.212039
	13.830000	0.027871
	13.835000	-0.034615
	13.840000	0.142976
	13.845000	0.218617
	13.850000	0.031160
	13.855000	-0.037904
	13.860000	0.146265
	13.865000	0.208751
	13.870000	0.031160
	13.875000	-0.037904
	13.880000	0.142976
	13.885000	0.212039
	13.890000	0.031160
	13.895000	-0.041192
	13.900000	0.142976
	13.905000	0.212039
	13.910000	0.027871
	13.915000	-0.041192
	13.920000	0.139687
	13.925000	0.212039
	13.930000	0.031160
	13.935000	-0.041192
	13.940000	0.146265
	13.945000	0.208751
	13.950000	0.027871
	13.955000	-0.041192
	13.960000	0.142976
	13.965000	0.215328
	13.970000	0.031160
	13.975000	-0.041192
	13.980000	0.139687
	13.985000	0.212039
	13.990000	0.027871
	13.995000	-0.037904
	14.000000	0.136399
	14.005000	0.208751
	14.010000	0.027871
	14.015000	-0.044481
	14.020000	0.133110
	14.025000	0.212039
	14.030000	0.024582
	14.035000	-0.047770
	14.040000	0.136399
	14.045000	0.208751
	14.050000	0.024582
	14.055000	-0.044481
	14.060000	0.133110
	14.065000	0.208751
	14.070000	0.024582
	14.075000	-0.047770
	14.080000	0.129821
	14.085000	0.205462
	14.090000	0.024582
	14.095000	-0.051059
	14.100000	0.123244
	14.105000	0.198884
	14.110000	0.024582
	14.115000	-0.054347
	14.120000	0.126533
	14.125000	0.202173
	14.130000	0.018005
	14.135000	-0.057636
	14.140000	0.126533
	14.145000	0.202173
	14.150000	0.024582
	14.155000	-0.051059
	14.160000	0.133110
	14.165000	0.202173
	14.170000	0.021293
	14.175000	-0.047770
	14.180000	0.129821
	14.185000	0.202173
	14.190000	0.027871
	14.195000	-0.047770
	14.200000	0.133110
	14.205000	0.205462
	14.210000	0.031160
	14.215000	-0.044481
	14.220000	0.136399
	14.225000	0.212039
	14.230000	0.037737
	14.235000	-0.037904
	14.240000	0.139687
	14.245000	0.212039
	14.250000	0.041026
	14.255000	-0.037904
	14.260000	0.142976
	14.265000	0.218617
	14.270000	0.044314
	14.275000	-0.034615
	14.280000	0.142976
	14.285000	0.218617
	14.290000	0.041026
	14.295000	-0.037904
	14.300000	0.142976
	14.305000	0.215328
	14.310000	0.044314
	14.315000	-0.034615
	14.320000	0.136399
	14.325000	0.215328
	14.330000	0.044314
	14.335000	-0.034615
	14.340000	0.142976
	14.345000	0.215328
	14.350000	0.044314
	14.355000	-0.028037
	14.360000	0.142976
	14.365000	0.221905
	14.370000	0.047603
	14.375000	-0.028037
	14.380000	0.146265
	14.385000	0.225194
	14.390000	0.050892
	14.395000	-0.028037
	14.400000	0.149554
	14.405000	0.225194
	14.410000	0.054181
	14.415000	-0.018171
	14.420000	0.149554
	14.425000	0.225194
	14.430000	0.060758
	14.435000	-0.014883
	14.440000	0.152842
	14.445000	0.231772
	14.450000	0.067335
	14.455000	-0.018171
	14.460000	0.152842
	14.465000	0.231772
	14.470000	0.064047
	14.475000	-0.014883
	14.480000	0.156131
	14.485000	0.235060
	14.490000	0.064047
	14.495000	-0.011594
	14.500000	0.156131
	14.505000	0.241638
	14.510000	0.070624
	14.515000	-0.014883
	14.520000	0.159420
	14.525000	0.235060
	14.530000	0.070624
	14.535000	-0.008305
	14.540000	0.159420
	14.545000	0.241638
	14.550000	0.070624
	14.555000	-0.008305
	14.560000	0.159420
	14.565000	0.238349
	14.570000	0.073913
	14.575000	-0.008305
	14.580000	0.156131
	14.585000	0.241638
	14.590000	0.073913
	14.595000	-0.005016
	14.600000	0.159420
	14.605000	0.241638
	14.610000	0.077202
	14.615000	-0.001728
	14.620000	0.159420
	14.625000	0.248215
	14.630000	0.080490
	14.635000	-0.005016
	14.640000	0.162708
	14.645000	0.244927
	14.650000	0.080490
	14.655000	0.001561
	14.660000	0.162708
	14.665000	0.241638
	14.670000	0.080490
	14.675000	0.001561
	14.680000	0.162708
	14.685000	0.241638
	14.690000	0.077202
	14.695000	-0.001728
	14.700000	0.159420
	14.705000	0.241638
	14.710000	0.080490
	14.715000	-0.005016
	14.720000	0.156131
	14.725000	0.241638
	14.730000	0.083779
	14.735000	-0.005016
	14.740000	0.159420
	14.745000	0.241638
	14.750000	0.083779
	14.755000	-0.005016
	14.760000	0.159420
	14.765000	0.241638
	14.770000	0.080490
	14.775000	-0.005016
	14.780000	0.159420
	14.785000	0.241638
	14.790000	0.077202
	14.795000	-0.005016
	14.800000	0.156131
	14.805000	0.238349
	14.810000	0.073913
	14.815000	-0.014883
	14.820000	0.149554
	14.825000	0.235060
	14.830000	0.073913
	14.835000	-0.011594
	14.840000	0.142976
	14.845000	0.228483
	14.850000	0.067335
	14.855000	-0.014883
	14.860000	0.146265
	14.865000	0.228483
	14.870000	0.070624
	14.875000	-0.014883
	14.880000	0.146265
	14.885000	0.235060
	14.890000	0.070624
	14.895000	-0.011594
	14.900000	0.146265
	14.905000	0.231772
	14.910000	0.070624
	14.915000	-0.014883
	14.920000	0.149554
	14.925000	0.228483
	14.930000	0.070624
	14.935000	-0.018171
	14.940000	0.146265
	14.945000	0.228483
	14.950000	0.064047
	14.955000	-0.021460
	14.960000	0.139687
	14.965000	0.225194
	14.970000	0.064047
	14.975000	-0.024749
	14.980000	0.136399
	14.985000	0.218617
	14.990000	0.064047
	14.995000	-0.024749
	15.000000	0.136399
	15.005000	0.221905
	15.010000	0.060758
	15.015000	-0.028037
	15.020000	0.136399
	15.025000	0.225194
	15.030000	0.057469
	15.035000	-0.034615
	15.040000	0.136399
	15.045000	0.221905
	15.050000	0.054181
	15.055000	-0.031326
	15.060000	0.133110
	15.065000	0.225194
	15.070000	0.064047
	15.075000	-0.028037
	15.080000	0.129821
	15.085000	0.221905
	15.090000	0.060758
	15.095000	-0.037904
	15.100000	0.126533
	15.105000	0.218617
	15.110000	0.057469
	15.115000	-0.031326
	15.120000	0.126533
	15.125000	0.221905
	15.130000	0.054181
	15.135000	-0.034615
	15.140000	0.123244
	15.145000	0.215328
	15.150000	0.050892
	15.155000	-0.037904
	15.160000	0.126533
	15.165000	0.212039
	15.170000	0.057469
	15.175000	-0.044481
	15.180000	0.116666
	15.185000	0.215328
	15.190000	0.050892
	15.195000	-0.044481
	15.200000	0.116666
	15.205000	0.212039
	15.210000	0.054181
	15.215000	-0.041192
	15.220000	0.123244
	15.225000	0.215328
	15.230000	0.047603
	15.235000	-0.041192
	15.240000	0.119955
	15.245000	0.215328
	15.250000	0.047603
	15.255000	-0.051059
	15.260000	0.113378
	15.265000	0.212039
	15.270000	0.044314
	15.275000	-0.057636
	15.280000	0.110089
	15.285000	0.198884
	15.290000	0.037737
	15.295000	-0.060925
	15.300000	0.103511
	15.305000	0.198884
	15.310000	0.037737
	15.315000	-0.057636
	15.320000	0.100223
	15.325000	0.202173
	15.330000	0.041026
	15.335000	-0.054347
	15.340000	0.106800
	15.345000	0.205462
	15.350000	0.047603
	15.355000	-0.047770
	15.360000	0.106800
	15.365000	0.205462
	15.370000	0.044314
	15.375000	-0.047770
	15.380000	0.110089
	15.385000	0.205462
	15.390000	0.044314
	15.395000	-0.054347
	15.400000	0.106800
	15.405000	0.205462
	15.410000	0.047603
	15.415000	-0.054347
	15.420000	0.106800
	15.425000	0.202173
	15.430000	0.044314
	15.435000	-0.054347
	15.440000	0.106800
	15.445000	0.202173
	15.450000	0.044314
	15.455000	-0.047770
	15.460000	0.103511
	15.465000	0.208751
	15.470000	0.054181
	15.475000	-0.041192
	15.480000	0.113378
	15.485000	0.218617
	15.490000	0.064047
	15.495000	-0.034615
	15.500000	0.126533
	15.505000	0.228483
	15.510000	0.067335
	15.515000	-0.028037
	15.520000	0.123244
	15.525000	0.221905
	15.530000	0.067335
	15.535000	-0.028037
	15.540000	0.123244
	15.545000	0.221905
	15.550000	0.067335
	15.555000	-0.028037
	15.560000	0.119955
	15.565000	0.218617
	15.570000	0.067335
	15.575000	-0.031326
	15.580000	0.123244
	15.585000	0.221905
	15.590000	0.064047
	15.595000	-0.037904
	15.600000	0.123244
	15.605000	0.218617
	15.610000	0.064047
	15.615000	-0.034615
	15.620000	0.113378
	15.625000	0.218617
	15.630000	0.060758
	15.635000	-0.037904
	15.640000	0.113378
	15.645000	0.218617
	15.650000	0.057469
	15.655000	-0.044481
	15.660000	0.110089
	15.665000	0.212039
	15.670000	0.054181
	15.675000	-0.047770
	15.680000	0.103511
	15.685000	0.212039
	15.690000	0.050892
	15.695000	-0.047770
	15.700000	0.103511
	15.705000	0.205462
	15.710000	0.047603
	15.715000	-0.047770
	15.720000	0.100223
	15.725000	0.202173
	15.730000	0.050892
	15.735000	-0.047770
	15.740000	0.106800
	15.745000	0.208751
	15.750000	0.050892
	15.755000	-0.051059
	15.760000	0.100223
	15.765000	0.202173
	15.770000	0.050892
	15.775000	-0.054347
	15.780000	0.100223
	15.785000	0.202173
	15.790000	0.044314
	15.795000	-0.054347
	15.800000	0.096934
	15.805000	0.202173
	15.810000	0.047603
	15.815000	-0.054347
	15.820000	0.100223
	15.825000	0.202173
	15.830000	0.047603
	15.835000	-0.057636
	15.840000	0.100223
	15.845000	0.202173
	15.850000	0.041026
	15.855000	-0.051059
	15.860000	0.096934
	15.865000	0.198884
	15.870000	0.044314
	15.875000	-0.057636
	15.880000	0.096934
	15.885000	0.205462
	15.890000	0.044314
	15.895000	-0.054347
	15.900000	0.100223
	15.905000	0.202173
	15.910000	0.050892
	15.915000	-0.060925
	15.920000	0.100223
	15.925000	0.208751
	15.930000	0.054181
	15.935000	-0.051059
	15.940000	0.103511
	15.945000	0.208751
	15.950000	0.054181
	15.955000	-0.047770
	15.960000	0.106800
	15.965000	0.215328
	15.970000	0.060758
	15.975000	-0.047770
	15.980000	0.106800
	15.985000	0.215328
	15.990000	0.064047
	15.995000	-0.044481
	16.000000	0.106800
	16.005000	0.215328
	16.010000	0.064047
	16.015000	-0.051059
	16.020000	0.106800
	16.025000	0.212039
	16.030000	0.060758
	16.035000	-0.054347
	16.040000	0.106800
	16.045000	0.208751
	16.050000	0.057469
	16.055000	-0.057636
	16.060000	0.093645
	16.065000	0.205462
	16.070000	0.050892
	16.075000	-0.060925
	16.080000	0.096934
	16.085000	0.202173
	16.090000	0.050892
	16.095000	-0.054347
	16.100000	0.090357
	16.105000	0.205462
	16.110000	0.050892
	16.115000	-0.054347
	16.120000	0.100223
	16.125000	0.208751
	16.130000	0.050892
	16.135000	-0.051059
	16.140000	0.100223
	16.145000	0.208751
	16.150000	0.054181
	16.155000	-0.051059
	16.160000	0.096934
	16.165000	0.208751
	16.170000	0.057469
	16.175000	-0.054347
	16.180000	0.096934
	16.185000	0.212039
	16.190000	0.050892
	16.195000	-0.060925
	16.200000	0.093645
	16.205000	0.202173
	16.210000	0.054181
	16.215000	-0.057636
	16.220000	0.093645
	16.225000	0.212039
	16.230000	0.047603
	16.235000	-0.057636
	16.240000	0.093645
	16.245000	0.205462
	16.250000	0.054181
	16.255000	-0.057636
	16.260000	0.096934
	16.265000	0.205462
	16.270000	0.054181
	16.275000	-0.060925
	16.280000	0.093645
	16.285000	0.202173
	16.290000	0.050892
	16.295000	-0.060925
	16.300000	0.087068
	16.305000	0.202173
	16.310000	0.050892
	16.315000	-0.060925
	16.320000	0.090357
	16.325000	0.195596
	16.330000	0.050892
	16.335000	-0.060925
	16.340000	0.087068
	16.345000	0.198884
	16.350000	0.050892
	16.355000	-0.064213
	16.360000	0.090357
	16.365000	0.202173
	16.370000	0.054181
	16.375000	-0.064213
	16.380000	0.090357
	16.385000	0.202173
	16.390000	0.041026
	16.395000	-0.064213
	16.400000	0.083779
	16.405000	0.198884
	16.410000	0.047603
	16.415000	-0.067502
	16.420000	0.087068
	16.425000	0.198884
	16.430000	0.050892
	16.435000	-0.067502
	16.440000	0.087068
	16.445000	0.205462
	16.450000	0.050892
	16.455000	-0.060925
	16.460000	0.093645
	16.465000	0.205462
	16.470000	0.050892
	16.475000	-0.064213
	16.480000	0.090357
	16.485000	0.208751
	16.490000	0.054181
	16.495000	-0.060925
	16.500000	0.087068
	16.505000	0.208751
	16.510000	0.054181
	16.515000	-0.064213
	16.520000	0.090357
	16.525000	0.208751
	16.530000	0.057469
	16.535000	-0.054347
	16.540000	0.090357
	16.545000	0.205462
	16.550000	0.054181
	16.555000	-0.064213
	16.560000	0.090357
	16.565000	0.208751
	16.570000	0.054181
	16.575000	-0.064213
	16.580000	0.090357
	16.585000	0.208751
	16.590000	0.054181
	16.595000	-0.060925
	16.600000	0.093645
	16.605000	0.205462
	16.610000	0.054181
	16.615000	-0.060925
	16.620000	0.090357
	16.625000	0.208751
	16.630000	0.060758
	16.635000	-0.060925
	16.640000	0.087068
	16.645000	0.205462
	16.650000	0.057469
	16.655000	-0.060925
	16.660000	0.093645
	16.665000	0.212039
	16.670000	0.057469
	16.675000	-0.064213
	16.680000	0.090357
	16.685000	0.208751
	16.690000	0.057469
	16.695000	-0.057636
	16.700000	0.090357
	16.705000	0.208751
	16.710000	0.060758
	16.715000	-0.057636
	16.720000	0.087068
	16.725000	0.205462
	16.730000	0.054181
	16.735000	-0.064213
	16.740000	0.083779
	16.745000	0.208751
	16.750000	0.057469
	16.755000	-0.060925
	16.760000	0.080490
	16.765000	0.205462
	16.770000	0.057469
	16.775000	-0.060925
	16.780000	0.087068
	16.785000	0.205462
	16.790000	0.060758
	16.795000	-0.060925
	16.800000	0.087068
	16.805000	0.208751
	16.810000	0.060758
	16.815000	-0.057636
	16.820000	0.083779
	16.825000	0.212039
	16.830000	0.060758
	16.835000	-0.060925
	16.840000	0.087068
	16.845000	0.208751
	16.850000	0.060758
	16.855000	-0.067502
	16.860000	0.087068
	16.865000	0.202173
	16.870000	0.060758
	16.875000	-0.064213
	16.880000	0.083779
	16.885000	0.208751
	16.890000	0.064047
	16.895000	-0.060925
	16.900000	0.087068
	16.905000	0.212039
	16.910000	0.064047
	16.915000	-0.060925
	16.920000	0.087068
	16.925000	0.215328
	16.930000	0.064047
	16.935000	-0.060925
	16.940000	0.087068
	16.945000	0.208751
	16.950000	0.064047
	16.955000	-0.060925
	16.960000	0.090357
	16.965000	0.212039
	16.970000	0.064047
	16.975000	-0.060925
	16.980000	0.087068
	16.985000	0.212039
	16.990000	0.067335
	16.995000	-0.064213
	17.000000	0.090357
	17.005000	0.215328
	17.010000	0.067335
	17.015000	-0.060925
	17.020000	0.087068
	17.025000	0.212039
	17.030000	0.070624
	17.035000	-0.057636
	17.040000	0.087068
	17.045000	0.221905
	17.050000	0.070624
	17.055000	-0.054347
	17.060000	0.087068
	17.065000	0.215328
	17.070000	0.067335
	17.075000	-0.057636
	17.080000	0.087068
	17.085000	0.208751
	17.090000	0.070624
	17.095000	-0.054347
	17.100000	0.090357
	17.105000	0.218617
	17.110000	0.067335
	17.115000	-0.057636
	17.120000	0.090357
	17.125000	0.212039
	17.130000	0.070624
	17.135000	-0.060925
	17.140000	0.087068
	17.145000	0.215328
	17.150000	0.067335
	17.155000	-0.064213
	17.160000	0.083779
	17.165000	0.215328
	17.170000	0.064047
	17.175000	-0.057636
	17.180000	0.083779
	17.185000	0.212039
	17.190000	0.067335
	17.195000	-0.064213
	17.200000	0.080490
	17.205000	0.212039
	17.210000	0.064047
	17.215000	-0.060925
	17.220000	0.080490
	17.225000	0.212039
	17.230000	0.070624
	17.235000	-0.064213
	17.240000	0.083779
	17.245000	0.218617
	17.250000	0.070624
	17.255000	-0.057636
	17.260000	0.083779
	17.265000	0.208751
	17.270000	0.070624
	17.275000	-0.060925
	17.280000	0.080490
	17.285000	0.212039
	17.290000	0.067335
	17.295000	-0.064213
	17.300000	0.077202
	17.305000	0.205462
	17.310000	0.067335
	17.315000	-0.064213
	17.320000	0.077202
	17.325000	0.208751
	17.330000	0.064047
	17.335000	-0.067502
	17.340000	0.077202
	17.345000	0.212039
	17.350000	0.067335
	17.355000	-0.057636
	17.360000	0.083779
	17.365000	0.212039
	17.370000	0.070624
	17.375000	-0.060925
	17.380000	0.077202
	17.385000	0.208751
	17.390000	0.067335
	17.395000	-0.064213
	17.400000	0.080490
	17.405000	0.215328
	17.410000	0.067335
	17.415000	-0.064213
	17.420000	0.077202
	17.425000	0.208751
	17.430000	0.064047
	17.435000	-0.074080
	17.440000	0.070624
	17.445000	0.205462
	17.450000	0.064047
	17.455000	-0.070791
	17.460000	0.073913
	17.465000	0.205462
	17.470000	0.064047
	17.475000	-0.070791
	17.480000	0.067335
	17.485000	0.205462
	17.490000	0.064047
	17.495000	-0.067502
	17.500000	0.067335
	17.505000	0.205462
	17.510000	0.067335
	17.515000	-0.067502
	17.520000	0.070624
	17.525000	0.202173
	17.530000	0.067335
	17.535000	-0.067502
	17.540000	0.070624
	17.545000	0.202173
	17.550000	0.070624
	17.555000	-0.067502
	17.560000	0.067335
	17.565000	0.205462
	17.570000	0.067335
	17.575000	-0.070791
	17.580000	0.070624
	17.585000	0.208751
	17.590000	0.064047
	17.595000	-0.067502
	17.600000	0.067335
	17.605000	0.205462
	17.610000	0.067335
	17.615000	-0.064213
	17.620000	0.073913
	17.625000	0.212039
	17.630000	0.070624
	17.635000	-0.067502
	17.640000	0.073913
	17.645000	0.215328
	17.650000	0.077202
	17.655000	-0.067502
	17.660000	0.077202
	17.665000	0.212039
	17.670000	0.077202
	17.675000	-0.060925
	17.680000	0.077202
	17.685000	0.208751
	17.690000	0.073913
	17.695000	-0.067502
	17.700000	0.073913
	17.705000	0.212039
	17.710000	0.070624
	17.715000	-0.067502
	17.720000	0.073913
	17.725000	0.212039
	17.730000	0.067335
	17.735000	-0.067502
	17.740000	0.070624
	17.745000	0.208751
	17.750000	0.070624
	17.755000	-0.064213
	17.760000	0.070624
	17.765000	0.208751
	17.770000	0.077202
	17.775000	-0.067502
	17.780000	0.067335
	17.785000	0.212039
	17.790000	0.073913
	17.795000	-0.064213
	17.800000	0.067335
	17.805000	0.212039
	17.810000	0.070624
	17.815000	-0.067502
	17.820000	0.070624
	17.825000	0.208751
	17.830000	0.073913
	17.835000	-0.064213
	17.840000	0.067335
	17.845000	0.212039
	17.850000	0.073913
	17.855000	-0.060925
	17.860000	0.070624
	17.865000	0.208751
	17.870000	0.083779
	17.875000	-0.064213
	17.880000	0.070624
	17.885000	0.215328
	17.890000	0.077202
	17.895000	-0.067502
	17.900000	0.073913
	17.905000	0.208751
	17.910000	0.077202
	17.915000	-0.067502
	17.920000	0.070624
	17.925000	0.215328
	17.930000	0.077202
	17.935000	-0.057636
	17.940000	0.077202
	17.945000	0.212039
	17.950000	0.080490
	17.955000	-0.057636
	17.960000	0.073913
	17.965000	0.218617
	17.970000	0.083779
	17.975000	-0.060925
	17.980000	0.073913
	17.985000	0.215328
	17.990000	0.087068
	17.995000	-0.060925
	18.000000	0.070624
	18.005000	0.215328
	18.010000	0.087068
	18.015000	-0.054347
	18.020000	0.077202
	18.025000	0.215328
	18.030000	0.087068
	18.035000	-0.054347
	18.040000	0.073913
	18.045000	0.212039
	18.050000	0.083779
	18.055000	-0.054347
	18.060000	0.077202
	18.065000	0.218617
	18.070000	0.090357
	18.075000	-0.047770
	18.080000	0.077202
	18.085000	0.218617
	18.090000	0.090357
	18.095000	-0.051059
	18.100000	0.077202
	18.105000	0.218617
	18.110000	0.090357
	18.115000	-0.047770
	18.120000	0.070624
	18.125000	0.221905
	18.130000	0.093645
	18.135000	-0.051059
	18.140000	0.077202
	18.145000	0.221905
	18.150000	0.096934
	18.155000	-0.051059
	18.160000	0.077202
	18.165000	0.225194
	18.170000	0.096934
	18.175000	-0.047770
	18.180000	0.077202
	18.185000	0.221905
	18.190000	0.093645
	18.195000	-0.047770
	18.200000	0.080490
	18.205000	0.221905
	18.210000	0.093645
	18.215000	-0.044481
	18.220000	0.077202
	18.225000	0.221905
	18.230000	0.100223
	18.235000	-0.047770
	18.240000	0.077202
	18.245000	0.221905
	18.250000	0.103511
	18.255000	-0.041192
	18.260000	0.080490
	18.265000	0.228483
	18.270000	0.103511
	18.275000	-0.041192
	18.280000	0.083779
	18.285000	0.235060
	18.290000	0.106800
	18.295000	-0.041192
	18.300000	0.083779
	18.305000	0.235060
	18.310000	0.110089
	18.315000	-0.034615
	18.320000	0.083779
	18.325000	0.228483
	18.330000	0.113378
	18.335000	-0.034615
	18.340000	0.087068
	18.345000	0.238349
	18.350000	0.113378
	18.355000	-0.028037
	18.360000	0.090357
	18.365000	0.238349
	18.370000	0.116666
	18.375000	-0.021460
	18.380000	0.096934
	18.385000	0.238349
	18.390000	0.126533
	18.395000	-0.021460
	18.400000	0.096934
	18.405000	0.248215
	18.410000	0.123244
	18.415000	-0.021460
	18.420000	0.093645
	18.425000	0.244927
	18.430000	0.123244
	18.435000	-0.021460
	18.440000	0.093645
	18.445000	0.238349
	18.450000	0.123244
	18.455000	-0.028037
	18.460000	0.093645
	18.465000	0.235060
	18.470000	0.123244
	18.475000	-0.024749
	18.480000	0.090357
	18.485000	0.238349
	18.490000	0.119955
	18.495000	-0.028037
	18.500000	0.090357
	18.505000	0.238349
	18.510000	0.119955
	18.515000	-0.028037
	18.520000	0.090357
	18.525000	0.235060
	18.530000	0.119955
	18.535000	-0.028037
	18.540000	0.087068
	18.545000	0.235060
	18.550000	0.119955
	18.555000	-0.028037
	18.560000	0.087068
	18.565000	0.231772
	18.570000	0.119955
	18.575000	-0.028037
	18.580000	0.083779
	18.585000	0.235060
	18.590000	0.119955
	18.595000	-0.028037
	18.600000	0.087068
	18.605000	0.231772
	18.610000	0.116666
	18.615000	-0.028037
	18.620000	0.083779
	18.625000	0.231772
	18.630000	0.116666
	18.635000	-0.034615
	18.640000	0.077202
	18.645000	0.221905
	18.650000	0.110089
	18.655000	-0.041192
	18.660000	0.077202
	18.665000	0.221905
	18.670000	0.106800
	18.675000	-0.044481
	18.680000	0.077202
	18.685000	0.215328
	18.690000	0.106800
	18.695000	-0.041192
	18.700000	0.070624
	18.705000	0.218617
	18.710000	0.103511
	18.715000	-0.037904
	18.720000	0.070624
	18.725000	0.221905
	18.730000	0.106800
	18.735000	-0.034615
	18.740000	0.073913
	18.745000	0.221905
	18.750000	0.113378
	18.755000	-0.034615
	18.760000	0.070624
	18.765000	0.221905
	18.770000	0.113378
	18.775000	-0.028037
	18.780000	0.077202
	18.785000	0.225194
	18.790000	0.113378
	18.795000	-0.031326
	18.800000	0.080490
	18.805000	0.225194
	18.810000	0.110089
	18.815000	-0.031326
	18.820000	0.073913
	18.825000	0.218617
	18.830000	0.113378
	18.835000	-0.034615
	18.840000	0.070624
	18.845000	0.221905
	18.850000	0.116666
	18.855000	-0.034615
	18.860000	0.070624
	18.865000	0.215328
	18.870000	0.110089
	18.875000	-0.041192
	18.880000	0.064047
	18.885000	0.215328
	18.890000	0.106800
	18.895000	-0.037904
	18.900000	0.067335
	18.905000	0.218617
	18.910000	0.110089
	18.915000	-0.041192
	18.920000	0.067335
	18.925000	0.218617
	18.930000	0.113378
	18.935000	-0.037904
	18.940000	0.064047
	18.945000	0.215328
	18.950000	0.110089
	18.955000	-0.041192
	18.960000	0.060758
	18.965000	0.205462
	18.970000	0.103511
	18.975000	-0.047770
	18.980000	0.060758
	18.985000	0.208751
	18.990000	0.096934
	18.995000	-0.051059
	19.000000	0.057469
	19.005000	0.205462
	19.010000	0.096934
	19.015000	-0.051059
	19.020000	0.054181
	19.025000	0.205462
	19.030000	0.100223
	19.035000	-0.054347
	19.040000	0.054181
	19.045000	0.202173
	19.050000	0.096934
	19.055000	-0.060925
	19.060000	0.041026
	19.065000	0.195596
	19.070000	0.090357
	19.075000	-0.064213
	19.080000	0.034448
	19.085000	0.195596
	19.090000	0.083779
	19.095000	-0.067502
	19.100000	0.034448
	19.105000	0.185730
	19.110000	0.080490
	19.115000	-0.077368
	19.120000	0.018005
	19.125000	0.175863
	19.130000	0.070624
	19.135000	-0.087234
	19.140000	0.014716
	19.145000	0.169286
	19.150000	0.067335
	19.155000	-0.093812
	19.160000	0.004850
	19.165000	0.159420
	19.170000	0.054181
	19.175000	-0.103678
	19.180000	-0.001728
	19.185000	0.152842
	19.190000	0.047603
	19.195000	-0.113544
	19.200000	-0.011594
	19.205000	0.149554
	19.210000	0.041026
	19.215000	-0.113544
	19.220000	-0.014883
	19.225000	0.146265
	19.230000	0.047603
	19.235000	-0.116833
	19.240000	-0.011594
	19.245000	0.142976
	19.250000	0.047603
	19.255000	-0.113544
	19.260000	-0.008305
	19.265000	0.149554
	19.270000	0.050892
	19.275000	-0.106967
	19.280000	-0.005016
	19.285000	0.159420
	19.290000	0.057469
	19.295000	-0.097101
	19.300000	0.001561
	19.305000	0.162708
	19.310000	0.067335
	19.315000	-0.090523
	19.320000	0.008138
	19.325000	0.172575
	19.330000	0.070624
	19.335000	-0.087234
	19.340000	0.014716
	19.345000	0.172575
	19.350000	0.080490
	19.355000	-0.080657
	19.360000	0.014716
	19.365000	0.175863
	19.370000	0.077202
	19.375000	-0.080657
	19.380000	0.011427
	19.385000	0.175863
	19.390000	0.073913
	19.395000	-0.090523
	19.400000	0.008138
	19.405000	0.165997
	19.410000	0.067335
	19.415000	-0.093812
	19.420000	0.008138
	19.425000	0.156131
	19.430000	0.064047
	19.435000	-0.097101
	19.440000	-0.001728
	19.445000	0.159420
	19.450000	0.060758
	19.455000	-0.097101
	19.460000	0.001561
	19.465000	0.169286
	19.470000	0.073913
	19.475000	-0.090523
	19.480000	0.008138
	19.485000	0.175863
	19.490000	0.077202
	19.495000	-0.077368
	19.500000	0.021293
	19.505000	0.185730
	19.510000	0.090357
	19.515000	-0.067502
	19.520000	0.031160
	19.525000	0.189018
	19.530000	0.096934
	19.535000	-0.060925
	19.540000	0.031160
	19.545000	0.195596
	19.550000	0.106800
	19.555000	-0.054347
	19.560000	0.041026
	19.565000	0.202173
	19.570000	0.110089
	19.575000	-0.044481
	19.580000	0.054181
	19.585000	0.212039
	19.590000	0.116666
	19.595000	-0.034615
	19.600000	0.060758
	19.605000	0.221905
	19.610000	0.129821
	19.615000	-0.028037
	19.620000	0.060758
	19.625000	0.215328
	19.630000	0.133110
	19.635000	-0.028037
	19.640000	0.067335
	19.645000	0.225194
	19.650000	0.133110
	19.655000	-0.031326
	19.660000	0.057469
	19.665000	0.221905
	19.670000	0.129821
	19.675000	-0.031326
	19.680000	0.060758
	19.685000	0.221905
	19.690000	0.126533
	19.695000	-0.031326
	19.700000	0.057469
	19.705000	0.218617
	19.710000	0.129821
	19.715000	-0.031326
	19.720000	0.064047
	19.725000	0.221905
	19.730000	0.129821
	19.735000	-0.034615
	19.740000	0.057469
	19.745000	0.212039
	19.750000	0.126533
	19.755000	-0.041192
	19.760000	0.054181
	19.765000	0.208751
	19.770000	0.119955
	19.775000	-0.037904
	19.780000	0.047603
	19.785000	0.208751
	19.790000	0.113378
	19.795000	-0.041192
	19.800000	0.047603
	19.805000	0.205462
	19.810000	0.113378
	19.815000	-0.041192
	19.820000	0.044314
	19.825000	0.208751
	19.830000	0.116666
	19.835000	-0.047770
	19.840000	0.047603
	19.845000	0.212039
	19.850000	0.123244
	19.855000	-0.037904
	19.860000	0.044314
	19.865000	0.208751
	19.870000	0.119955
	19.875000	-0.041192
	19.880000	0.044314
	19.885000	0.205462
	19.890000	0.113378
	19.895000	-0.041192
	19.900000	0.037737
	19.905000	0.198884
	19.910000	0.110089
	19.915000	-0.051059
	19.920000	0.037737
	19.925000	0.198884
	19.930000	0.106800
	19.935000	-0.054347
	19.940000	0.034448
	19.945000	0.195596
	19.950000	0.110089
	19.955000	-0.054347
	19.960000	0.034448
	19.965000	0.195596
	19.970000	0.110089
	19.975000	-0.051059
	19.980000	0.037737
	19.985000	0.202173
	19.990000	0.106800
	19.995000	-0.047770
	20.000000	0.037737
	20.005000	0.202173
	20.010000	0.116666
	20.015000	-0.051059
	20.020000	0.041026
	20.025000	0.195596
	20.030000	0.110089
	20.035000	-0.051059
	20.040000	0.034448
	20.045000	0.198884
	20.050000	0.106800
	20.055000	-0.051059
	20.060000	0.034448
	20.065000	0.198884
	20.070000	0.113378
	20.075000	-0.054347
	20.080000	0.037737
	20.085000	0.198884
	20.090000	0.113378
	20.095000	-0.051059
	20.100000	0.031160
	20.105000	0.205462
	20.110000	0.116666
	20.115000	-0.047770
	20.120000	0.037737
	20.125000	0.202173
	20.130000	0.116666
	20.135000	-0.047770
	20.140000	0.034448
	20.145000	0.205462
	20.150000	0.116666
	20.155000	-0.051059
	20.160000	0.037737
	20.165000	0.202173
	20.170000	0.113378
	20.175000	-0.054347
	20.180000	0.037737
	20.185000	0.198884
	20.190000	0.113378
	20.195000	-0.047770
	20.200000	0.034448
	20.205000	0.198884
	20.210000	0.116666
	20.215000	-0.051059
	20.220000	0.037737
	20.225000	0.205462
	20.230000	0.119955
	20.235000	-0.051059
	20.240000	0.034448
	20.245000	0.202173
	20.250000	0.119955
	20.255000	-0.047770
	20.260000	0.037737
	20.265000	0.198884
	20.270000	0.116666
	20.275000	-0.054347
	20.280000	0.034448
	20.285000	0.195596
	20.290000	0.110089
	20.295000	-0.057636
	20.300000	0.031160
	20.305000	0.202173
	20.310000	0.113378
	20.315000	-0.057636
	20.320000	0.031160
	20.325000	0.195596
	20.330000	0.113378
	20.335000	-0.051059
	20.340000	0.027871
	20.345000	0.202173
	20.350000	0.113378
	20.355000	-0.054347
	20.360000	0.024582
	20.365000	0.192307
	20.370000	0.106800
	20.375000	-0.060925
	20.380000	0.024582
	20.385000	0.198884
	20.390000	0.106800
	20.395000	-0.064213
	20.400000	0.021293
	20.405000	0.185730
	20.410000	0.106800
	20.415000	-0.067502
	20.420000	0.014716
	20.425000	0.185730
	20.430000	0.100223
	20.435000	-0.064213
	20.440000	0.018005
	20.445000	0.185730
	20.450000	0.100223
	20.455000	-0.067502
	20.460000	0.014716
	20.465000	0.182441
	20.470000	0.100223
	20.475000	-0.074080
	20.480000	0.011427
	20.485000	0.189018
	20.490000	0.100223
	20.495000	-0.070791
	20.500000	0.011427
	20.505000	0.182441
	20.510000	0.096934
	20.515000	-0.070791
	20.520000	0.011427
	20.525000	0.182441
	20.530000	0.096934
	20.535000	-0.067502
	20.540000	0.008138
	20.545000	0.182441
	20.550000	0.096934
	20.555000	-0.074080
	20.560000	0.011427
	20.565000	0.182441
	20.570000	0.096934
	20.575000	-0.074080
	20.580000	0.011427
	20.585000	0.182441
	20.590000	0.100223
	20.595000	-0.070791
	20.600000	0.011427
	20.605000	0.182441
	20.610000	0.096934
	20.615000	-0.070791
	20.620000	0.008138
	20.625000	0.182441
	20.630000	0.096934
	20.635000	-0.074080
	20.640000	0.004850
	20.645000	0.175863
	20.650000	0.093645
	20.655000	-0.077368
	20.660000	0.001561
	20.665000	0.175863
	20.670000	0.093645
	20.675000	-0.077368
	20.680000	-0.001728
	20.685000	0.175863
	20.690000	0.093645
	20.695000	-0.077368
	20.700000	0.004850
	20.705000	0.182441
	20.710000	0.096934
	20.715000	-0.074080
	20.720000	0.004850
	20.725000	0.179152
	20.730000	0.096934
	20.735000	-0.077368
	20.740000	0.001561
	20.745000	0.182441
	20.750000	0.096934
	20.755000	-0.077368
	20.760000	0.004850
	20.765000	0.182441
	20.770000	0.096934
	20.775000	-0.074080
	20.780000	0.004850
	20.785000	0.175863
	20.790000	0.100223
	20.795000	-0.080657
	20.800000	0.001561
	20.805000	0.179152
	20.810000	0.096934
	20.815000	-0.074080
	20.820000	0.004850
	20.825000	0.182441
	20.830000	0.103511
	20.835000	-0.074080
	20.840000	0.004850
	20.845000	0.182441
	20.850000	0.100223
	20.855000	-0.074080
	20.860000	-0.001728
	20.865000	0.179152
	20.870000	0.103511
	20.875000	-0.077368
	20.880000	0.001561
	20.885000	0.175863
	20.890000	0.100223
	20.895000	-0.074080
	20.900000	0.001561
	20.905000	0.175863
	20.910000	0.096934
	20.915000	-0.077368
	20.920000	0.004850
	20.925000	0.179152
	20.930000	0.103511
	20.935000	-0.077368
	20.940000	-0.001728
	20.945000	0.185730
	20.950000	0.103511
	20.955000	-0.074080
	20.960000	0.004850
	20.965000	0.182441
	20.970000	0.106800
	20.975000	-0.074080
	20.980000	0.001561
	20.985000	0.182441
	20.990000	0.106800
	20.995000	-0.074080
	21.000000	0.004850
	21.005000	0.182441
	21.010000	0.106800
	21.015000	-0.070791
	21.020000	0.001561
	21.025000	0.182441
	21.030000	0.110089
	21.035000	-0.074080
	21.040000	0.004850
	21.045000	0.179152
	21.050000	0.103511
	21.055000	-0.070791
	21.060000	0.004850
	21.065000	0.182441
	21.070000	0.106800
	21.075000	-0.070791
	21.080000	0.004850
	21.085000	0.182441
	21.090000	0.110089
	21.095000	-0.067502
	21.100000	0.001561
	21.105000	0.182441
	21.110000	0.110089
	21.115000	-0.064213
	21.120000	0.004850
	21.125000	0.185730
	21.130000	0.113378
	21.135000	-0.070791
	21.140000	0.008138
	21.145000	0.185730
	21.150000	0.106800
	21.155000	-0.064213
	21.160000	0.004850
	21.165000	0.189018
	21.170000	0.113378
	21.175000	-0.067502
	21.180000	0.008138
	21.185000	0.189018
	21.190000	0.113378
	21.195000	-0.064213
	21.200000	0.008138
	21.205000	0.185730
	21.210000	0.116666
	21.215000	-0.064213
	21.220000	0.004850
	21.225000	0.185730
	21.230000	0.113378
	21.235000	-0.064213
	21.240000	0.004850
	21.245000	0.185730
	21.250000	0.113378
	21.255000	-0.064213
	21.260000	0.004850
	21.265000	0.189018
	21.270000	0.116666
	21.275000	-0.067502
	21.280000	0.008138
	21.285000	0.185730
	21.290000	0.113378
	21.295000	-0.067502
	21.300000	0.008138
	21.305000	0.185730
	21.310000	0.110089
	21.315000	-0.067502
	21.320000	0.001561
	21.325000	0.185730
	21.330000	0.116666
	21.335000	-0.064213
	21.340000	0.008138
	21.345000	0.185730
	21.350000	0.113378
	21.355000	-0.064213
	21.360000	0.001561
	21.365000	0.185730
	21.370000	0.116666
	21.375000	-0.067502
	21.380000	0.008138
	21.385000	0.185730
	21.390000	0.116666
	21.395000	-0.060925
	21.400000	0.004850
	21.405000	0.189018
	21.410000	0.119955
	21.415000	-0.067502
	21.420000	0.004850
	21.425000	0.182441
	21.430000	0.119955
	21.435000	-0.064213
	21.440000	0.004850
	21.445000	0.185730
	21.450000	0.116666
	21.455000	-0.060925
	21.460000	0.001561
	21.465000	0.185730
	21.470000	0.116666
	21.475000	-0.060925
	21.480000	0.008138
	21.485000	0.192307
	21.490000	0.116666
	21.495000	-0.057636
	21.500000	0.011427
	21.505000	0.189018
	21.510000	0.123244
	21.515000	-0.060925
	21.520000	0.011427
	21.525000	0.192307
	21.530000	0.119955
	21.535000	-0.057636
	21.540000	0.008138
	21.545000	0.189018
	21.550000	0.119955
	21.555000	-0.060925
	21.560000	0.004850
	21.565000	0.189018
	21.570000	0.116666
	21.575000	-0.064213
	21.580000	0.004850
	21.585000	0.189018
	21.590000	0.119955
	21.595000	-0.057636
	21.600000	0.001561
	21.605000	0.185730
	21.610000	0.123244
	21.615000	-0.060925
	21.620000	0.008138
	21.625000	0.185730
	21.630000	0.119955
	21.635000	-0.057636
	21.640000	0.001561
	21.645000	0.185730
	21.650000	0.119955
	21.655000	-0.057636
	21.660000	0.004850
	21.665000	0.185730
	21.670000	0.123244
	21.675000	-0.060925
	21.680000	0.008138
	21.685000	0.185730
	21.690000	0.119955
	21.695000	-0.057636
	21.700000	0.004850
	21.705000	0.185730
	21.710000	0.119955
	21.715000	-0.060925
	21.720000	0.011427
	21.725000	0.185730
	21.730000	0.126533
	21.735000	-0.060925
	21.740000	0.001561
	21.745000	0.189018
	21.750000	0.123244
	21.755000	-0.054347
	21.760000	0.004850
	21.765000	0.189018
	21.770000	0.126533
	21.775000	-0.054347
	21.780000	0.011427
	21.785000	0.189018
	21.790000	0.126533
	21.795000	-0.051059
	21.800000	0.011427
	21.805000	0.185730
	21.810000	0.129821
	21.815000	-0.057636
	21.820000	0.011427
	21.825000	0.189018
	21.830000	0.126533
	21.835000	-0.054347
	21.840000	0.008138
	21.845000	0.189018
	21.850000	0.129821
	21.855000	-0.051059
	21.860000	0.008138
	21.865000	0.195596
	21.870000	0.136399
	21.875000	-0.044481
	21.880000	0.018005
	21.885000	0.195596
	21.890000	0.133110
	21.895000	-0.044481
	21.900000	0.014716
	21.905000	0.195596
	21.910000	0.139687
	21.915000	-0.041192
	21.920000	0.018005
	21.925000	0.195596
	21.930000	0.139687
	21.935000	-0.044481
	21.940000	0.018005
	21.945000	0.195596
	21.950000	0.136399
	21.955000	-0.041192
	21.960000	0.018005
	21.965000	0.195596
	21.970000	0.139687
	21.975000	-0.041192
	21.980000	0.014716
	21.985000	0.198884
	21.990000	0.142976
	21.995000	-0.037904
	22.000000	0.021293
	22.005000	0.198884
	22.010000	0.139687
	22.015000	-0.037904
	22.020000	0.018005
	22.025000	0.198884
	22.030000	0.142976
	22.035000	-0.031326
	22.040000	0.018005
	22.045000	0.198884
	22.050000	0.142976
	22.055000	-0.034615
	22.060000	0.018005
	22.065000	0.198884
	22.070000	0.142976
	22.075000	-0.034615
	22.080000	0.024582
	22.085000	0.198884
	22.090000	0.149554
	22.095000	-0.031326
	22.100000	0.024582
	22.105000	0.198884
	22.110000	0.149554
	22.115000	-0.034615
	22.120000	0.021293
	22.125000	0.202173
	22.130000	0.146265
	22.135000	-0.028037
	22.140000	0.021293
	22.145000	0.202173
	22.150000	0.146265
	22.155000	-0.028037
	22.160000	0.027871
	22.165000	0.198884
	22.170000	0.152842
	22.175000	-0.028037
	22.180000	0.021293
	22.185000	0.202173
	22.190000	0.149554
	22.195000	-0.028037
	22.200000	0.024582
	22.205000	0.202173
	22.210000	0.146265
	22.215000	-0.024749
	22.220000	0.024582
	22.225000	0.205462
	22.230000	0.156131
	22.235000	-0.024749
	22.240000	0.027871
	22.245000	0.208751
	22.250000	0.152842
	22.255000	-0.024749
	22.260000	0.031160
	22.265000	0.202173
	22.270000	0.149554
	22.275000	-0.024749
	22.280000	0.027871
	22.285000	0.208751
	22.290000	0.142976
	22.295000	-0.024749
	22.300000	0.018005
	22.305000	0.192307
	22.310000	0.149554
	22.315000	-0.028037
	22.320000	0.018005
	22.325000	0.192307
	22.330000	0.146265
	22.335000	-0.028037
	22.340000	0.018005
	22.345000	0.198884
	22.350000	0.152842
	22.355000	-0.028037
	22.360000	0.018005
	22.365000	0.195596
	22.370000	0.149554
	22.375000	-0.034615
	22.380000	0.021293
	22.385000	0.195596
	22.390000	0.142976
	22.395000	-0.031326
	22.400000	0.014716
	22.405000	0.192307
	22.410000	0.149554
	22.415000	-0.031326
	22.420000	0.018005
	22.425000	0.185730
	22.430000	0.142976
	22.435000	-0.037904
	22.440000	0.011427
	22.445000	0.185730
	22.450000	0.142976
	22.455000	-0.034615
	22.460000	0.008138
	22.465000	0.185730
	22.470000	0.139687
	22.475000	-0.041192
	22.480000	0.008138
	22.485000	0.185730
	22.490000	0.133110
	22.495000	-0.044481
	22.500000	0.001561
	22.505000	0.182441
	22.510000	0.126533
	22.515000	-0.047770
	22.520000	-0.001728
	22.525000	0.175863
	22.530000	0.129821
	22.535000	-0.047770
	22.540000	-0.008305
	22.545000	0.175863
	22.550000	0.119955
	22.555000	-0.054347
	22.560000	-0.014883
	22.565000	0.165997
	22.570000	0.119955
	22.575000	-0.064213
	22.580000	-0.014883
	22.585000	0.162708
	22.590000	0.116666
	22.595000	-0.067502
	22.600000	-0.021460
	22.605000	0.159420
	22.610000	0.110089
	22.615000	-0.067502
	22.620000	-0.028037
	22.625000	0.156131
	22.630000	0.106800
	22.635000	-0.074080
	22.640000	-0.024749
	22.645000	0.149554
	22.650000	0.103511
	22.655000	-0.077368
	22.660000	-0.034615
	22.665000	0.146265
	22.670000	0.100223
	22.675000	-0.077368
	22.680000	-0.037904
	22.685000	0.149554
	22.690000	0.103511
	22.695000	-0.080657
	22.700000	-0.031326
	22.705000	0.142976
	22.710000	0.103511
	22.715000	-0.077368
	22.720000	-0.034615
	22.725000	0.146265
	22.730000	0.103511
	22.735000	-0.080657
	22.740000	-0.041192
	22.745000	0.142976
	22.750000	0.100223
	22.755000	-0.090523
	22.760000	-0.044481
	22.765000	0.136399
	22.770000	0.090357
	22.775000	-0.093812
	22.780000	-0.054347
	22.785000	0.129821
	22.790000	0.087068
	22.795000	-0.100389
	22.800000	-0.054347
	22.805000	0.129821
	22.810000	0.087068
	22.815000	-0.090523
	22.820000	-0.051059
	22.825000	0.133110
	22.830000	0.087068
	22.835000	-0.093812
	22.840000	-0.054347
	22.845000	0.123244
	22.850000	0.090357
	22.855000	-0.097101
	22.860000	-0.057636
	22.865000	0.119955
	22.870000	0.080490
	22.875000	-0.106967
	22.880000	-0.060925
	22.885000	0.119955
	22.890000	0.080490
	22.895000	-0.103678
	22.900000	-0.064213
	22.905000	0.119955
	22.910000	0.080490
	22.915000	-0.103678
	22.920000	-0.057636
	22.925000	0.129821
	22.930000	0.090357
	22.935000	-0.093812
	22.940000	-0.057636
	22.945000	0.133110
	22.950000	0.100223
	22.955000	-0.083946
	22.960000	-0.041192
	22.965000	0.142976
	22.970000	0.106800
	22.975000	-0.077368
	22.980000	-0.037904
	22.985000	0.146265
	22.990000	0.113378
	22.995000	-0.077368
	23.000000	-0.037904
	23.005000	0.152842
	23.010000	0.113378
	23.015000	-0.074080
	23.020000	-0.034615
	23.025000	0.146265
	23.030000	0.110089
	23.035000	-0.067502
	23.040000	-0.034615
	23.045000	0.146265
	23.050000	0.110089
	23.055000	-0.074080
	23.060000	-0.034615
	23.065000	0.146265
	23.070000	0.116666
	23.075000	-0.077368
	23.080000	-0.034615
	23.085000	0.149554
	23.090000	0.116666
	23.095000	-0.074080
	23.100000	-0.034615
	23.105000	0.149554
	23.110000	0.113378
	23.115000	-0.077368
	23.120000	-0.041192
	23.125000	0.146265
	23.130000	0.110089
	23.135000	-0.080657
	23.140000	-0.044481
	23.145000	0.146265
	23.150000	0.110089
	23.155000	-0.080657
	23.160000	-0.047770
	23.165000	0.142976
	23.170000	0.110089
	23.175000	-0.077368
	23.180000	-0.041192
	23.185000	0.149554
	23.190000	0.116666
	23.195000	-0.067502
	23.200000	-0.034615
	23.205000	0.156131
	23.210000	0.119955
	23.215000	-0.064213
	23.220000	-0.028037
	23.225000	0.152842
	23.230000	0.123244
	23.235000	-0.060925
	23.240000	-0.024749
	23.245000	0.159420
	23.250000	0.126533
	23.255000	-0.057636
	23.260000	-0.024749
	23.265000	0.162708
	23.270000	0.133110
	23.275000	-0.051059
	23.280000	-0.018171
	23.285000	0.165997
	23.290000	0.133110
	23.295000	-0.054347
	23.300000	-0.014883
	23.305000	0.165997
	23.310000	0.136399
	23.315000	-0.047770
	23.320000	-0.014883
	23.325000	0.165997
	23.330000	0.133110
	23.335000	-0.051059
	23.340000	-0.014883
	23.345000	0.169286
	23.350000	0.142976
	23.355000	-0.047770
	23.360000	-0.008305
	23.365000	0.172575
	23.370000	0.142976
	23.375000	-0.037904
	23.380000	-0.001728
	23.385000	0.175863
	23.390000	0.149554
	23.395000	-0.031326
	23.400000	0.001561
	23.405000	0.189018
	23.410000	0.156131
	23.415000	-0.021460
	23.420000	0.011427
	23.425000	0.189018
	23.430000	0.162708
	23.435000	-0.014883
	23.440000	0.011427
	23.445000	0.195596
	23.450000	0.159420
	23.455000	-0.014883
	23.460000	0.014716
	23.465000	0.202173
	23.470000	0.169286
	23.475000	-0.005016
	23.480000	0.024582
	23.485000	0.202173
	23.490000	0.175863
	23.495000	-0.001728
	23.500000	0.027871
	23.505000	0.202173
	23.510000	0.175863
	23.515000	-0.011594
	23.520000	0.024582
	23.525000	0.198884
	23.530000	0.179152
	23.535000	-0.005016
	23.540000	0.024582
	23.545000	0.212039
	23.550000	0.179152
	23.555000	-0.005016
	23.560000	0.024582
	23.565000	0.198884
	23.570000	0.172575
	23.575000	-0.011594
	23.580000	0.018005
	23.585000	0.202173
	23.590000	0.169286
	23.595000	-0.008305
	23.600000	0.014716
	23.605000	0.192307
	23.610000	0.169286
	23.615000	-0.008305
	23.620000	0.014716
	23.625000	0.192307
	23.630000	0.162708
	23.635000	-0.018171
	23.640000	0.011427
	23.645000	0.185730
	23.650000	0.159420
	23.655000	-0.021460
	23.660000	0.008138
	23.665000	0.182441
	23.670000	0.156131
	23.675000	-0.028037
	23.680000	-0.001728
	23.685000	0.172575
	23.690000	0.152842
	23.695000	-0.028037
	23.700000	-0.001728
	23.705000	0.179152
	23.710000	0.152842
	23.715000	-0.024749
	23.720000	-0.008305
	23.725000	0.179152
	23.730000	0.152842
	23.735000	-0.028037
	23.740000	0.001561
	23.745000	0.182441
	23.750000	0.156131
	23.755000	-0.024749
	23.760000	-0.001728
	23.765000	0.179152
	23.770000	0.149554
	23.775000	-0.028037
	23.780000	-0.011594
	23.785000	0.175863
	23.790000	0.142976
	23.795000	-0.031326
	23.800000	-0.011594
	23.805000	0.169286
	23.810000	0.139687
	23.815000	-0.041192
	23.820000	-0.011594
	23.825000	0.169286
	23.830000	0.142976
	23.835000	-0.041192
	23.840000	-0.018171
	23.845000	0.169286
	23.850000	0.142976
	23.855000	-0.037904
	23.860000	-0.011594
	23.865000	0.172575
	23.870000	0.142976
	23.875000	-0.041192
	23.880000	-0.011594
	23.885000	0.172575
	23.890000	0.149554
	23.895000	-0.037904
	23.900000	-0.011594
	23.905000	0.169286
	23.910000	0.149554
	23.915000	-0.034615
	23.920000	-0.011594
	23.925000	0.172575
	23.930000	0.149554
	23.935000	-0.031326
	23.940000	-0.001728
	23.945000	0.179152
	23.950000	0.152842
	23.955000	-0.028037
	23.960000	-0.005016
	23.965000	0.172575
	23.970000	0.149554
	23.975000	-0.031326
	23.980000	-0.014883
	23.985000	0.172575
	23.990000	0.146265
	23.995000	-0.037904
	24.000000	-0.011594
	24.005000	0.169286
	24.010000	0.146265
	24.015000	-0.037904
	24.020000	-0.011594
	24.025000	0.165997
	24.030000	0.146265
	24.035000	-0.037904
	24.040000	-0.018171
	24.045000	0.169286
	24.050000	0.139687
	24.055000	-0.044481
	24.060000	-0.014883
	24.065000	0.165997
	24.070000	0.142976
	24.075000	-0.037904
	24.080000	-0.021460
	24.085000	0.165997
	24.090000	0.142976
	24.095000	-0.041192
	24.100000	-0.018171
	24.105000	0.162708
	24.110000	0.142976
	24.115000	-0.044481
	24.120000	-0.024749
	24.125000	0.162708
	24.130000	0.146265
	24.135000	-0.041192
	24.140000	-0.021460
	24.145000	0.162708
	24.150000	0.142976
	24.155000	-0.044481
	24.160000	-0.028037
	24.165000	0.159420
	24.170000	0.136399
	24.175000	-0.051059
	24.180000	-0.028037
	24.185000	0.156131
	24.190000	0.133110
	24.195000	-0.054347
	24.200000	-0.031326
	24.205000	0.156131
	24.210000	0.129821
	24.215000	-0.054347
	24.220000	-0.041192
	24.225000	0.142976
	24.230000	0.126533
	24.235000	-0.060925
	24.240000	-0.041192
	24.245000	0.146265
	24.250000	0.123244
	24.255000	-0.064213
	24.260000	-0.041192
	24.265000	0.142976
	24.270000	0.123244
	24.275000	-0.064213
	24.280000	-0.047770
	24.285000	0.146265
	24.290000	0.126533
	24.295000	-0.064213
	24.300000	-0.047770
	24.305000	0.146265
	24.310000	0.129821
	24.315000	-0.060925
	24.320000	-0.041192
	24.325000	0.149554
	24.330000	0.129821
	24.335000	-0.054347
	24.340000	-0.037904
	24.345000	0.152842
	24.350000	0.139687
	24.355000	-0.051059
	24.360000	-0.034615
	24.365000	0.156131
	24.370000	0.136399
	24.375000	-0.051059
	24.380000	-0.028037
	24.385000	0.159420
	24.390000	0.146265
	24.395000	-0.047770
	24.400000	-0.028037
	24.405000	0.159420
	24.410000	0.146265
	24.415000	-0.041192
	24.420000	-0.024749
	24.425000	0.159420
	24.430000	0.149554
	24.435000	-0.044481
	24.440000	-0.024749
	24.445000	0.162708
	24.450000	0.146265
	24.455000	-0.044481
	24.460000	-0.028037
	24.465000	0.165997
	24.470000	0.149554
	24.475000	-0.041192
	24.480000	-0.028037
	24.485000	0.159420
	24.490000	0.149554
	24.495000	-0.044481
	24.500000	-0.034615
	24.505000	0.165997
	24.510000	0.149554
	24.515000	-0.041192
	24.520000	-0.028037
	24.525000	0.162708
	24.530000	0.146265
	24.535000	-0.047770
	24.540000	-0.028037
	24.545000	0.165997
	24.550000	0.149554
	24.555000	-0.041192
	24.560000	-0.031326
	24.565000	0.165997
	24.570000	0.149554
	24.575000	-0.041192
	24.580000	-0.028037
	24.585000	0.159420
	24.590000	0.146265
	24.595000	-0.044481
	24.600000	-0.031326
	24.605000	0.162708
	24.610000	0.146265
	24.615000	-0.047770
	24.620000	-0.034615
	24.625000	0.159420
	24.630000	0.152842
	24.635000	-0.041192
	24.640000	-0.031326
	24.645000	0.162708
	24.650000	0.142976
	24.655000	-0.044481
	24.660000	-0.028037
	24.665000	0.162708
	24.670000	0.149554
	24.675000	-0.044481
	24.680000	-0.028037
	24.685000	0.169286
	24.690000	0.152842
	24.695000	-0.041192
	24.700000	-0.028037
	24.705000	0.159420
	24.710000	0.152842
	24.715000	-0.041192
	24.720000	-0.031326
	24.725000	0.169286
	24.730000	0.149554
	24.735000	-0.037904
	24.740000	-0.034615
	24.745000	0.169286
	24.750000	0.156131
	24.755000	-0.041192
	24.760000	-0.028037
	24.765000	0.162708
	24.770000	0.156131
	24.775000	-0.037904
	24.780000	-0.024749
	24.785000	0.169286
	24.790000	0.152842
	24.795000	-0.037904
	24.800000	-0.028037
	24.805000	0.165997
	24.810000	0.156131
	24.815000	-0.037904
	24.820000	-0.028037
	24.825000	0.169286
	24.830000	0.156131
	24.835000	-0.034615
	24.840000	-0.028037
	24.845000	0.169286
	24.850000	0.159420
	24.855000	-0.034615
	24.860000	-0.028037
	24.865000	0.169286
	24.870000	0.159420
	24.875000	-0.034615
	24.880000	-0.028037
	24.885000	0.169286
	24.890000	0.162708
	24.895000	-0.028037
	24.900000	-0.024749
	24.905000	0.172575
	24.910000	0.159420
	24.915000	-0.024749
	24.920000	-0.021460
	24.925000	0.169286
	24.930000	0.165997
	24.935000	-0.028037
	24.940000	-0.021460
	24.945000	0.175863
	24.950000	0.162708
	24.955000	-0.028037
	24.960000	-0.024749
	24.965000	0.172575
	24.970000	0.162708
	24.975000	-0.028037
	24.980000	-0.021460
	24.985000	0.169286
	24.990000	0.162708
	24.995000	-0.028037
	25.000000	-0.024749
	25.005000	0.169286
	25.010000	0.162708
	25.015000	-0.021460
	25.020000	-0.021460
	25.025000	0.169286
	25.030000	0.169286
	25.035000	-0.024749
	25.040000	-0.021460
	25.045000	0.172575
	25.050000	0.162708
	25.055000	-0.021460
	25.060000	-0.021460
	25.065000	0.169286
	25.070000	0.169286
	25.075000	-0.024749
	25.080000	-0.021460
	25.085000	0.169286
	25.090000	0.172575
	25.095000	-0.024749
	25.100000	-0.021460
	25.105000	0.172575
	25.110000	0.169286
	25.115000	-0.021460
	25.120000	-0.021460
	25.125000	0.169286
	25.130000	0.172575
	25.135000	-0.021460
	25.140000	-0.024749
	25.145000	0.172575
	25.150000	0.169286
	25.155000	-0.018171
	25.160000	-0.014883
	25.165000	0.175863
	25.170000	0.175863
	25.175000	-0.014883
	25.180000	-0.011594
	25.185000	0.182441
	25.190000	0.185730
	25.195000	-0.014883
	25.200000	-0.011594
	25.205000	0.182441
	25.210000	0.185730
	25.215000	-0.008305
	25.220000	-0.005016
	25.225000	0.179152
	25.230000	0.185730
	25.235000	-0.011594
	25.240000	-0.005016
	25.245000	0.179152
	25.250000	0.182441
	25.255000	-0.005016
	25.260000	-0.008305
	25.265000	0.182441
	25.270000	0.185730
	25.275000	-0.005016
	25.280000	-0.005016
	25.285000	0.182441
	25.290000	0.185730
	25.295000	0.001561
	25.300000	-0.005016
	25.305000	0.182441
	25.310000	0.185730
	25.315000	0.001561
	25.320000	-0.005016
	25.325000	0.182441
	25.330000	0.189018
	25.335000	0.001561
	25.340000	-0.005016
	25.345000	0.185730
	25.350000	0.189018
	25.355000	0.004850
	25.360000	-0.005016
	25.365000	0.185730
	25.370000	0.192307
	25.375000	0.001561
	25.380000	-0.005016
	25.385000	0.185730
	25.390000	0.189018
	25.395000	-0.001728
	25.400000	-0.005016
	25.405000	0.179152
	25.410000	0.185730
	25.415000	0.001561
	25.420000	-0.005016
	25.425000	0.185730
	25.430000	0.189018
	25.435000	0.001561
	25.440000	-0.001728
	25.445000	0.182441
	25.450000	0.189018
	25.455000	0.001561
	25.460000	-0.005016
	25.465000	0.182441
	25.470000	0.189018
	25.475000	0.008138
	25.480000	-0.001728
	25.485000	0.185730
	25.490000	0.192307
	25.495000	0.011427
	25.500000	0.001561
	25.505000	0.185730
	25.510000	0.182441
	25.515000	0.011427
	25.520000	-0.001728
	25.525000	0.179152
	25.530000	0.192307
	25.535000	0.011427
	25.540000	0.001561
	25.545000	0.182441
	25.550000	0.195596
	25.555000	0.008138
	25.560000	0.004850
	25.565000	0.192307
	25.570000	0.198884
	25.575000	0.011427
	25.580000	0.004850
	25.585000	0.192307
	25.590000	0.205462
	25.595000	0.021293
	25.600000	0.008138
	25.605000	0.192307
	25.610000	0.202173
	25.615000	0.018005
	25.620000	0.004850
	25.625000	0.192307
	25.630000	0.198884
	25.635000	0.014716
	25.640000	-0.001728
	25.645000	0.172575
	25.650000	0.192307
	25.655000	0.011427
	25.660000	-0.005016
	25.665000	0.175863
	25.670000	0.185730
	25.675000	0.008138
	25.680000	-0.011594
	25.685000	0.172575
	25.690000	0.185730
	25.695000	0.004850
	25.700000	-0.008305
	25.705000	0.172575
	25.710000	0.185730
	25.715000	0.001561
	25.720000	-0.008305
	25.725000	0.169286
	25.730000	0.185730
	25.735000	-0.001728
	25.740000	-0.011594
	25.745000	0.169286
	25.750000	0.179152
	25.755000	-0.008305
	25.760000	-0.024749
	25.765000	0.159420
	25.770000	0.172575
	25.775000	-0.008305
	25.780000	-0.031326
	25.785000	0.152842
	25.790000	0.162708
	25.795000	-0.021460
	25.800000	-0.037904
	25.805000	0.146265
	25.810000	0.159420
	25.815000	-0.031326
	25.820000	-0.044481
	25.825000	0.133110
	25.830000	0.149554
	25.835000	-0.037904
	25.840000	-0.051059
	25.845000	0.133110
	25.850000	0.149554
	25.855000	-0.037904
	25.860000	-0.060925
	25.865000	0.129821
	25.870000	0.146265
	25.875000	-0.047770
	25.880000	-0.060925
	25.885000	0.126533
	25.890000	0.142976
	25.895000	-0.041192
	25.900000	-0.060925
	25.905000	0.126533
	25.910000	0.149554
	25.915000	-0.037904
	25.920000	-0.064213
	25.925000	0.126533
	25.930000	0.142976
	25.935000	-0.041192
	25.940000	-0.064213
	25.945000	0.123244
	25.950000	0.142976
	25.955000	-0.047770
	25.960000	-0.067502
	25.965000	0.119955
	25.970000	0.139687
	25.975000	-0.051059
	25.980000	-0.070791
	25.985000	0.113378
	25.990000	0.139687
	25.995000	-0.054347
	26.000000	-0.077368
	26.005000	0.113378
	26.010000	0.136399
	26.015000	-0.054347
	26.020000	-0.080657
	26.025000	0.113378
	26.030000	0.136399
	26.035000	-0.054347
	26.040000	-0.077368
	26.045000	0.106800
	26.050000	0.133110
	26.055000	-0.057636
	26.060000	-0.080657
	26.065000	0.103511
	26.070000	0.129821
	26.075000	-0.064213
	26.080000	-0.087234
	26.085000	0.100223
	26.090000	0.123244
	26.095000	-0.067502
	26.100000	-0.093812
	26.105000	0.093645
	26.110000	0.119955
	26.115000	-0.067502
	26.120000	-0.090523
	26.125000	0.093645
	26.130000	0.119955
	26.135000	-0.070791
	26.140000	-0.093812
	26.145000	0.096934
	26.150000	0.119955
	26.155000	-0.067502
	26.160000	-0.090523
	26.165000	0.096934
	26.170000	0.126533
	26.175000	-0.060925
	26.180000	-0.080657
	26.185000	0.106800
	26.190000	0.136399
	26.195000	-0.057636
	26.200000	-0.080657
	26.205000	0.113378
	26.210000	0.133110
	26.215000	-0.047770
	26.220000	-0.074080
	26.225000	0.116666
	26.230000	0.142976
	26.235000	-0.041192
	26.240000	-0.067502
	26.245000	0.116666
	26.250000	0.146265
	26.255000	-0.037904
	26.260000	-0.067502
	26.265000	0.116666
	26.270000	0.146265
	26.275000	-0.034615
	26.280000	-0.057636
	26.285000	0.123244
	26.290000	0.149554
	26.295000	-0.031326
	26.300000	-0.057636
	26.305000	0.129821
	26.310000	0.159420
	26.315000	-0.024749
	26.320000	-0.044481
	26.325000	0.142976
	26.330000	0.175863
	26.335000	-0.001728
	26.340000	-0.028037
	26.345000	0.159420
	26.350000	0.189018
	26.355000	0.011427
	26.360000	-0.014883
	26.365000	0.162708
	26.370000	0.195596
	26.375000	0.021293
	26.380000	-0.008305
	26.385000	0.179152
	26.390000	0.212039
	26.395000	0.024582
	26.400000	-0.008305
	26.405000	0.175863
	26.410000	0.208751
	26.415000	0.024582
	26.420000	-0.008305
	26.425000	0.172575
	26.430000	0.202173
	26.435000	0.024582
	26.440000	-0.005016
	26.445000	0.175863
	26.450000	0.205462
	26.455000	0.024582
	26.460000	-0.008305
	26.465000	0.175863
	26.470000	0.202173
	26.475000	0.024582
	26.480000	-0.014883
	26.485000	0.169286
	26.490000	0.198884
	26.495000	0.021293
	26.500000	-0.014883
	26.505000	0.165997
	26.510000	0.202173
	26.515000	0.018005
	26.520000	-0.018171
	26.525000	0.165997
	26.530000	0.195596
	26.535000	0.014716
	26.540000	-0.018171
	26.545000	0.156131
	26.550000	0.192307
	26.555000	0.008138
	26.560000	-0.024749
	26.565000	0.152842
	26.570000	0.189018
	26.575000	0.004850
	26.580000	-0.028037
	26.585000	0.146265
	26.590000	0.179152
	26.595000	-0.001728
	26.600000	-0.031326
	26.605000	0.146265
	26.610000	0.179152
	26.615000	-0.001728
	26.620000	-0.034615
	26.625000	0.139687
	26.630000	0.172575
	26.635000	-0.005016
	26.640000	-0.044481
	26.645000	0.139687
	26.650000	0.172575
	26.655000	-0.005016
	26.660000	-0.041192
	26.665000	0.136399
	26.670000	0.175863
	26.675000	-0.008305
	26.680000	-0.041192
	26.685000	0.133110
	26.690000	0.172575
	26.695000	-0.008305
	26.700000	-0.044481
	26.705000	0.133110
	26.710000	0.165997
	26.715000	-0.011594
	26.720000	-0.044481
	26.725000	0.129821
	26.730000	0.169286
	26.735000	-0.011594
	26.740000	-0.051059
	26.745000	0.133110
	26.750000	0.165997
	26.755000	-0.011594
	26.760000	-0.054347
	26.765000	0.129821
	26.770000	0.162708
	26.775000	-0.014883
	26.780000	-0.054347
	26.785000	0.129821
	26.790000	0.165997
	26.795000	-0.018171
	26.800000	-0.054347
	26.805000	0.126533
	26.810000	0.165997
	26.815000	-0.014883
	26.820000	-0.051059
	26.825000	0.123244
	26.830000	0.162708
	26.835000	-0.018171
	26.840000	-0.054347
	26.845000	0.119955
	26.850000	0.165997
	26.855000	-0.014883
	26.860000	-0.054347
	26.865000	0.126533
	26.870000	0.169286
	26.875000	-0.011594
	26.880000	-0.051059
	26.885000	0.133110
	26.890000	0.172575
	26.895000	-0.011594
	26.900000	-0.051059
	26.905000	0.133110
	26.910000	0.175863
	26.915000	-0.008305
	26.920000	-0.047770
	26.925000	0.133110
	26.930000	0.179152
	26.935000	-0.005016
	26.940000	-0.047770
	26.945000	0.133110
	26.950000	0.175863
	26.955000	-0.005016
	26.960000	-0.051059
	26.965000	0.133110
	26.970000	0.175863
	26.975000	-0.008305
	26.980000	-0.051059
	26.985000	0.129821
	26.990000	0.172575
	26.995000	-0.011594
	27.000000	-0.051059
	27.005000	0.129821
	27.010000	0.169286
	27.015000	-0.014883
	27.020000	-0.047770
	27.025000	0.133110
	27.030000	0.172575
	27.035000	-0.008305
	27.040000	-0.054347
	27.045000	0.129821
	27.050000	0.169286
	27.055000	-0.014883
	27.060000	-0.054347
	27.065000	0.126533
	27.070000	0.172575
	27.075000	-0.011594
	27.080000	-0.060925
	27.085000	0.119955
	27.090000	0.162708
	27.095000	-0.018171
	27.100000	-0.060925
	27.105000	0.116666
	27.110000	0.162708
	27.115000	-0.021460
	27.120000	-0.067502
	27.125000	0.113378
	27.130000	0.159420
	27.135000	-0.028037
	27.140000	-0.074080
	27.145000	0.110089
	27.150000	0.152842
	27.155000	-0.028037
	27.160000	-0.074080
	27.165000	0.106800
	27.170000	0.152842
	27.175000	-0.024749
	27.180000	-0.077368
	27.185000	0.106800
	27.190000	0.152842
	27.195000	-0.031326
	27.200000	-0.077368
	27.205000	0.110089
	27.210000	0.152842
	27.215000	-0.024749
	27.220000	-0.067502
	27.225000	0.106800
	27.230000	0.159420
	27.235000	-0.024749
	27.240000	-0.067502
	27.245000	0.113378
	27.250000	0.159420
	27.255000	-0.021460
	27.260000	-0.070791
	27.265000	0.110089
	27.270000	0.165997
	27.275000	-0.018171
	27.280000	-0.064213
	27.285000	0.110089
	27.290000	0.165997
	27.295000	-0.021460
	27.300000	-0.064213
	27.305000	0.110089
	27.310000	0.162708
	27.315000	-0.021460
	27.320000	-0.067502
	27.325000	0.113378
	27.330000	0.165997
	27.335000	-0.021460
	27.340000	-0.070791
	27.345000	0.116666
	27.350000	0.165997
	27.355000	-0.014883
	27.360000	-0.067502
	27.365000	0.113378
	27.370000	0.165997
	27.375000	-0.018171
	27.380000	-0.064213
	27.385000	0.113378
	27.390000	0.162708
	27.395000	-0.014883
	27.400000	-0.070791
	27.405000	0.116666
	27.410000	0.169286
	27.415000	-0.014883
	27.420000	-0.064213
	27.425000	0.116666
	27.430000	0.169286
	27.435000	-0.011594
	27.440000	-0.064213
	27.445000	0.116666
	27.450000	0.172575
	27.455000	-0.011594
	27.460000	-0.064213
	27.465000	0.123244
	27.470000	0.172575
	27.475000	-0.005016
	27.480000	-0.060925
	27.485000	0.123244
	27.490000	0.172575
	27.495000	-0.011594
	27.500000	-0.064213
	27.505000	0.119955
	27.510000	0.169286
	27.515000	-0.011594
	27.520000	-0.064213
	27.525000	0.116666
	27.530000	0.175863
	27.535000	-0.008305
	27.540000	-0.064213
	27.545000	0.123244
	27.550000	0.175863
	27.555000	-0.005016
	27.560000	-0.064213
	27.565000	0.116666
	27.570000	0.169286
	27.575000	-0.005016
	27.580000	-0.064213
	27.585000	0.116666
	27.590000	0.179152
	27.595000	-0.008305
	27.600000	-0.064213
	27.605000	0.119955
	27.610000	0.179152
	27.615000	-0.008305
	27.620000	-0.060925
	27.625000	0.119955
	27.630000	0.182441
	27.635000	-0.005016
	27.640000	-0.060925
	27.645000	0.116666
	27.650000	0.179152
	27.655000	0.001561
	27.660000	-0.060925
	27.665000	0.116666
	27.670000	0.182441
	27.675000	-0.001728
	27.680000	-0.060925
	27.685000	0.126533
	27.690000	0.175863
	27.695000	0.001561
	27.700000	-0.057636
	27.705000	0.123244
	27.710000	0.182441
	27.715000	0.001561
	27.720000	-0.060925
	27.725000	0.126533
	27.730000	0.182441
	27.735000	0.001561
	27.740000	-0.057636
	27.745000	0.123244
	27.750000	0.182441
	27.755000	0.004850
	27.760000	-0.060925
	27.765000	0.123244
	27.770000	0.185730
	27.775000	0.001561
	27.780000	-0.060925
	27.785000	0.119955
	27.790000	0.182441
	27.795000	0.001561
	27.800000	-0.067502
	27.805000	0.116666
	27.810000	0.179152
	27.815000	0.004850
	27.820000	-0.060925
	27.825000	0.119955
	27.830000	0.185730
	27.835000	0.001561
	27.840000	-0.060925
	27.845000	0.119955
	27.850000	0.182441
	27.855000	0.008138
	27.860000	-0.057636
	27.865000	0.119955
	27.870000	0.179152
	27.875000	0.001561
	27.880000	-0.057636
	27.885000	0.123244
	27.890000	0.182441
	27.895000	0.001561
	27.900000	-0.064213
	27.905000	0.116666
	27.910000	0.182441
	27.915000	0.004850
	27.920000	-0.057636
	27.925000	0.119955
	27.930000	0.185730
	27.935000	0.004850
	27.940000	-0.054347
	27.945000	0.116666
	27.950000	0.182441
	27.955000	0.008138
	27.960000	-0.060925
	27.965000	0.119955
	27.970000	0.189018
	27.975000	0.004850
	27.980000	-0.057636
	27.985000	0.123244
	27.990000	0.185730
	27.995000	0.014716
	28.000000	-0.051059
	28.005000	0.123244
	28.010000	0.189018
	28.015000	0.011427
	28.020000	-0.054347
	28.025000	0.123244
	28.030000	0.189018
	28.035000	0.011427
	28.040000	-0.054347
	28.045000	0.123244
	28.050000	0.192307
	28.055000	0.011427
	28.060000	-0.057636
	28.065000	0.119955
	28.070000	0.185730
	28.075000	0.008138
	28.080000	-0.051059
	28.085000	0.123244
	28.090000	0.189018
	28.095000	0.011427
	28.100000	-0.057636
	28.105000	0.123244
	28.110000	0.195596
	28.115000	0.008138
	28.120000	-0.054347
	28.125000	0.123244
	28.130000	0.192307
	28.135000	0.011427
	28.140000	-0.060925
	28.145000	0.116666
	28.150000	0.185730
	28.155000	0.008138
	28.160000	-0.057636
	28.165000	0.119955
	28.170000	0.189018
	28.175000	0.011427
	28.180000	-0.060925
	28.185000	0.116666
	28.190000	0.189018
	28.195000	0.011427
	28.200000	-0.057636
	28.205000	0.123244
	28.210000	0.192307
	28.215000	0.011427
	28.220000	-0.057636
	28.225000	0.116666
	28.230000	0.192307
	28.235000	0.014716
	28.240000	-0.054347
	28.245000	0.119955
	28.250000	0.192307
	28.255000	0.014716
	28.260000	-0.057636
	28.265000	0.116666
	28.270000	0.192307
	28.275000	0.014716
	28.280000	-0.054347
	28.285000	0.110089
	28.290000	0.192307
	28.295000	0.014716
	28.300000	-0.057636
	28.305000	0.119955
	28.310000	0.189018
	28.315000	0.014716
	28.320000	-0.060925
	28.325000	0.116666
	28.330000	0.185730
	28.335000	0.014716
	28.340000	-0.064213
	28.345000	0.113378
	28.350000	0.189018
	28.355000	0.014716
	28.360000	-0.060925
	28.365000	0.113378
	28.370000	0.189018
	28.375000	0.014716
	28.380000	-0.060925
	28.385000	0.110089
	28.390000	0.192307
	28.395000	0.011427
	28.400000	-0.060925
	28.405000	0.106800
	28.410000	0.189018
	28.415000	0.014716
	28.420000	-0.060925
	28.425000	0.110089
	28.430000	0.189018
	28.435000	0.014716
	28.440000	-0.060925
	28.445000	0.106800
	28.450000	0.189018
	28.455000	0.021293
	28.460000	-0.057636
	28.465000	0.116666
	28.470000	0.189018
	28.475000	0.018005
	28.480000	-0.064213
	28.485000	0.110089
	28.490000	0.189018
	28.495000	0.018005
	28.500000	-0.064213
	28.505000	0.110089
	28.510000	0.192307
	28.515000	0.014716
	28.520000	-0.060925
	28.525000	0.106800
	28.530000	0.189018
	28.535000	0.018005
	28.540000	-0.060925
	28.545000	0.106800
	28.550000	0.192307
	28.555000	0.018005
	28.560000	-0.054347
	28.565000	0.106800
	28.570000	0.189018
	28.575000	0.021293
	28.580000	-0.057636
	28.585000	0.116666
	28.590000	0.195596
	28.595000	0.024582
	28.600000	-0.057636
	28.605000	0.113378
	28.610000	0.195596
	28.615000	0.024582
	28.620000	-0.054347
	28.625000	0.113378
	28.630000	0.192307
	28.635000	0.021293
	28.640000	-0.054347
	28.645000	0.113378
	28.650000	0.195596
	28.655000	0.024582
	28.660000	-0.054347
	28.665000	0.116666
	28.670000	0.202173
	28.675000	0.031160
	28.680000	-0.054347
	28.685000	0.116666
	28.690000	0.198884
	28.695000	0.034448
	28.700000	-0.047770
	28.705000	0.116666
	28.710000	0.205462
	28.715000	0.034448
	28.720000	-0.041192
	28.725000	0.123244
	28.730000	0.205462
	28.735000	0.037737
	28.740000	-0.041192
	28.745000	0.123244
	28.750000	0.205462
	28.755000	0.041026
	28.760000	-0.041192
	28.765000	0.119955
	28.770000	0.205462
	28.775000	0.034448
	28.780000	-0.044481
	28.785000	0.119955
	28.790000	0.202173
	28.795000	0.034448
	28.800000	-0.044481
	28.805000	0.116666
	28.810000	0.205462
	28.815000	0.034448
	28.820000	-0.047770
	28.825000	0.119955
	28.830000	0.202173
	28.835000	0.041026
	28.840000	-0.044481
	28.845000	0.119955
	28.850000	0.205462
	28.855000	0.041026
	28.860000	-0.044481
	28.865000	0.113378
	28.870000	0.208751
	28.875000	0.041026
	28.880000	-0.044481
	28.885000	0.116666
	28.890000	0.202173
	28.895000	0.041026
	28.900000	-0.047770
	28.905000	0.116666
	28.910000	0.205462
	28.915000	0.041026
	28.920000	-0.047770
	28.925000	0.116666
	28.930000	0.208751
	28.935000	0.044314
	28.940000	-0.047770
	28.945000	0.116666
	28.950000	0.205462
	28.955000	0.044314
	28.960000	-0.047770
	28.965000	0.116666
	28.970000	0.208751
	28.975000	0.044314
	28.980000	-0.047770
	28.985000	0.119955
	28.990000	0.205462
	28.995000	0.050892
	29.000000	-0.047770
	29.005000	0.116666
	29.010000	0.202173
	29.015000	0.047603
	29.020000	-0.044481
	29.025000	0.116666
	29.030000	0.205462
	29.035000	0.044314
	29.040000	-0.037904
	29.045000	0.110089
	29.050000	0.198884
	29.055000	0.044314
	29.060000	-0.047770
	29.065000	0.110089
	29.070000	0.195596
	29.075000	0.041026
	29.080000	-0.051059
	29.085000	0.110089
	29.090000	0.202173
	29.095000	0.037737
	29.100000	-0.054347
	29.105000	0.103511
	29.110000	0.195596
	29.115000	0.037737
	29.120000	-0.054347
	29.125000	0.103511
	29.130000	0.189018
	29.135000	0.031160
	29.140000	-0.064213
	29.145000	0.093645
	29.150000	0.185730
	29.155000	0.034448
	29.160000	-0.070791
	29.165000	0.090357
	29.170000	0.185730
	29.175000	0.024582
	29.180000	-0.074080
	29.185000	0.090357
	29.190000	0.182441
	29.195000	0.021293
	29.200000	-0.074080
	29.205000	0.087068
	29.210000	0.179152
	29.215000	0.014716
	29.220000	-0.083946
	29.225000	0.077202
	29.230000	0.169286
	29.235000	0.014716
	29.240000	-0.083946
	29.245000	0.077202
	29.250000	0.175863
	29.255000	0.014716
	29.260000	-0.083946
	29.265000	0.073913
	29.270000	0.169286
	29.275000	0.011427
	29.280000	-0.090523
	29.285000	0.064047
	29.290000	0.165997
	29.295000	0.001561
	29.300000	-0.093812
	29.305000	0.057469
	29.310000	0.162708
	29.315000	0.001561
	29.320000	-0.100389
	29.325000	0.057469
	29.330000	0.156131
	29.335000	-0.005016
	29.340000	-0.110256
	29.345000	0.047603
	29.350000	0.149554
	29.355000	-0.014883
	29.360000	-0.113544
	29.365000	0.044314
	29.370000	0.142976
	29.375000	-0.011594
	29.380000	-0.120122
	29.385000	0.044314
	29.390000	0.146265
	29.395000	-0.008305
	29.400000	-0.116833
	29.405000	0.044314
	29.410000	0.149554
	29.415000	-0.008305
	29.420000	-0.110256
	29.425000	0.047603
	29.430000	0.152842
	29.435000	-0.005016
	29.440000	-0.110256
	29.445000	0.050892
	29.450000	0.152842
	29.455000	-0.001728
	29.460000	-0.106967
	29.465000	0.050892
	29.470000	0.149554
	29.475000	-0.001728
	29.480000	-0.103678
	29.485000	0.050892
	29.490000	0.156131
	29.495000	0.001561
	29.500000	-0.103678
	29.505000	0.050892
	29.510000	0.152842
	29.515000	0.001561
	29.520000	-0.100389
	29.525000	0.047603
	29.530000	0.159420
	29.535000	-0.001728
	29.540000	-0.106967
	29.545000	0.050892
	29.550000	0.156131
	29.555000	0.001561
	29.560000	-0.103678
	29.565000	0.047603
	29.570000	0.156131
	29.575000	0.001561
	29.580000	-0.103678
	29.585000	0.054181
	29.590000	0.159420
	29.595000	0.011427
	29.600000	-0.090523
	29.605000	0.067335
	29.610000	0.169286
	29.615000	0.027871
	29.620000	-0.077368
	29.625000	0.073913
	29.630000	0.179152
	29.635000	0.034448
	29.640000	-0.064213
	29.645000	0.087068
	29.650000	0.195596
	29.655000	0.050892
	29.660000	-0.051059
	29.665000	0.100223
	29.670000	0.208751
	29.675000	0.060758
	29.680000	-0.047770
	29.685000	0.103511
	29.690000	0.212039
	29.695000	0.064047
	29.700000	-0.041192
	29.705000	0.103511
	29.710000	0.221905
	29.715000	0.067335
	29.720000	-0.047770
	29.725000	0.110089
	29.730000	0.218617
	29.735000	0.070624
	29.740000	-0.041192
	29.745000	0.103511
	29.750000	0.208751
	29.755000	0.064047
	29.760000	-0.051059
	29.765000	0.096934
	29.770000	0.212039
	29.775000	0.060758
	29.780000	-0.051059
	29.785000	0.100223
	29.790000	0.202173
	29.795000	0.054181
	29.800000	-0.051059
	29.805000	0.090357
	29.810000	0.195596
	29.815000	0.057469
	29.820000	-0.054347
	29.825000	0.090357
	29.830000	0.195596
	29.835000	0.057469
	29.840000	-0.057636
	29.845000	0.090357
	29.850000	0.198884
	29.855000	0.050892
	29.860000	-0.060925
	29.865000	0.087068
	29.870000	0.198884
	29.875000	0.050892
	29.880000	-0.057636
	29.885000	0.090357
	29.890000	0.192307
	29.895000	0.054181
	29.900000	-0.054347
	29.905000	0.087068
	29.910000	0.202173
	29.915000	0.054181
	29.920000	-0.054347
	29.925000	0.087068
	29.930000	0.202173
	29.935000	0.057469
	29.940000	-0.051059
	29.945000	0.093645
	29.950000	0.202173
	29.955000	0.064047
	29.960000	-0.051059
	29.965000	0.093645
	29.970000	0.202173
	29.975000	0.064047
	29.980000	-0.051059
	29.985000	0.093645
	29.990000	0.208751
	29.995000	0.064047
	30.000000	-0.051059
	30.005000	0.090357
	30.010000	0.202173
	30.015000	0.057469
	30.020000	-0.057636
	30.025000	0.087068
	30.030000	0.202173
	30.035000	0.057469
	30.040000	-0.060925
	30.045000	0.083779
	30.050000	0.198884
	30.055000	0.050892
	30.060000	-0.054347
	30.065000	0.083779
	30.070000	0.198884
	30.075000	0.060758
	30.080000	-0.054347
	30.085000	0.087068
	30.090000	0.205462
	30.095000	0.060758
	30.100000	-0.054347
	30.105000	0.083779
	30.110000	0.198884
	30.115000	0.054181
	30.120000	-0.060925
	30.125000	0.080490
	30.130000	0.189018
	30.135000	0.050892
	30.140000	-0.064213
	30.145000	0.080490
	30.150000	0.192307
	30.155000	0.050892
	30.160000	-0.064213
	30.165000	0.073913
	30.170000	0.192307
	30.175000	0.054181
	30.180000	-0.064213
	30.185000	0.077202
	30.190000	0.195596
	30.195000	0.057469
	30.200000	-0.060925
	30.205000	0.077202
	30.210000	0.195596
	30.215000	0.060758
	30.220000	-0.060925
	30.225000	0.073913
	30.230000	0.198884
	30.235000	0.057469
	30.240000	-0.060925
	30.245000	0.080490
	30.250000	0.202173
	30.255000	0.057469
	30.260000	-0.060925
	30.265000	0.077202
	30.270000	0.198884
	30.275000	0.054181
	30.280000	-0.064213
	30.285000	0.070624
	30.290000	0.189018
	30.295000	0.050892
	30.300000	-0.070791
	30.305000	0.070624
	30.310000	0.192307
	30.315000	0.050892
	30.320000	-0.067502
	30.325000	0.070624
	30.330000	0.189018
	30.335000	0.047603
	30.340000	-0.074080
	30.345000	0.064047
	30.350000	0.185730
	30.355000	0.044314
	30.360000	-0.067502
	30.365000	0.064047
	30.370000	0.189018
	30.375000	0.050892
	30.380000	-0.074080
	30.385000	0.064047
	30.390000	0.182441
	30.395000	0.050892
	30.400000	-0.074080
	30.405000	0.064047
	30.410000	0.189018
	30.415000	0.050892
	30.420000	-0.077368
	30.425000	0.067335
	30.430000	0.189018
	30.435000	0.054181
	30.440000	-0.074080
	30.445000	0.064047
	30.450000	0.192307
	30.455000	0.054181
	30.460000	-0.070791
	30.465000	0.064047
	30.470000	0.192307
	30.475000	0.054181
	30.480000	-0.070791
	30.485000	0.064047
	30.490000	0.192307
	30.495000	0.050892
	30.500000	-0.070791
	30.505000	0.067335
	30.510000	0.192307
	30.515000	0.054181
	30.520000	-0.074080
	30.525000	0.064047
	30.530000	0.195596
	30.535000	0.057469
	30.540000	-0.067502
	30.545000	0.070624
	30.550000	0.192307
	30.555000	0.060758
	30.560000	-0.074080
	30.565000	0.067335
	30.570000	0.192307
	30.575000	0.064047
	30.580000	-0.070791
	30.585000	0.067335
	30.590000	0.195596
	30.595000	0.060758
	30.600000	-0.070791
	30.605000	0.067335
	30.610000	0.195596
	30.615000	0.060758
	30.620000	-0.070791
	30.625000	0.064047
	30.630000	0.192307
	30.635000	0.060758
	30.640000	-0.074080
	30.645000	0.057469
	30.650000	0.195596
	30.655000	0.057469
	30.660000	-0.074080
	30.665000	0.060758
	30.670000	0.192307
	30.675000	0.054181
	30.680000	-0.080657
	30.685000	0.054181
	30.690000	0.185730
	30.695000	0.050892
	30.700000	-0.077368
	30.705000	0.057469
	30.710000	0.189018
	30.715000	0.050892
	30.720000	-0.080657
	30.725000	0.047603
	30.730000	0.189018
	30.735000	0.054181
	30.740000	-0.074080
	30.745000	0.057469
	30.750000	0.182441
	30.755000	0.054181
	30.760000	-0.077368
	30.765000	0.057469
	30.770000	0.185730
	30.775000	0.054181
	30.780000	-0.077368
	30.785000	0.050892
	30.790000	0.185730
	30.795000	0.060758
	30.800000	-0.077368
	30.805000	0.057469
	30.810000	0.195596
	30.815000	0.067335
	30.820000	-0.074080
	30.825000	0.057469
	30.830000	0.192307
	30.835000	0.067335
	30.840000	-0.067502
	30.845000	0.064047
	30.850000	0.195596
	30.855000	0.067335
	30.860000	-0.067502
	30.865000	0.064047
	30.870000	0.198884
	30.875000	0.067335
	30.880000	-0.067502
	30.885000	0.057469
	30.890000	0.195596
	30.895000	0.067335
	30.900000	-0.074080
	30.905000	0.054181
	30.910000	0.192307
	30.915000	0.060758
	30.920000	-0.074080
	30.925000	0.057469
	30.930000	0.192307
	30.935000	0.064047
	30.940000	-0.074080
	30.945000	0.050892
	30.950000	0.192307
	30.955000	0.064047
	30.960000	-0.070791
	30.965000	0.057469
	30.970000	0.195596
	30.975000	0.064047
	30.980000	-0.080657
	30.985000	0.050892
	30.990000	0.189018
	30.995000	0.067335
	31.000000	-0.074080
	31.005000	0.050892
	31.010000	0.185730
	31.015000	0.064047
	31.020000	-0.074080
	31.025000	0.050892
	31.030000	0.189018
	31.035000	0.067335
	31.040000	-0.074080
	31.045000	0.050892
	31.050000	0.195596
	31.055000	0.064047
	31.060000	-0.074080
	31.065000	0.050892
	31.070000	0.192307
	31.075000	0.070624
	31.080000	-0.077368
	31.085000	0.050892
	31.090000	0.192307
	31.095000	0.073913
	31.100000	-0.077368
	31.105000	0.050892
	31.110000	0.195596
	31.115000	0.067335
	31.120000	-0.070791
	31.125000	0.047603
	31.130000	0.195596
	31.135000	0.070624
	31.140000	-0.074080
	31.145000	0.054181
	31.150000	0.192307
	31.155000	0.070624
	31.160000	-0.074080
	31.165000	0.047603
	31.170000	0.192307
	31.175000	0.073913
	31.180000	-0.074080
	31.185000	0.050892
	31.190000	0.195596
	31.195000	0.077202
	31.200000	-0.070791
	31.205000	0.050892
	31.210000	0.195596
	31.215000	0.070624
	31.220000	-0.067502
	31.225000	0.054181
	31.230000	0.198884
	31.235000	0.080490
	31.240000	-0.067502
	31.245000	0.050892
	31.250000	0.195596
	31.255000	0.080490
	31.260000	-0.067502
	31.265000	0.050892
	31.270000	0.195596
	31.275000	0.080490
	31.280000	-0.067502
	31.285000	0.050892
	31.290000	0.192307
	31.295000	0.077202
	31.300000	-0.070791
	31.305000	0.050892
	31.310000	0.198884
	31.315000	0.077202
	31.320000	-0.067502
	31.325000	0.047603
	31.330000	0.198884
	31.335000	0.083779
	31.340000	-0.067502
	31.345000	0.047603
	31.350000	0.195596
	31.355000	0.077202
	31.360000	-0.074080
	31.365000	0.044314
	31.370000	0.192307
	31.375000	0.077202
	31.380000	-0.080657
	31.385000	0.041026
	31.390000	0.189018
	31.395000	0.077202
	31.400000	-0.074080
	31.405000	0.044314
	31.410000	0.192307
	31.415000	0.077202
	31.420000	-0.070791
	31.425000	0.041026
	31.430000	0.195596
	31.435000	0.077202
	31.440000	-0.070791
	31.445000	0.041026
	31.450000	0.192307
	31.455000	0.077202
	31.460000	-0.074080
	31.465000	0.041026
	31.470000	0.195596
	31.475000	0.077202
	31.480000	-0.074080
	31.485000	0.041026
	31.490000	0.189018
	31.495000	0.077202
	31.500000	-0.070791
	31.505000	0.041026
	31.510000	0.192307
	31.515000	0.080490
	31.520000	-0.070791
	31.525000	0.041026
	31.530000	0.195596
	31.535000	0.083779
	31.540000	-0.074080
	31.545000	0.037737
	31.550000	0.195596
	31.555000	0.080490
	31.560000	-0.067502
	31.565000	0.041026
	31.570000	0.192307
	31.575000	0.083779
	31.580000	-0.067502
	31.585000	0.041026
	31.590000	0.195596
	31.595000	0.083779
	31.600000	-0.074080
	31.605000	0.037737
	31.610000	0.189018
	31.615000	0.083779
	31.620000	-0.074080
	31.625000	0.034448
	31.630000	0.192307
	31.635000	0.080490
	31.640000	-0.074080
	31.645000	0.027871
	31.650000	0.192307
	31.655000	0.083779
	31.660000	-0.074080
	31.665000	0.034448
	31.670000	0.189018
	31.675000	0.080490
	31.680000	-0.074080
	31.685000	0.031160
	31.690000	0.192307
	31.695000	0.080490
	31.700000	-0.077368
	31.705000	0.034448
	31.710000	0.185730
	31.715000	0.083779
	31.720000	-0.067502
	31.725000	0.034448
	31.730000	0.189018
	31.735000	0.083779
	31.740000	-0.077368
	31.745000	0.031160
	31.750000	0.185730
	31.755000	0.080490
	31.760000	-0.074080
	31.765000	0.037737
	31.770000	0.189018
	31.775000	0.083779
	31.780000	-0.070791
	31.785000	0.037737
	31.790000	0.185730
	31.795000	0.087068
	31.800000	-0.067502
	31.805000	0.031160
	31.810000	0.189018
	31.815000	0.087068
	31.820000	-0.074080
	31.825000	0.034448
	31.830000	0.189018
	31.835000	0.087068
	31.840000	-0.070791
	31.845000	0.034448
	31.850000	0.189018
	31.855000	0.087068
	31.860000	-0.074080
	31.865000	0.031160
	31.870000	0.195596
	31.875000	0.083779
	31.880000	-0.074080
	31.885000	0.027871
	31.890000	0.189018
	31.895000	0.090357
	31.900000	-0.070791
	31.905000	0.031160
	31.910000	0.189018
	31.915000	0.087068
	31.920000	-0.067502
	31.925000	0.031160
	31.930000	0.189018
	31.935000	0.087068
	31.940000	-0.070791
	31.945000	0.027871
	31.950000	0.189018
	31.955000	0.090357
	31.960000	-0.070791
	31.965000	0.027871
	31.970000	0.192307
	31.975000	0.090357
	31.980000	-0.074080
	31.985000	0.027871
	31.990000	0.185730
	31.995000	0.093645
	32.000000	-0.064213
	32.005000	0.031160
	32.010000	0.189018
	32.015000	0.090357
	32.020000	-0.074080
	32.025000	0.024582
	32.030000	0.189018
	32.035000	0.090357
	32.040000	-0.070791
	32.045000	0.024582
	32.050000	0.189018
	32.055000	0.090357
	32.060000	-0.074080
	32.065000	0.024582
	32.070000	0.189018
	32.075000	0.096934
	32.080000	-0.067502
	32.085000	0.024582
	32.090000	0.189018
	32.095000	0.090357
	32.100000	-0.070791
	32.105000	0.027871
	32.110000	0.185730
	32.115000	0.093645
	32.120000	-0.070791
	32.125000	0.024582
	32.130000	0.189018
	32.135000	0.090357
	32.140000	-0.074080
	32.145000	0.024582
	32.150000	0.185730
	32.155000	0.090357
	32.160000	-0.074080
	32.165000	0.024582
	32.170000	0.185730
	32.175000	0.093645
	32.180000	-0.070791
	32.185000	0.027871
	32.190000	0.189018
	32.195000	0.096934
	32.200000	-0.067502
	32.205000	0.024582
	32.210000	0.192307
	32.215000	0.103511
	32.220000	-0.064213
	32.225000	0.027871
	32.230000	0.192307
	32.235000	0.100223
	32.240000	-0.064213
	32.245000	0.024582
	32.250000	0.192307
	32.255000	0.103511
	32.260000	-0.070791
	32.265000	0.027871
	32.270000	0.185730
	32.275000	0.100223
	32.280000	-0.067502
	32.285000	0.018005
	32.290000	0.189018
	32.295000	0.100223
	32.300000	-0.064213
	32.305000	0.021293
	32.310000	0.189018
	32.315000	0.096934
	32.320000	-0.060925
	32.325000	0.024582
	32.330000	0.189018
	32.335000	0.103511
	32.340000	-0.060925
	32.345000	0.024582
	32.350000	0.185730
	32.355000	0.100223
	32.360000	-0.064213
	32.365000	0.021293
	32.370000	0.185730
	32.375000	0.103511
	32.380000	-0.067502
	32.385000	0.024582
	32.390000	0.195596
	32.395000	0.103511
	32.400000	-0.064213
	32.405000	0.018005
	32.410000	0.189018
	32.415000	0.106800
	32.420000	-0.060925
	32.425000	0.024582
	32.430000	0.189018
	32.435000	0.103511
	32.440000	-0.060925
	32.445000	0.021293
	32.450000	0.189018
	32.455000	0.110089
	32.460000	-0.057636
	32.465000	0.024582
	32.470000	0.192307
	32.475000	0.113378
	32.480000	-0.057636
	32.485000	0.027871
	32.490000	0.195596
	32.495000	0.106800
	32.500000	-0.060925
	32.505000	0.027871
	32.510000	0.189018
	32.515000	0.106800
	32.520000	-0.060925
	32.525000	0.024582
	32.530000	0.192307
	32.535000	0.106800
	32.540000	-0.057636
	32.545000	0.021293
	32.550000	0.195596
	32.555000	0.113378
	32.560000	-0.051059
	32.565000	0.021293
	32.570000	0.195596
	32.575000	0.119955
	32.580000	-0.054347
	32.585000	0.027871
	32.590000	0.202173
	32.595000	0.119955
	32.600000	-0.051059
	32.605000	0.027871
	32.610000	0.195596
	32.615000	0.119955
	32.620000	-0.051059
	32.625000	0.031160
	32.630000	0.198884
	32.635000	0.119955
	32.640000	-0.051059
	32.645000	0.031160
	32.650000	0.202173
	32.655000	0.119955
	32.660000	-0.051059
	32.665000	0.027871
	32.670000	0.205462
	32.675000	0.126533
	32.680000	-0.037904
	32.685000	0.027871
	32.690000	0.202173
	32.695000	0.126533
	32.700000	-0.041192
	32.705000	0.034448
	32.710000	0.202173
	32.715000	0.129821
	32.720000	-0.041192
	32.725000	0.027871
	32.730000	0.202173
	32.735000	0.126533
	32.740000	-0.041192
	32.745000	0.034448
	32.750000	0.198884
	32.755000	0.129821
	32.760000	-0.037904
	32.765000	0.031160
	32.770000	0.198884
	32.775000	0.129821
	32.780000	-0.037904
	32.785000	0.031160
	32.790000	0.202173
	32.795000	0.133110
	32.800000	-0.034615
	32.805000	0.034448
	32.810000	0.205462
	32.815000	0.133110
	32.820000	-0.041192
	32.825000	0.037737
	32.830000	0.205462
	32.835000	0.136399
	32.840000	-0.037904
	32.845000	0.031160
	32.850000	0.205462
	32.855000	0.136399
	32.860000	-0.037904
	32.865000	0.031160
	32.870000	0.202173
	32.875000	0.136399
	32.880000	-0.037904
	32.885000	0.031160
	32.890000	0.202173
	32.895000	0.136399
	32.900000	-0.034615
	32.905000	0.027871
	32.910000	0.198884
	32.915000	0.142976
	32.920000	-0.031326
	32.925000	0.031160
	32.930000	0.202173
	32.935000	0.133110
	32.940000	-0.034615
	32.945000	0.031160
	32.950000	0.198884
	32.955000	0.142976
	32.960000	-0.034615
	32.965000	0.024582
	32.970000	0.195596
	32.975000	0.136399
	32.980000	-0.037904
	32.985000	0.024582
	32.990000	0.195596
	32.995000	0.139687
	33.000000	-0.037904
	33.005000	0.024582
	33.010000	0.198884
	33.015000	0.139687
	33.020000	-0.041192
	33.025000	0.021293
	33.030000	0.192307
	33.035000	0.139687
	33.040000	-0.041192
	33.045000	0.018005
	33.050000	0.192307
	33.055000	0.129821
	33.060000	-0.041192
	33.065000	0.011427
	33.070000	0.189018
	33.075000	0.129821
	33.080000	-0.047770
	33.085000	0.008138
	33.090000	0.182441
	33.095000	0.126533
	33.100000	-0.054347
	33.105000	0.001561
	33.110000	0.179152
	33.115000	0.119955
	33.120000	-0.064213
	33.125000	-0.005016
	33.130000	0.169286
	33.135000	0.110089
	33.140000	-0.074080
	33.145000	-0.014883
	33.150000	0.159420
	33.155000	0.096934
	33.160000	-0.080657
	33.165000	-0.031326
	33.170000	0.149554
	33.175000	0.090357
	33.180000	-0.093812
	33.185000	-0.041192
	33.190000	0.136399
	33.195000	0.083779
	33.200000	-0.093812
	33.205000	-0.054347
	33.210000	0.136399
	33.215000	0.073913
	33.220000	-0.110256
	33.225000	-0.057636
	33.230000	0.129821
	33.235000	0.077202
	33.240000	-0.110256
	33.245000	-0.057636
	33.250000	0.123244
	33.255000	0.073913
	33.260000	-0.113544
	33.265000	-0.064213
	33.270000	0.119955
	33.275000	0.070624
	33.280000	-0.116833
	33.285000	-0.067502
	33.290000	0.116666
	33.295000	0.064047
	33.300000	-0.116833
	33.305000	-0.064213
	33.310000	0.123244
	33.315000	0.070624
	33.320000	-0.106967
	33.325000	-0.064213
	33.330000	0.129821
	33.335000	0.077202
	33.340000	-0.106967
	33.345000	-0.054347
	33.350000	0.133110
	33.355000	0.083779
	33.360000	-0.100389
	33.365000	-0.051059
	33.370000	0.136399
	33.375000	0.090357
	33.380000	-0.093812
	33.385000	-0.041192
	33.390000	0.142976
	33.395000	0.096934
	33.400000	-0.083946
	33.405000	-0.034615
	33.410000	0.146265
	33.415000	0.106800
	33.420000	-0.070791
	33.425000	-0.028037
	33.430000	0.152842
	33.435000	0.110089
	33.440000	-0.074080
	33.445000	-0.021460
	33.450000	0.156131
	33.455000	0.116666
	33.460000	-0.060925
	33.465000	-0.014883
	33.470000	0.172575
	33.475000	0.133110
	33.480000	-0.044481
	33.485000	0.001561
	33.490000	0.189018
	33.495000	0.142976
	33.500000	-0.028037
	33.505000	0.014716
	33.510000	0.198884
	33.515000	0.162708
	33.520000	-0.018171
	33.525000	0.027871
	33.530000	0.208751
	33.535000	0.165997
	33.540000	-0.008305
	33.545000	0.027871
	33.550000	0.212039
	33.555000	0.172575
	33.560000	-0.011594
	33.565000	0.024582
	33.570000	0.212039
	33.575000	0.169286
	33.580000	-0.005016
	33.585000	0.027871
	33.590000	0.208751
	33.595000	0.165997
	33.600000	-0.021460
	33.605000	0.018005
	33.610000	0.195596
	33.615000	0.156131
	33.620000	-0.021460
	33.625000	0.014716
	33.630000	0.192307
	33.635000	0.149554
	33.640000	-0.028037
	33.645000	0.011427
	33.650000	0.185730
	33.655000	0.152842
	33.660000	-0.028037
	33.665000	0.004850
	33.670000	0.189018
	33.675000	0.149554
	33.680000	-0.034615
	33.685000	0.001561
	33.690000	0.182441
	33.695000	0.142976
	33.700000	-0.037904
	33.705000	-0.001728
	33.710000	0.182441
	33.715000	0.142976
	33.720000	-0.037904
	33.725000	-0.005016
	33.730000	0.172575
	33.735000	0.142976
	33.740000	-0.041192
	33.745000	-0.005016
	33.750000	0.169286
	33.755000	0.139687
	33.760000	-0.047770
	33.765000	-0.014883
	33.770000	0.165997
	33.775000	0.129821
	33.780000	-0.051059
	33.785000	-0.018171
	33.790000	0.159420
	33.795000	0.129821
	33.800000	-0.054347
	33.805000	-0.018171
	33.810000	0.162708
	33.815000	0.126533
	33.820000	-0.054347
	33.825000	-0.024749
	33.830000	0.159420
	33.835000	0.129821
	33.840000	-0.054347
	33.845000	-0.024749
	33.850000	0.159420
	33.855000	0.126533
	33.860000	-0.054347
	33.865000	-0.028037
	33.870000	0.159420
	33.875000	0.126533
	33.880000	-0.054347
	33.885000	-0.024749
	33.890000	0.149554
	33.895000	0.119955
	33.900000	-0.060925
	33.905000	-0.031326
	33.910000	0.149554
	33.915000	0.119955
	33.920000	-0.060925
	33.925000	-0.034615
	33.930000	0.146265
	33.935000	0.116666
	33.940000	-0.064213
	33.945000	-0.037904
	33.950000	0.146265
	33.955000	0.123244
	33.960000	-0.064213
	33.965000	-0.034615
	33.970000	0.146265
	33.975000	0.119955
	33.980000	-0.064213
	33.985000	-0.034615
	33.990000	0.146265
	33.995000	0.123244
	34.000000	-0.064213
	34.005000	-0.034615
	34.010000	0.149554
	34.015000	0.129821
	34.020000	-0.060925
	34.025000	-0.037904
	34.030000	0.152842
	34.035000	0.126533
	34.040000	-0.060925
	34.045000	-0.034615
	34.050000	0.149554
	34.055000	0.123244
	34.060000	-0.057636
	34.065000	-0.031326
	34.070000	0.152842
	34.075000	0.129821
	34.080000	-0.057636
	34.085000	-0.034615
	34.090000	0.152842
	34.095000	0.129821
	34.100000	-0.054347
	34.105000	-0.028037
	34.110000	0.152842
	34.115000	0.133110
	34.120000	-0.054347
	34.125000	-0.034615
	34.130000	0.149554
	34.135000	0.133110
	34.140000	-0.054347
	34.145000	-0.031326
	34.150000	0.152842
	34.155000	0.133110
	34.160000	-0.054347
	34.165000	-0.034615
	34.170000	0.149554
	34.175000	0.133110
	34.180000	-0.051059
	34.185000	-0.031326
	34.190000	0.149554
	34.195000	0.133110
	34.200000	-0.051059
	34.205000	-0.034615
	34.210000	0.152842
	34.215000	0.133110
	34.220000	-0.057636
	34.225000	-0.037904
	34.230000	0.152842
	34.235000	0.129821
	34.240000	-0.054347
	34.245000	-0.034615
	34.250000	0.152842
	34.255000	0.136399
	34.260000	-0.051059
	34.265000	-0.031326
	34.270000	0.156131
	34.275000	0.139687
	34.280000	-0.041192
	34.285000	-0.028037
	34.290000	0.156131
	34.295000	0.142976
	34.300000	-0.051059
	34.305000	-0.034615
	34.310000	0.146265
	34.315000	0.129821
	34.320000	-0.064213
	34.325000	-0.051059
	34.330000	0.136399
	34.335000	0.116666
	34.340000	-0.064213
	34.345000	-0.054347
	34.350000	0.133110
	34.355000	0.123244
	34.360000	-0.064213
	34.365000	-0.051059
	34.370000	0.136399
	34.375000	0.129821
	34.380000	-0.064213
	34.385000	-0.054347
	34.390000	0.139687
	34.395000	0.129821
	34.400000	-0.057636
	34.405000	-0.051059
	34.410000	0.142976
	34.415000	0.133110
	34.420000	-0.051059
	34.425000	-0.041192
	34.430000	0.142976
	34.435000	0.139687
	34.440000	-0.051059
	34.445000	-0.041192
	34.450000	0.146265
	34.455000	0.136399
	34.460000	-0.054347
	34.465000	-0.041192
	34.470000	0.149554
	34.475000	0.139687
	34.480000	-0.051059
	34.485000	-0.041192
	34.490000	0.146265
	34.495000	0.136399
	34.500000	-0.054347
	34.505000	-0.044481
	34.510000	0.139687
	34.515000	0.133110
	34.520000	-0.051059
	34.525000	-0.047770
	34.530000	0.142976
	34.535000	0.139687
	34.540000	-0.054347
	34.545000	-0.047770
	34.550000	0.139687
	34.555000	0.136399
	34.560000	-0.051059
	34.565000	-0.044481
	34.570000	0.146265
	34.575000	0.142976
	34.580000	-0.044481
	34.585000	-0.044481
	34.590000	0.152842
	34.595000	0.142976
	34.600000	-0.041192
	34.605000	-0.034615
	34.610000	0.152842
	34.615000	0.149554
	34.620000	-0.037904
	34.625000	-0.034615
	34.630000	0.149554
	34.635000	0.149554
	34.640000	-0.037904
	34.645000	-0.037904
	34.650000	0.156131
	34.655000	0.149554
	34.660000	-0.037904
	34.665000	-0.031326
	34.670000	0.156131
	34.675000	0.152842
	34.680000	-0.034615
	34.685000	-0.037904
	34.690000	0.156131
	34.695000	0.156131
	34.700000	-0.028037
	34.705000	-0.031326
	34.710000	0.159420
	34.715000	0.156131
	34.720000	-0.031326
	34.725000	-0.028037
	34.730000	0.159420
	34.735000	0.162708
	34.740000	-0.031326
	34.745000	-0.031326
	34.750000	0.159420
	34.755000	0.162708
	34.760000	-0.028037
	34.765000	-0.031326
	34.770000	0.156131
	34.775000	0.165997
	34.780000	-0.028037
	34.785000	-0.024749
	34.790000	0.152842
	34.795000	0.162708
	34.800000	-0.028037
	34.805000	-0.034615
	34.810000	0.152842
	34.815000	0.159420
	34.820000	-0.028037
	34.825000	-0.037904
	34.830000	0.156131
	34.835000	0.156131
	34.840000	-0.031326
	34.845000	-0.031326
	34.850000	0.156131
	34.855000	0.159420
	34.860000	-0.028037
	34.865000	-0.037904
	34.870000	0.152842
	34.875000	0.162708
	34.880000	-0.034615
	34.885000	-0.034615
	34.890000	0.156131
	34.895000	0.165997
	34.900000	-0.028037
	34.905000	-0.031326
	34.910000	0.156131
	34.915000	0.162708
	34.920000	-0.021460
	34.925000	-0.028037
	34.930000	0.159420
	34.935000	0.165997
	34.940000	-0.021460
	34.945000	-0.031326
	34.950000	0.156131
	34.955000	0.169286
	34.960000	-0.021460
	34.965000	-0.031326
	34.970000	0.156131
	34.975000	0.169286
	34.980000	-0.024749
	34.985000	-0.034615
	34.990000	0.149554
	34.995000	0.162708
	35.000000	-0.024749
	35.005000	-0.037904
	35.010000	0.149554
	35.015000	0.169286
	35.020000	-0.021460
	35.025000	-0.041192
	35.030000	0.152842
	35.035000	0.165997
	35.040000	-0.021460
	35.045000	-0.037904
	35.050000	0.152842
	35.055000	0.162708
	35.060000	-0.024749
	35.065000	-0.037904
	35.070000	0.156131
	35.075000	0.169286
	35.080000	-0.021460
	35.085000	-0.037904
	35.090000	0.152842
	35.095000	0.175863
	35.100000	-0.024749
	35.105000	-0.034615
	35.110000	0.146265
	35.115000	0.169286
	35.120000	-0.021460
	35.125000	-0.041192
	35.130000	0.149554
	35.135000	0.169286
	35.140000	-0.024749
	35.145000	-0.037904
	35.150000	0.146265
	35.155000	0.165997
	35.160000	-0.021460
	35.165000	-0.037904
	35.170000	0.142976
	35.175000	0.165997
	35.180000	-0.024749
	35.185000	-0.044481
	35.190000	0.142976
	35.195000	0.165997
	35.200000	-0.021460
	35.205000	-0.051059
	35.210000	0.139687
	35.215000	0.162708
	35.220000	-0.024749
	35.225000	-0.047770
	35.230000	0.139687
	35.235000	0.159420
	35.240000	-0.028037
	35.245000	-0.051059
	35.250000	0.139687
	35.255000	0.162708
	35.260000	-0.021460
	35.265000	-0.051059
	35.270000	0.142976
	35.275000	0.162708
	35.280000	-0.028037
	35.285000	-0.051059
	35.290000	0.136399
	35.295000	0.165997
	35.300000	-0.021460
	35.305000	-0.057636
	35.310000	0.136399
	35.315000	0.165997
	35.320000	-0.024749
	35.325000	-0.047770
	35.330000	0.136399
	35.335000	0.165997
	35.340000	-0.021460
	35.345000	-0.051059
	35.350000	0.142976
	35.355000	0.165997
	35.360000	-0.024749
	35.365000	-0.051059
	35.370000	0.142976
	35.375000	0.169286
	35.380000	-0.021460
	35.385000	-0.051059
	35.390000	0.136399
	35.395000	0.162708
	35.400000	-0.024749
	35.405000	-0.054347
	35.410000	0.133110
	35.415000	0.169286
	35.420000	-0.018171
	35.425000	-0.051059
	35.430000	0.133110
	35.435000	0.165997
	35.440000	-0.021460
	35.445000	-0.051059
	35.450000	0.136399
	35.455000	0.165997
	35.460000	-0.014883
	35.465000	-0.051059
	35.470000	0.136399
	35.475000	0.165997
	35.480000	-0.018171
	35.485000	-0.047770
	35.490000	0.136399
	35.495000	0.169286
	35.500000	-0.014883
	35.505000	-0.051059
	35.510000	0.136399
	35.515000	0.169286
	35.520000	-0.014883
	35.525000	-0.051059
	35.530000	0.136399
	35.535000	0.169286
	35.540000	-0.018171
	35.545000	-0.051059
	35.550000	0.136399
	35.555000	0.169286
	35.560000	-0.014883
	35.565000	-0.054347
	35.570000	0.129821
	35.575000	0.172575
	35.580000	-0.018171
	35.585000	-0.054347
	35.590000	0.133110
	35.595000	0.169286
	35.600000	-0.014883
	35.605000	-0.051059
	35.610000	0.133110
	35.615000	0.169286
	35.620000	-0.014883
	35.625000	-0.051059
	35.630000	0.133110
	35.635000	0.175863
	35.640000	-0.014883
	35.645000	-0.051059
	35.650000	0.133110
	35.655000	0.172575
	35.660000	-0.011594
	35.665000	-0.051059
	35.670000	0.129821
	35.675000	0.169286
	35.680000	-0.011594
	35.685000	-0.057636
	35.690000	0.126533
	35.695000	0.169286
	35.700000	-0.011594
	35.705000	-0.051059
	35.710000	0.126533
	35.715000	0.172575
	35.720000	-0.014883
	35.725000	-0.057636
	35.730000	0.129821
	35.735000	0.169286
	35.740000	-0.011594
	35.745000	-0.057636
	35.750000	0.123244
	35.755000	0.175863
	35.760000	-0.008305
	35.765000	-0.054347
	35.770000	0.129821
	35.775000	0.172575
	35.780000	-0.005016
	35.785000	-0.060925
	35.790000	0.126533
	35.795000	0.172575
	35.800000	-0.011594
	35.805000	-0.057636
	35.810000	0.123244
	35.815000	0.169286
	35.820000	-0.011594
	35.825000	-0.057636
	35.830000	0.123244
	35.835000	0.172575
	35.840000	-0.014883
	35.845000	-0.060925
	35.850000	0.116666
	35.855000	0.169286
	35.860000	-0.011594
	35.865000	-0.060925
	35.870000	0.119955
	35.875000	0.169286
	35.880000	-0.011594
	35.885000	-0.060925
	35.890000	0.116666
	35.895000	0.169286
	35.900000	-0.011594
	35.905000	-0.057636
	35.910000	0.119955
	35.915000	0.169286
	35.920000	-0.008305
	35.925000	-0.064213
	35.930000	0.116666
	35.935000	0.169286
	35.940000	-0.011594
	35.945000	-0.057636
	35.950000	0.116666
	35.955000	0.169286
	35.960000	-0.014883
	35.965000	-0.060925
	35.970000	0.116666
	35.975000	0.169286
	35.980000	-0.008305
	35.985000	-0.064213
	35.990000	0.116666
	35.995000	0.172575
	36.000000	-0.008305
	36.005000	-0.054347
	36.010000	0.116666
	36.015000	0.175863
	36.020000	-0.005016
	36.025000	-0.054347
	36.030000	0.116666
	36.035000	0.179152
	36.040000	-0.001728
	36.045000	-0.057636
	36.050000	0.123244
	36.055000	0.175863
	36.060000	-0.005016
	36.065000	-0.054347
	36.070000	0.119955
	36.075000	0.182441
	36.080000	0.004850
	36.085000	-0.054347
	36.090000	0.119955
	36.095000	0.182441
	36.100000	0.004850
	36.105000	-0.054347
	36.110000	0.126533
	36.115000	0.179152
	36.120000	0.011427
	36.125000	-0.051059
	36.130000	0.119955
	36.135000	0.185730
	36.140000	0.004850
	36.145000	-0.054347
	36.150000	0.123244
	36.155000	0.182441
	36.160000	0.011427
	36.165000	-0.054347
	36.170000	0.123244
	36.175000	0.179152
	36.180000	0.008138
	36.185000	-0.051059
	36.190000	0.123244
	36.195000	0.182441
	36.200000	0.011427
	36.205000	-0.051059
	36.210000	0.123244
	36.215000	0.185730
	36.220000	0.018005
	36.225000	-0.057636
	36.230000	0.123244
	36.235000	0.185730
	36.240000	0.018005
	36.245000	-0.047770
	36.250000	0.119955
	36.255000	0.185730
	36.260000	0.014716
	36.265000	-0.057636
	36.270000	0.116666
	36.275000	0.182441
	36.280000	0.008138
	36.285000	-0.054347
	36.290000	0.113378
	36.295000	0.179152
	36.300000	0.004850
	36.305000	-0.054347
	36.310000	0.110089
	36.315000	0.179152
	36.320000	0.014716
	36.325000	-0.057636
	36.330000	0.113378
	36.335000	0.185730
	36.340000	0.014716
	36.345000	-0.054347
	36.350000	0.116666
	36.355000	0.185730
	36.360000	0.018005
	36.365000	-0.054347
	36.370000	0.110089
	36.375000	0.185730
	36.380000	0.011427
	36.385000	-0.051059
	36.390000	0.116666
	36.395000	0.189018
	36.400000	0.014716
	36.405000	-0.054347
	36.410000	0.116666
	36.415000	0.182441
	36.420000	0.018005
	36.425000	-0.057636
	36.430000	0.110089
	36.435000	0.182441
	36.440000	0.011427
	36.445000	-0.054347
	36.450000	0.110089
	36.455000	0.182441
	36.460000	0.011427
	36.465000	-0.060925
	36.470000	0.110089
	36.475000	0.175863
	36.480000	0.008138
	36.485000	-0.060925
	36.490000	0.100223
	36.495000	0.175863
	36.500000	0.004850
	36.505000	-0.070791
	36.510000	0.093645
	36.515000	0.169286
	36.520000	-0.005016
	36.525000	-0.077368
	36.530000	0.090357
	36.535000	0.159420
	36.540000	-0.014883
	36.545000	-0.083946
	36.550000	0.077202
	36.555000	0.152842
	36.560000	-0.018171
	36.565000	-0.093812
	36.570000	0.077202
	36.575000	0.152842
	36.580000	-0.018171
	36.585000	-0.097101
	36.590000	0.073913
	36.595000	0.149554
	36.600000	-0.021460
	36.605000	-0.100389
	36.610000	0.070624
	36.615000	0.142976
	36.620000	-0.024749
	36.625000	-0.110256
	36.630000	0.064047
	36.635000	0.139687
	36.640000	-0.031326
	36.645000	-0.113544
	36.650000	0.054181
	36.655000	0.142976
	36.660000	-0.034615
	36.665000	-0.113544
	36.670000	0.054181
	36.675000	0.133110
	36.680000	-0.031326
	36.685000	-0.110256
	36.690000	0.054181
	36.695000	0.136399
	36.700000	-0.024749
	36.705000	-0.110256
	36.710000	0.054181
	36.715000	0.139687
	36.720000	-0.028037
	36.725000	-0.113544
	36.730000	0.057469
	36.735000	0.142976
	36.740000	-0.024749
	36.745000	-0.106967
	36.750000	0.060758
	36.755000	0.146265
	36.760000	-0.018171
	36.765000	-0.103678
	36.770000	0.067335
	36.775000	0.152842
	36.780000	-0.011594
	36.785000	-0.100389
	36.790000	0.070624
	36.795000	0.169286
	36.800000	-0.008305
	36.805000	-0.090523
	36.810000	0.073913
	36.815000	0.165997
	36.820000	0.004850
	36.825000	-0.087234
	36.830000	0.087068
	36.835000	0.169286
	36.840000	0.008138
	36.845000	-0.083946
	36.850000	0.087068
	36.855000	0.179152
	36.860000	0.011427
	36.865000	-0.080657
	36.870000	0.090357
	36.875000	0.179152
	36.880000	0.014716
	36.885000	-0.077368
	36.890000	0.090357
	36.895000	0.179152
	36.900000	0.014716
	36.905000	-0.080657
	36.910000	0.083779
	36.915000	0.172575
	36.920000	0.008138
	36.925000	-0.083946
	36.930000	0.080490
	36.935000	0.172575
	36.940000	0.008138
	36.945000	-0.080657
	36.950000	0.077202
	36.955000	0.169286
	36.960000	0.008138
	36.965000	-0.080657
	36.970000	0.083779
	36.975000	0.172575
	36.980000	0.018005
	36.985000	-0.077368
	36.990000	0.093645
	36.995000	0.189018
	37.000000	0.027871
	37.005000	-0.060925
	37.010000	0.100223
	37.015000	0.195596
	37.020000	0.037737
	37.025000	-0.051059
	37.030000	0.110089
	37.035000	0.205462
	37.040000	0.054181
	37.045000	-0.041192
	37.050000	0.119955
	37.055000	0.215328
	37.060000	0.057469
	37.065000	-0.037904
	37.070000	0.123244
	37.075000	0.215328
	37.080000	0.057469
	37.085000	-0.028037
	37.090000	0.119955
	37.095000	0.215328
	37.100000	0.064047
	37.105000	-0.034615
	37.110000	0.123244
	37.115000	0.212039
	37.120000	0.064047
	37.125000	-0.031326
	37.130000	0.116666
	37.135000	0.218617
	37.140000	0.064047
	37.145000	-0.034615
	37.150000	0.113378
	37.155000	0.208751
	37.160000	0.050892
	37.165000	-0.047770
	37.170000	0.100223
	37.175000	0.198884
	37.180000	0.041026
	37.185000	-0.054347
	37.190000	0.093645
	37.195000	0.192307
	37.200000	0.037737
	37.205000	-0.060925
	37.210000	0.087068
	37.215000	0.182441
	37.220000	0.031160
	37.225000	-0.067502
	37.230000	0.087068
	37.235000	0.175863
	37.240000	0.024582
	37.245000	-0.070791
	37.250000	0.083779
	37.255000	0.179152
	37.260000	0.031160
	37.265000	-0.067502
	37.270000	0.083779
	37.275000	0.182441
	37.280000	0.031160
	37.285000	-0.067502
	37.290000	0.083779
	37.295000	0.182441
	37.300000	0.034448
	37.305000	-0.064213
	37.310000	0.090357
	37.315000	0.185730
	37.320000	0.037737
	37.325000	-0.060925
	37.330000	0.083779
	37.335000	0.185730
	37.340000	0.034448
	37.345000	-0.067502
	37.350000	0.087068
	37.355000	0.185730
	37.360000	0.034448
	37.365000	-0.067502
	37.370000	0.083779
	37.375000	0.182441
	37.380000	0.034448
	37.385000	-0.067502
	37.390000	0.080490
	37.395000	0.175863
	37.400000	0.027871
	37.405000	-0.077368
	37.410000	0.080490
	37.415000	0.175863
	37.420000	0.024582
	37.425000	-0.077368
	37.430000	0.073913
	37.435000	0.175863
	37.440000	0.024582
	37.445000	-0.077368
	37.450000	0.067335
	37.455000	0.175863
	37.460000	0.021293
	37.465000	-0.080657
	37.470000	0.067335
	37.475000	0.175863
	37.480000	0.027871
	37.485000	-0.083946
	37.490000	0.070624
	37.495000	0.179152
	37.500000	0.024582
	37.505000	-0.080657
	37.510000	0.067335
	37.515000	0.172575
	37.520000	0.031160
	37.525000	-0.083946
	37.530000	0.073913
	37.535000	0.179152
	37.540000	0.031160
	37.545000	-0.083946
	37.550000	0.070624
	37.555000	0.175863
	37.560000	0.024582
	37.565000	-0.080657
	37.570000	0.067335
	37.575000	0.182441
	37.580000	0.027871
	37.585000	-0.077368
	37.590000	0.064047
	37.595000	0.175863
	37.600000	0.031160
	37.605000	-0.080657
	37.610000	0.064047
	37.615000	0.179152
	37.620000	0.034448
	37.625000	-0.080657
	37.630000	0.064047
	37.635000	0.179152
	37.640000	0.027871
	37.645000	-0.080657
	37.650000	0.070624
	37.655000	0.185730
	37.660000	0.037737
	37.665000	-0.077368
	37.670000	0.067335
	37.675000	0.182441
	37.680000	0.034448
	37.685000	-0.077368
	37.690000	0.073913
	37.695000	0.189018
	37.700000	0.037737
	37.705000	-0.074080
	37.710000	0.067335
	37.715000	0.185730
	37.720000	0.037737
	37.725000	-0.077368
	37.730000	0.070624
	37.735000	0.182441
	37.740000	0.037737
	37.745000	-0.080657
	37.750000	0.067335
	37.755000	0.175863
	37.760000	0.037737
	37.765000	-0.077368
	37.770000	0.067335
	37.775000	0.185730
	37.780000	0.034448
	37.785000	-0.080657
	37.790000	0.070624
	37.795000	0.185730
	37.800000	0.034448
	37.805000	-0.074080
	37.810000	0.067335
	37.815000	0.185730
	37.820000	0.044314
	37.825000	-0.074080
	37.830000	0.070624
	37.835000	0.185730
	37.840000	0.041026
	37.845000	-0.077368
	37.850000	0.067335
	37.855000	0.185730
	37.860000	0.044314
	37.865000	-0.074080
	37.870000	0.073913
	37.875000	0.189018
	37.880000	0.044314
	37.885000	-0.074080
	37.890000	0.067335
	37.895000	0.185730
	37.900000	0.044314
	37.905000	-0.077368
	37.910000	0.067335
	37.915000	0.185730
	37.920000	0.047603
	37.925000	-0.080657
	37.930000	0.067335
	37.935000	0.182441
	37.940000	0.044314
	37.945000	-0.077368
	37.950000	0.060758
	37.955000	0.189018
	37.960000	0.044314
	37.965000	-0.077368
	37.970000	0.064047
	37.975000	0.185730
	37.980000	0.044314
	37.985000	-0.080657
	37.990000	0.067335
	37.995000	0.182441
	38.000000	0.050892
	38.005000	-0.080657
	38.010000	0.064047
	38.015000	0.185730
	38.020000	0.044314
	38.025000	-0.077368
	38.030000	0.060758
	38.035000	0.185730
	38.040000	0.044314
	38.045000	-0.077368
	38.050000	0.057469
	38.055000	0.185730
	38.060000	0.047603
	38.065000	-0.083946
	38.070000	0.054181
	38.075000	0.182441
	38.080000	0.044314
	38.085000	-0.080657
	38.090000	0.057469
	38.095000	0.175863
	38.100000	0.044314
	38.105000	-0.083946
	38.110000	0.054181
	38.115000	0.182441
	38.120000	0.041026
	38.125000	-0.083946
	38.130000	0.054181
	38.135000	0.182441
	38.140000	0.041026
	38.145000	-0.083946
	38.150000	0.050892
	38.155000	0.182441
	38.160000	0.047603
	38.165000	-0.080657
	38.170000	0.060758
	38.175000	0.182441
	38.180000	0.047603
	38.185000	-0.080657
	38.190000	0.057469
	38.195000	0.189018
	38.200000	0.050892
	38.205000	-0.074080
	38.210000	0.057469
	38.215000	0.189018
	38.220000	0.047603
	38.225000	-0.074080
	38.230000	0.057469
	38.235000	0.189018
	38.240000	0.054181
	38.245000	-0.080657
	38.250000	0.057469
	38.255000	0.179152
	38.260000	0.047603
	38.265000	-0.080657
	38.270000	0.054181
	38.275000	0.185730
	38.280000	0.047603
	38.285000	-0.074080
	38.290000	0.050892
	38.295000	0.185730
	38.300000	0.054181
	38.305000	-0.074080
	38.310000	0.057469
	38.315000	0.185730
	38.320000	0.054181
	38.325000	-0.077368
	38.330000	0.054181
	38.335000	0.185730
	38.340000	0.057469
	38.345000	-0.077368
	38.350000	0.054181
	38.355000	0.192307
	38.360000	0.054181
	38.365000	-0.077368
	38.370000	0.050892
	38.375000	0.185730
	38.380000	0.054181
	38.385000	-0.080657
	38.390000	0.054181
	38.395000	0.182441
	38.400000	0.050892
	38.405000	-0.074080
	38.410000	0.054181
	38.415000	0.185730
	38.420000	0.054181
	38.425000	-0.080657
	38.430000	0.047603
	38.435000	0.182441
	38.440000	0.054181
	38.445000	-0.077368
	38.450000	0.047603
	38.455000	0.182441
	38.460000	0.054181
	38.465000	-0.080657
	38.470000	0.050892
	38.475000	0.185730
	38.480000	0.054181
	38.485000	-0.080657
	38.490000	0.047603
	38.495000	0.185730
	38.500000	0.054181
	38.505000	-0.080657
	38.510000	0.047603
	38.515000	0.182441
	38.520000	0.057469
	38.525000	-0.080657
	38.530000	0.047603
	38.535000	0.182441
	38.540000	0.054181
	38.545000	-0.080657
	38.550000	0.044314
	38.555000	0.182441
	38.560000	0.054181
	38.565000	-0.083946
	38.570000	0.044314
	38.575000	0.182441
	38.580000	0.057469
	38.585000	-0.080657
	38.590000	0.041026
	38.595000	0.182441
	38.600000	0.057469
	38.605000	-0.083946
	38.610000	0.044314
	38.615000	0.182441
	38.620000	0.050892
	38.625000	-0.083946
	38.630000	0.044314
	38.635000	0.185730
	38.640000	0.060758
	38.645000	-0.077368
	38.650000	0.041026
	38.655000	0.182441
	38.660000	0.057469
	38.665000	-0.080657
	38.670000	0.041026
	38.675000	0.182441
	38.680000	0.057469
	38.685000	-0.077368
	38.690000	0.044314
	38.695000	0.185730
	38.700000	0.057469
	38.705000	-0.080657
	38.710000	0.044314
	38.715000	0.182441
	38.720000	0.060758
	38.725000	-0.080657
	38.730000	0.044314
	38.735000	0.182441
	38.740000	0.060758
	38.745000	-0.077368
	38.750000	0.037737
	38.755000	0.182441
	38.760000	0.060758
	38.765000	-0.080657
	38.770000	0.041026
	38.775000	0.179152
	38.780000	0.060758
	38.785000	-0.080657
	38.790000	0.041026
	38.795000	0.179152
	38.800000	0.064047
	38.805000	-0.083946
	38.810000	0.041026
	38.815000	0.182441
	38.820000	0.064047
	38.825000	-0.077368
	38.830000	0.041026
	38.835000	0.182441
	38.840000	0.064047
	38.845000	-0.077368
	38.850000	0.041026
	38.855000	0.185730
	38.860000	0.057469
	38.865000	-0.080657
	38.870000	0.041026
	38.875000	0.182441
	38.880000	0.060758
	38.885000	-0.077368
	38.890000	0.037737
	38.895000	0.185730
	38.900000	0.067335
	38.905000	-0.080657
	38.910000	0.041026
	38.915000	0.182441
	38.920000	0.067335
	38.925000	-0.080657
	38.930000	0.034448
	38.935000	0.182441
	38.940000	0.067335
	38.945000	-0.077368
	38.950000	0.037737
	38.955000	0.182441
	38.960000	0.064047
	38.965000	-0.080657
	38.970000	0.034448
	38.975000	0.182441
	38.980000	0.067335
	38.985000	-0.080657
	38.990000	0.037737
	38.995000	0.182441
	39.000000	0.067335
	39.005000	-0.080657
	39.010000	0.034448
	39.015000	0.182441
	39.020000	0.067335
	39.025000	-0.080657
	39.030000	0.034448
	39.035000	0.185730
	39.040000	0.067335
	39.045000	-0.080657
	39.050000	0.037737
	39.055000	0.179152
	39.060000	0.067335
	39.065000	-0.083946
	39.070000	0.034448
	39.075000	0.182441
	39.080000	0.067335
	39.085000	-0.077368
	39.090000	0.027871
	39.095000	0.175863
	39.100000	0.064047
	39.105000	-0.077368
	39.110000	0.031160
	39.115000	0.172575
	39.120000	0.067335
	39.125000	-0.077368
	39.130000	0.034448
	39.135000	0.179152
	39.140000	0.070624
	39.145000	-0.080657
	39.150000	0.031160
	39.155000	0.185730
	39.160000	0.067335
	39.165000	-0.080657
	39.170000	0.034448
	39.175000	0.182441
	39.180000	0.070624
	39.185000	-0.077368
	39.190000	0.034448
	39.195000	0.182441
	39.200000	0.073913
	39.205000	-0.077368
	39.210000	0.031160
	39.215000	0.182441
	39.220000	0.070624
	39.225000	-0.074080
	39.230000	0.027871
	39.235000	0.182441
	39.240000	0.070624
	39.245000	-0.077368
	39.250000	0.027871
	39.255000	0.182441
	39.260000	0.070624
	39.265000	-0.077368
	39.270000	0.031160
	39.275000	0.179152
	39.280000	0.073913
	39.285000	-0.077368
	39.290000	0.027871
	39.295000	0.182441
	39.300000	0.077202
	39.305000	-0.080657
	39.310000	0.031160
	39.315000	0.182441
	39.320000	0.073913
	39.325000	-0.077368
	39.330000	0.027871
	39.335000	0.179152
	39.340000	0.073913
	39.345000	-0.074080
	39.350000	0.027871
	39.355000	0.182441
	39.360000	0.073913
	39.365000	-0.077368
	39.370000	0.024582
	39.375000	0.182441
	39.380000	0.077202
	39.385000	-0.077368
	39.390000	0.027871
	39.395000	0.179152
	39.400000	0.077202
	39.405000	-0.077368
	39.410000	0.027871
	39.415000	0.182441
	39.420000	0.077202
	39.425000	-0.080657
	39.430000	0.027871
	39.435000	0.182441
	39.440000	0.083779
	39.445000	-0.074080
	39.450000	0.024582
	39.455000	0.179152
	39.460000	0.077202
	39.465000	-0.077368
	39.470000	0.024582
	39.475000	0.182441
	39.480000	0.080490
	39.485000	-0.074080
	39.490000	0.027871
	39.495000	0.175863
	39.500000	0.080490
	39.505000	-0.077368
	39.510000	0.024582
	39.515000	0.182441
	39.520000	0.077202
	39.525000	-0.074080
	39.530000	0.024582
	39.535000	0.179152
	39.540000	0.083779
	39.545000	-0.077368
	39.550000	0.024582
	39.555000	0.182441
	39.560000	0.080490
	39.565000	-0.074080
	39.570000	0.024582
	39.575000	0.182441
	39.580000	0.077202
	39.585000	-0.077368
	39.590000	0.024582
	39.595000	0.179152
	39.600000	0.083779
	39.605000	-0.074080
	39.610000	0.021293
	39.615000	0.182441
	39.620000	0.080490
	39.625000	-0.077368
	39.630000	0.021293
	39.635000	0.175863
	39.640000	0.083779
	39.645000	-0.077368
	39.650000	0.021293
	39.655000	0.182441
	39.660000	0.087068
	39.665000	-0.077368
	39.670000	0.018005
	39.675000	0.175863
	39.680000	0.083779
	39.685000	-0.077368
	39.690000	0.021293
	39.695000	0.179152
	39.700000	0.083779
	39.705000	-0.077368
	39.710000	0.021293
	39.715000	0.179152
	39.720000	0.087068
	39.725000	-0.077368
	39.730000	0.018005
	39.735000	0.179152
	39.740000	0.080490
	39.745000	-0.074080
	39.750000	0.021293
	39.755000	0.182441
	39.760000	0.083779
	39.765000	-0.074080
	39.770000	0.018005
	39.775000	0.172575
	39.780000	0.087068
	39.785000	-0.074080
	39.790000	0.021293
	39.795000	0.182441
	39.800000	0.090357
	39.805000	-0.077368
	39.810000	0.021293
	39.815000	0.182441
	39.820000	0.090357
	39.825000	-0.077368
	39.830000	0.021293
	39.835000	0.175863
	39.840000	0.090357
	39.845000	-0.074080
	39.850000	0.018005
	39.855000	0.182441
	39.860000	0.087068
	39.865000	-0.070791
	39.870000	0.021293
	39.875000	0.182441
	39.880000	0.087068
	39.885000	-0.074080
	39.890000	0.018005
	39.895000	0.175863
	39.900000	0.090357
	39.905000	-0.074080
	39.910000	0.018005
	39.915000	0.179152
	39.920000	0.090357
	39.925000	-0.074080
	39.930000	0.014716
	39.935000	0.179152
	39.940000	0.090357
	39.945000	-0.070791
	39.950000	0.018005
	39.955000	0.175863
	39.960000	0.087068
	39.965000	-0.077368
	39.970000	0.014716
	39.975000	0.182441
	39.980000	0.090357
	39.985000	-0.074080
	39.990000	0.014716
	39.995000	0.175863
	40.000000	0.087068
	40.005000	-0.074080
	40.010000	0.011427
	40.015000	0.175863
	40.020000	0.090357
	40.025000	-0.067502
	40.030000	0.018005
	40.035000	0.182441
	40.040000	0.093645
	40.045000	-0.074080
	40.050000	0.011427
	40.055000	0.179152
	40.060000	0.096934
	40.065000	-0.070791
	40.070000	0.014716
	40.075000	0.175863
	40.080000	0.093645
	40.085000	-0.074080
	40.090000	0.014716
	40.095000	0.179152
	40.100000	0.100223
	40.105000	-0.070791
	40.110000	0.018005
	40.115000	0.175863
	40.120000	0.096934
	40.125000	-0.064213
	40.130000	0.014716
	40.135000	0.175863
	40.140000	0.093645
	40.145000	-0.074080
	40.150000	0.014716
	40.155000	0.179152
	40.160000	0.090357
	40.165000	-0.070791
	40.170000	0.011427
	40.175000	0.182441
	40.180000	0.093645
	40.185000	-0.067502
	40.190000	0.008138
	40.195000	0.175863
	40.200000	0.093645
	40.205000	-0.070791
	40.210000	0.011427
	40.215000	0.175863
	40.220000	0.096934
	40.225000	-0.067502
	40.230000	0.008138
	40.235000	0.182441
	40.240000	0.100223
	40.245000	-0.070791
	40.250000	0.004850
	40.255000	0.179152
	40.260000	0.100223
	40.265000	-0.064213
	40.270000	0.011427
	40.275000	0.179152
	40.280000	0.096934
	40.285000	-0.070791
	40.290000	0.011427
	40.295000	0.175863
	40.300000	0.100223
	40.305000	-0.064213
	40.310000	0.011427
	40.315000	0.182441
	40.320000	0.106800
	40.325000	-0.067502
	40.330000	0.008138
	40.335000	0.182441
	40.340000	0.106800
	40.345000	-0.067502
	40.350000	0.014716
	40.355000	0.182441
	40.360000	0.106800
	40.365000	-0.067502
	40.370000	0.011427
	40.375000	0.175863
	40.380000	0.103511
	40.385000	-0.064213
	40.390000	0.011427
	40.395000	0.182441
	40.400000	0.103511
	40.405000	-0.064213
	40.410000	0.008138
	40.415000	0.179152
	40.420000	0.103511
	40.425000	-0.064213
	40.430000	0.008138
	40.435000	0.179152
	40.440000	0.100223
	40.445000	-0.064213
	40.450000	0.008138
	40.455000	0.175863
	40.460000	0.103511
	40.465000	-0.064213
	40.470000	0.008138
	40.475000	0.182441
	40.480000	0.103511
	40.485000	-0.064213
	40.490000	0.004850
	40.495000	0.175863
	40.500000	0.106800
	40.505000	-0.057636
	40.510000	0.011427
	40.515000	0.179152
	40.520000	0.110089
	40.525000	-0.060925
	40.530000	0.004850
	40.535000	0.179152
	40.540000	0.106800
	40.545000	-0.067502
	40.550000	0.014716
	40.555000	0.179152
	40.560000	0.116666
	40.565000	-0.057636
	40.570000	0.011427
	40.575000	0.182441
	40.580000	0.110089
	40.585000	-0.060925
	40.590000	0.011427
	40.595000	0.179152
	40.600000	0.106800
	40.605000	-0.060925
	40.610000	0.011427
	40.615000	0.179152
	40.620000	0.110089
	40.625000	-0.060925
	40.630000	0.011427
	40.635000	0.179152
	40.640000	0.106800
	40.645000	-0.060925
	40.650000	0.011427
	40.655000	0.175863
	40.660000	0.113378
	40.665000	-0.054347
	40.670000	0.008138
	40.675000	0.179152
	40.680000	0.113378
	40.685000	-0.057636
	40.690000	0.004850
	40.695000	0.185730
	40.700000	0.116666
	40.705000	-0.057636
	40.710000	0.011427
	40.715000	0.182441
	40.720000	0.116666
	40.725000	-0.051059
	40.730000	0.011427
	40.735000	0.185730
	40.740000	0.119955
	40.745000	-0.054347
	40.750000	0.014716
	40.755000	0.182441
	40.760000	0.119955
	40.765000	-0.051059
	40.770000	0.011427
	40.775000	0.182441
	40.780000	0.119955
	40.785000	-0.047770
	40.790000	0.011427
	40.795000	0.185730
	40.800000	0.123244
	40.805000	-0.047770
	40.810000	0.011427
	40.815000	0.182441
	40.820000	0.126533
	40.825000	-0.051059
	40.830000	0.014716
	40.835000	0.185730
	40.840000	0.119955
	40.845000	-0.051059
	40.850000	0.011427
	40.855000	0.189018
	40.860000	0.126533
	40.865000	-0.047770
	40.870000	0.021293
	40.875000	0.185730
	40.880000	0.126533
	40.885000	-0.044481
	40.890000	0.011427
	40.895000	0.182441
	40.900000	0.129821
	40.905000	-0.047770
	40.910000	0.014716
	40.915000	0.185730
	40.920000	0.126533
	40.925000	-0.047770
	40.930000	0.014716
	40.935000	0.185730
	40.940000	0.129821
	40.945000	-0.041192
	40.950000	0.014716
	40.955000	0.182441
	40.960000	0.129821
	40.965000	-0.037904
	40.970000	0.011427
	40.975000	0.189018
	40.980000	0.133110
	40.985000	-0.037904
	40.990000	0.014716
	40.995000	0.182441
	41.000000	0.129821
	41.005000	-0.044481
	41.010000	0.008138
	41.015000	0.182441
	41.020000	0.126533
	41.025000	-0.047770
	41.030000	0.008138
	41.035000	0.185730
	41.040000	0.126533
	41.045000	-0.044481
	41.050000	0.008138
	41.055000	0.175863
	41.060000	0.123244
	41.065000	-0.047770
	41.070000	0.004850
	41.075000	0.175863
	41.080000	0.123244
	41.085000	-0.051059
	41.090000	0.004850
	41.095000	0.175863
	41.100000	0.133110
	41.105000	-0.044481
	41.110000	0.004850
	41.115000	0.179152
	41.120000	0.126533
	41.125000	-0.047770
	41.130000	0.001561
	41.135000	0.172575
	41.140000	0.113378
	41.145000	-0.054347
	41.150000	-0.005016
	41.155000	0.169286
	41.160000	0.113378
	41.165000	-0.064213
	41.170000	-0.011594
	41.175000	0.159420
	41.180000	0.106800
	41.185000	-0.070791
	41.190000	-0.021460
	41.195000	0.159420
	41.200000	0.103511
	41.205000	-0.070791
	41.210000	-0.028037
	41.215000	0.152842
	41.220000	0.100223
	41.225000	-0.080657
	41.230000	-0.028037
	41.235000	0.156131
	41.240000	0.106800
	41.245000	-0.074080
	41.250000	-0.018171
	41.255000	0.159420
	41.260000	0.106800
	41.265000	-0.070791
	41.270000	-0.018171
	41.275000	0.169286
	41.280000	0.113378
	41.285000	-0.074080
	41.290000	-0.021460
	41.295000	0.169286
	41.300000	0.106800
	41.305000	-0.074080
	41.310000	-0.024749
	41.315000	0.156131
	41.320000	0.106800
	41.325000	-0.087234
	41.330000	-0.037904
	41.335000	0.149554
	41.340000	0.100223
	41.345000	-0.093812
	41.350000	-0.044481
	41.355000	0.142976
	41.360000	0.093645
	41.365000	-0.093812
	41.370000	-0.044481
	41.375000	0.139687
	41.380000	0.093645
	41.385000	-0.097101
	41.390000	-0.047770
	41.395000	0.136399
	41.400000	0.090357
	41.405000	-0.093812
	41.410000	-0.054347
	41.415000	0.129821
	41.420000	0.090357
	41.425000	-0.100389
	41.430000	-0.051059
	41.435000	0.133110
	41.440000	0.087068
	41.445000	-0.093812
	41.450000	-0.051059
	41.455000	0.129821
	41.460000	0.090357
	41.465000	-0.093812
	41.470000	-0.051059
	41.475000	0.136399
	41.480000	0.096934
	41.485000	-0.080657
	41.490000	-0.031326
	41.495000	0.149554
	41.500000	0.119955
	41.505000	-0.064213
	41.510000	-0.011594
	41.515000	0.175863
	41.520000	0.136399
	41.525000	-0.041192
	41.530000	0.001561
	41.535000	0.189018
	41.540000	0.142976
	41.545000	-0.037904
	41.550000	0.004850
	41.555000	0.182441
	41.560000	0.139687
	41.565000	-0.037904
	41.570000	-0.008305
	41.575000	0.175863
	41.580000	0.133110
	41.585000	-0.051059
	41.590000	-0.018171
	41.595000	0.159420
	41.600000	0.119955
	41.605000	-0.051059
	41.610000	-0.021460
	41.615000	0.159420
	41.620000	0.116666
	41.625000	-0.060925
	41.630000	-0.021460
	41.635000	0.156131
	41.640000	0.123244
	41.645000	-0.054347
	41.650000	-0.011594
	41.655000	0.165997
	41.660000	0.133110
	41.665000	-0.047770
	41.670000	-0.011594
	41.675000	0.175863
	41.680000	0.136399
	41.685000	-0.044481
	41.690000	-0.005016
	41.695000	0.175863
	41.700000	0.139687
	41.705000	-0.047770
	41.710000	-0.011594
	41.715000	0.169286
	41.720000	0.133110
	41.725000	-0.044481
	41.730000	-0.018171
	41.735000	0.162708
	41.740000	0.136399
	41.745000	-0.051059
	41.750000	-0.014883
	41.755000	0.165997
	41.760000	0.129821
	41.765000	-0.047770
	41.770000	-0.011594
	41.775000	0.162708
	41.780000	0.136399
	41.785000	-0.041192
	41.790000	-0.005016
	41.795000	0.172575
	41.800000	0.149554
	41.805000	-0.034615
	41.810000	0.008138
	41.815000	0.182441
	41.820000	0.156131
	41.825000	-0.028037
	41.830000	0.004850
	41.835000	0.182441
	41.840000	0.149554
	41.845000	-0.031326
	41.850000	-0.001728
	41.855000	0.182441
	41.860000	0.149554
	41.865000	-0.031326
	41.870000	-0.008305
	41.875000	0.175863
	41.880000	0.142976
	41.885000	-0.037904
	41.890000	-0.014883
	41.895000	0.169286
	41.900000	0.136399
	41.905000	-0.047770
	41.910000	-0.021460
	41.915000	0.165997
	41.920000	0.136399
	41.925000	-0.047770
	41.930000	-0.021460
	41.935000	0.159420
	41.940000	0.129821
	41.945000	-0.054347
	41.950000	-0.021460
	41.955000	0.159420
	41.960000	0.133110
	41.965000	-0.054347
	41.970000	-0.024749
	41.975000	0.152842
	41.980000	0.129821
	41.985000	-0.054347
	41.990000	-0.021460
	41.995000	0.159420
	42.000000	0.126533
	42.005000	-0.051059
	42.010000	-0.024749
	42.015000	0.156131
	42.020000	0.129821
	42.025000	-0.051059
	42.030000	-0.021460
	42.035000	0.159420
	42.040000	0.133110
	42.045000	-0.047770
	42.050000	-0.021460
	42.055000	0.156131
	42.060000	0.133110
	42.065000	-0.051059
	42.070000	-0.021460
	42.075000	0.159420
	42.080000	0.129821
	42.085000	-0.047770
	42.090000	-0.028037
	42.095000	0.159420
	42.100000	0.129821
	42.105000	-0.047770
	42.110000	-0.024749
	42.115000	0.156131
	42.120000	0.133110
	42.125000	-0.047770
	42.130000	-0.021460
	42.135000	0.159420
	42.140000	0.136399
	42.145000	-0.041192
	42.150000	-0.021460
	42.155000	0.165997
	42.160000	0.136399
	42.165000	-0.044481
	42.170000	-0.024749
	42.175000	0.165997
	42.180000	0.142976
	42.185000	-0.041192
	42.190000	-0.021460
	42.195000	0.162708
	42.200000	0.136399
	42.205000	-0.044481
	42.210000	-0.021460
	42.215000	0.162708
	42.220000	0.136399
	42.225000	-0.051059
	42.230000	-0.021460
	42.235000	0.156131
	42.240000	0.136399
	42.245000	-0.047770
	42.250000	-0.031326
	42.255000	0.152842
	42.260000	0.136399
	42.265000	-0.054347
	42.270000	-0.034615
	42.275000	0.152842
	42.280000	0.133110
	42.285000	-0.054347
	42.290000	-0.034615
	42.295000	0.146265
	42.300000	0.126533
	42.305000	-0.057636
	42.310000	-0.037904
	42.315000	0.152842
	42.320000	0.129821
	42.325000	-0.060925
	42.330000	-0.034615
	42.335000	0.146265
	42.340000	0.129821
	42.345000	-0.051059
	42.350000	-0.034615
	42.355000	0.149554
	42.360000	0.133110
	42.365000	-0.051059
	42.370000	-0.028037
	42.375000	0.152842
	42.380000	0.136399
	42.385000	-0.054347
	42.390000	-0.031326
	42.395000	0.156131
	42.400000	0.133110
	42.405000	-0.051059
	42.410000	-0.034615
	42.415000	0.152842
	42.420000	0.136399
	42.425000	-0.054347
	42.430000	-0.031326
	42.435000	0.146265
	42.440000	0.133110
	42.445000	-0.044481
	42.450000	-0.031326
	42.455000	0.152842
	42.460000	0.133110
	42.465000	-0.051059
	42.470000	-0.037904
	42.475000	0.149554
	42.480000	0.133110
	42.485000	-0.051059
	42.490000	-0.034615
	42.495000	0.156131
	42.500000	0.133110
	42.505000	-0.051059
	42.510000	-0.034615
	42.515000	0.149554
	42.520000	0.142976
	42.525000	-0.047770
	42.530000	-0.034615
	42.535000	0.149554
	42.540000	0.139687
	42.545000	-0.047770
	42.550000	-0.034615
	42.555000	0.146265
	42.560000	0.139687
	42.565000	-0.051059
	42.570000	-0.037904
	42.575000	0.149554
	42.580000	0.142976
	42.585000	-0.047770
	42.590000	-0.037904
	42.595000	0.142976
	42.600000	0.133110
	42.605000	-0.054347
	42.610000	-0.041192
	42.615000	0.142976
	42.620000	0.133110
	42.625000	-0.051059
	42.630000	-0.041192
	42.635000	0.149554
	42.640000	0.133110
	42.645000	-0.051059
	42.650000	-0.041192
	42.655000	0.142976
	42.660000	0.139687
	42.665000	-0.047770
	42.670000	-0.037904
	42.675000	0.146265
	42.680000	0.139687
	42.685000	-0.047770
	42.690000	-0.037904
	42.695000	0.146265
	42.700000	0.136399
	42.705000	-0.047770
	42.710000	-0.041192
	42.715000	0.146265
	42.720000	0.136399
	42.725000	-0.047770
	42.730000	-0.037904
	42.735000	0.146265
	42.740000	0.133110
	42.745000	-0.051059
	42.750000	-0.041192
	42.755000	0.146265
	42.760000	0.129821
	42.765000	-0.051059
	42.770000	-0.044481
	42.775000	0.142976
	42.780000	0.139687
	42.785000	-0.047770
	42.790000	-0.041192
	42.795000	0.142976
	42.800000	0.139687
	42.805000	-0.047770
	42.810000	-0.041192
	42.815000	0.142976
	42.820000	0.133110
	42.825000	-0.044481
	42.830000	-0.041192
	42.835000	0.142976
	42.840000	0.142976
	42.845000	-0.044481
	42.850000	-0.041192
	42.855000	0.142976
	42.860000	0.136399
	42.865000	-0.047770
	42.870000	-0.047770
	42.875000	0.142976
	42.880000	0.136399
	42.885000	-0.047770
	42.890000	-0.047770
	42.895000	0.139687
	42.900000	0.136399
	42.905000	-0.047770
	42.910000	-0.041192
	42.915000	0.139687
	42.920000	0.142976
	42.925000	-0.047770
	42.930000	-0.041192
	42.935000	0.139687
	42.940000	0.139687
	42.945000	-0.044481
	42.950000	-0.041192
	42.955000	0.142976
	42.960000	0.136399
	42.965000	-0.044481
	42.970000	-0.041192
	42.975000	0.142976
	42.980000	0.139687
	42.985000	-0.047770
	42.990000	-0.041192
	42.995000	0.142976
	43.000000	0.142976
	43.005000	-0.041192
	43.010000	-0.047770
	43.015000	0.142976
	43.020000	0.142976
	43.025000	-0.037904
	43.030000	-0.044481
	43.035000	0.142976
	43.040000	0.136399
	43.045000	-0.044481
	43.050000	-0.044481
	43.055000	0.139687
	43.060000	0.142976
	43.065000	-0.041192
	43.070000	-0.044481
	43.075000	0.142976
	43.080000	0.142976
	43.085000	-0.041192
	43.090000	-0.047770
	43.095000	0.142976
	43.100000	0.139687
	43.105000	-0.047770
	43.110000	-0.047770
	43.115000	0.142976
	43.120000	0.142976
	43.125000	-0.047770
	43.130000	-0.041192
	43.135000	0.139687
	43.140000	0.139687
	43.145000	-0.041192
	43.150000	-0.047770
	43.155000	0.136399
	43.160000	0.149554
	43.165000	-0.041192
	43.170000	-0.044481
	43.175000	0.139687
	43.180000	0.142976
	43.185000	-0.041192
	43.190000	-0.044481
	43.195000	0.136399
	43.200000	0.146265
	43.205000	-0.041192
	43.210000	-0.047770
	43.215000	0.139687
	43.220000	0.142976
	43.225000	-0.044481
	43.230000	-0.041192
	43.235000	0.142976
	43.240000	0.146265
	43.245000	-0.041192
	43.250000	-0.047770
	43.255000	0.142976
	43.260000	0.146265
	43.265000	-0.041192
	43.270000	-0.044481
	43.275000	0.142976
	43.280000	0.146265
	43.285000	-0.037904
	43.290000	-0.044481
	43.295000	0.136399
	43.300000	0.146265
	43.305000	-0.037904
	43.310000	-0.044481
	43.315000	0.142976
	43.320000	0.146265
	43.325000	-0.037904
	43.330000	-0.044481
	43.335000	0.139687
	43.340000	0.149554
	43.345000	-0.041192
	43.350000	-0.047770
	43.355000	0.139687
	43.360000	0.146265
	43.365000	-0.041192
	43.370000	-0.044481
	43.375000	0.139687
	43.380000	0.152842
	43.385000	-0.041192
	43.390000	-0.047770
	43.395000	0.136399
	43.400000	0.146265
	43.405000	-0.037904
	43.410000	-0.044481
	43.415000	0.139687
	43.420000	0.146265
	43.425000	-0.037904
	43.430000	-0.044481
	43.435000	0.139687
	43.440000	0.149554
	43.445000	-0.034615
	43.450000	-0.041192
	43.455000	0.136399
	43.460000	0.149554
	43.465000	-0.037904
	43.470000	-0.044481
	43.475000	0.136399
	43.480000	0.152842
	43.485000	-0.034615
	43.490000	-0.051059
	43.495000	0.136399
	43.500000	0.152842
	43.505000	-0.034615
	43.510000	-0.044481
	43.515000	0.133110
	43.520000	0.149554
	43.525000	-0.034615
	43.530000	-0.051059
	43.535000	0.139687
	43.540000	0.146265
	43.545000	-0.031326
	43.550000	-0.047770
	43.555000	0.139687
	43.560000	0.149554
	43.565000	-0.034615
	43.570000	-0.044481
	43.575000	0.142976
	43.580000	0.146265
	43.585000	-0.034615
	43.590000	-0.047770
	43.595000	0.136399
	43.600000	0.149554
	43.605000	-0.034615
	43.610000	-0.051059
	43.615000	0.136399
	43.620000	0.152842
	43.625000	-0.034615
	43.630000	-0.044481
	43.635000	0.133110
	43.640000	0.152842
	43.645000	-0.031326
	43.650000	-0.051059
	43.655000	0.133110
	43.660000	0.149554
	43.665000	-0.034615
	43.670000	-0.054347
	43.675000	0.139687
	43.680000	0.152842
	43.685000	-0.034615
	43.690000	-0.047770
	43.695000	0.136399
	43.700000	0.146265
	43.705000	-0.031326
	43.710000	-0.051059
	43.715000	0.142976
	43.720000	0.152842
	43.725000	-0.031326
	43.730000	-0.047770
	43.735000	0.136399
	43.740000	0.149554
	43.745000	-0.031326
	43.750000	-0.047770
	43.755000	0.136399
	43.760000	0.152842
	43.765000	-0.028037
	43.770000	-0.047770
	43.775000	0.136399
	43.780000	0.156131
	43.785000	-0.031326
	43.790000	-0.047770
	43.795000	0.133110
	43.800000	0.156131
	43.805000	-0.034615
	43.810000	-0.051059
	43.815000	0.133110
	43.820000	0.156131
	43.825000	-0.028037
	43.830000	-0.051059
	43.835000	0.133110
	43.840000	0.156131
	43.845000	-0.028037
	43.850000	-0.051059
	43.855000	0.133110
	43.860000	0.149554
	43.865000	-0.031326
	43.870000	-0.054347
	43.875000	0.129821
	43.880000	0.149554
	43.885000	-0.028037
	43.890000	-0.047770
	43.895000	0.133110
	43.900000	0.152842
	43.905000	-0.028037
	43.910000	-0.051059
	43.915000	0.133110
	43.920000	0.156131
	43.925000	-0.028037
	43.930000	-0.054347
	43.935000	0.129821
	43.940000	0.152842
	43.945000	-0.028037
	43.950000	-0.051059
	43.955000	0.133110
	43.960000	0.156131
	43.965000	-0.031326
	43.970000	-0.051059
	43.975000	0.133110
	43.980000	0.152842
	43.985000	-0.028037
	43.990000	-0.054347
	43.995000	0.129821
	44.000000	0.152842
	44.005000	-0.031326
	44.010000	-0.054347
	44.015000	0.126533
	44.020000	0.156131
	44.025000	-0.028037
	44.030000	-0.054347
	44.035000	0.133110
	44.040000	0.156131
	44.045000	-0.028037
	44.050000	-0.057636
	44.055000	0.126533
	44.060000	0.152842
	44.065000	-0.031326
	44.070000	-0.054347
	44.075000	0.129821
	44.080000	0.159420
	44.085000	-0.028037
	44.090000	-0.054347
	44.095000	0.129821
	44.100000	0.152842
	44.105000	-0.028037
	44.110000	-0.057636
	44.115000	0.126533
	44.120000	0.156131
	44.125000	-0.028037
	44.130000	-0.051059
	44.135000	0.129821
	44.140000	0.156131
	44.145000	-0.028037
	44.150000	-0.057636
	44.155000	0.126533
	44.160000	0.156131
	44.165000	-0.028037
	44.170000	-0.057636
	44.175000	0.126533
	44.180000	0.159420
	44.185000	-0.028037
	44.190000	-0.054347
	44.195000	0.129821
	44.200000	0.159420
	44.205000	-0.024749
	44.210000	-0.054347
	44.215000	0.133110
	44.220000	0.159420
	44.225000	-0.021460
	44.230000	-0.054347
	44.235000	0.129821
	44.240000	0.156131
	44.245000	-0.024749
	44.250000	-0.054347
	44.255000	0.123244
	44.260000	0.156131
	44.265000	-0.024749
	44.270000	-0.054347
	44.275000	0.126533
	44.280000	0.156131
	44.285000	-0.024749
	44.290000	-0.054347
	44.295000	0.129821
	44.300000	0.156131
	44.305000	-0.021460
	44.310000	-0.054347
	44.315000	0.129821
	44.320000	0.159420
	44.325000	-0.028037
	44.330000	-0.057636
	44.335000	0.123244
	44.340000	0.159420
	44.345000	-0.024749
	44.350000	-0.054347
	44.355000	0.129821
	44.360000	0.162708
	44.365000	-0.021460
	44.370000	-0.057636
	44.375000	0.123244
	44.380000	0.159420
	44.385000	-0.021460
	44.390000	-0.054347
	44.395000	0.126533
	44.400000	0.162708
	44.405000	-0.028037
	44.410000	-0.057636
	44.415000	0.119955
	44.420000	0.162708
	44.425000	-0.021460
	44.430000	-0.060925
	44.435000	0.126533
	44.440000	0.159420
	44.445000	-0.021460
	44.450000	-0.054347
	44.455000	0.123244
	44.460000	0.159420
	44.465000	-0.024749
	44.470000	-0.057636
	44.475000	0.126533
	44.480000	0.159420
	44.485000	-0.021460
	44.490000	-0.060925
	44.495000	0.126533
	44.500000	0.159420
	44.505000	-0.018171
	44.510000	-0.057636
	44.515000	0.126533
	44.520000	0.159420
	44.525000	-0.018171
	44.530000	-0.051059
	44.535000	0.123244
	44.540000	0.162708
	44.545000	-0.021460
	44.550000	-0.057636
	44.555000	0.123244
	44.560000	0.162708
	44.565000	-0.018171
	44.570000	-0.057636
	44.575000	0.123244
	44.580000	0.159420
	44.585000	-0.014883
	44.590000	-0.057636
	44.595000	0.126533
	44.600000	0.159420
	44.605000	-0.021460
	44.610000	-0.057636
	44.615000	0.126533
	44.620000	0.162708
	44.625000	-0.018171
	44.630000	-0.060925
	44.635000	0.119955
	44.640000	0.156131
	44.645000	-0.021460
	44.650000	-0.060925
	44.655000	0.126533
	44.660000	0.165997
	44.665000	-0.018171
	44.670000	-0.057636
	44.675000	0.119955
	44.680000	0.169286
	44.685000	-0.018171
	44.690000	-0.057636
	44.695000	0.126533
	44.700000	0.165997
	44.705000	-0.014883
	44.710000	-0.057636
	44.715000	0.126533
	44.720000	0.159420
	44.725000	-0.014883
	44.730000	-0.057636
	44.735000	0.123244
	44.740000	0.165997
	44.745000	-0.014883
	44.750000	-0.054347
	44.755000	0.119955
	44.760000	0.165997
	44.765000	-0.018171
	44.770000	-0.054347
	44.775000	0.123244
	44.780000	0.162708
	44.785000	-0.018171
	44.790000	-0.054347
	44.795000	0.119955
	44.800000	0.169286
	44.805000	-0.014883
	44.810000	-0.057636
	44.815000	0.126533
	44.820000	0.159420
	44.825000	-0.014883
	44.830000	-0.054347
	44.835000	0.123244
	44.840000	0.165997
	44.845000	-0.018171
	44.850000	-0.054347
	44.855000	0.123244
	44.860000	0.165997
	44.865000	-0.014883
	44.870000	-0.054347
	44.875000	0.123244
	44.880000	0.162708
	44.885000	-0.011594
	44.890000	-0.057636
	44.895000	0.123244
	44.900000	0.165997
	44.905000	-0.014883
	44.910000	-0.054347
	44.915000	0.123244
	44.920000	0.162708
	44.925000	-0.014883
	44.930000	-0.060925
	44.935000	0.119955
	44.940000	0.162708
	44.945000	-0.011594
	44.950000	-0.057636
	44.955000	0.116666
	44.960000	0.169286
	44.965000	-0.014883
	44.970000	-0.057636
	44.975000	0.116666
	44.980000	0.165997
	44.985000	-0.011594
	44.990000	-0.064213
	44.995000	0.116666
	45.000000	0.165997
	45.005000	-0.011594
	45.010000	-0.057636
	45.015000	0.119955
	45.020000	0.165997
	45.025000	-0.011594
	45.030000	-0.057636
	45.035000	0.116666
	45.040000	0.165997
	45.045000	-0.014883
	45.050000	-0.057636
	45.055000	0.116666
	45.060000	0.169286
	45.065000	-0.011594
	45.070000	-0.060925
	45.075000	0.119955
	45.080000	0.165997
	45.085000	-0.011594
	45.090000	-0.060925
	45.095000	0.116666
	45.100000	0.165997
	45.105000	-0.008305
	45.110000	-0.064213
	45.115000	0.119955
	45.120000	0.165997
	45.125000	-0.011594
	45.130000	-0.060925
	45.135000	0.119955
	45.140000	0.165997
	45.145000	-0.008305
	45.150000	-0.057636
	45.155000	0.116666
	45.160000	0.169286
	45.165000	-0.008305
	45.170000	-0.060925
	45.175000	0.119955
	45.180000	0.172575
	45.185000	-0.005016
	45.190000	-0.060925
	45.195000	0.116666
	45.200000	0.165997
	45.205000	-0.008305
	45.210000	-0.064213
	45.215000	0.116666
	45.220000	0.172575
	45.225000	-0.008305
