2024/7/23 	 16:01:00 
 This file comes from Vt only measurement 	 1.000000E-1 
 Voltage Sensitivity 	 0.000000E+0 
 Sampling rate 	 200 
 Number of samples per channel 	 -1 
 No filter from Labview 	 	 	 
 	 
 ***End_of_Header*** 
 	 Time 	  Voltage 	 Filtered Voltage 	 
	0.000000	0.248215
	0.005000	0.139687
	0.010000	-0.018171
	0.015000	0.096934
	0.020000	0.244927
	0.025000	0.136399
	0.030000	-0.021460
	0.035000	0.090357
	0.040000	0.251504
	0.045000	0.136399
	0.050000	-0.014883
	0.055000	0.093645
	0.060000	0.251504
	0.065000	0.136399
	0.070000	-0.021460
	0.075000	0.093645
	0.080000	0.251504
	0.085000	0.136399
	0.090000	-0.018171
	0.095000	0.093645
	0.100000	0.251504
	0.105000	0.142976
	0.110000	-0.014883
	0.115000	0.093645
	0.120000	0.251504
	0.125000	0.136399
	0.130000	-0.018171
	0.135000	0.096934
	0.140000	0.248215
	0.145000	0.136399
	0.150000	-0.018171
	0.155000	0.093645
	0.160000	0.251504
	0.165000	0.139687
	0.170000	-0.014883
	0.175000	0.090357
	0.180000	0.248215
	0.185000	0.133110
	0.190000	-0.021460
	0.195000	0.100223
	0.200000	0.254793
	0.205000	0.136399
	0.210000	-0.018171
	0.215000	0.093645
	0.220000	0.248215
	0.225000	0.136399
	0.230000	-0.018171
	0.235000	0.093645
	0.240000	0.251504
	0.245000	0.142976
	0.250000	-0.021460
	0.255000	0.093645
	0.260000	0.244927
	0.265000	0.139687
	0.270000	-0.018171
	0.275000	0.090357
	0.280000	0.238349
	0.285000	0.139687
	0.290000	-0.024749
	0.295000	0.093645
	0.300000	0.248215
	0.305000	0.139687
	0.310000	-0.018171
	0.315000	0.090357
	0.320000	0.248215
	0.325000	0.136399
	0.330000	-0.018171
	0.335000	0.093645
	0.340000	0.248215
	0.345000	0.142976
	0.350000	-0.018171
	0.355000	0.090357
	0.360000	0.251504
	0.365000	0.139687
	0.370000	-0.018171
	0.375000	0.090357
	0.380000	0.248215
	0.385000	0.139687
	0.390000	-0.021460
	0.395000	0.087068
	0.400000	0.248215
	0.405000	0.136399
	0.410000	-0.021460
	0.415000	0.087068
	0.420000	0.248215
	0.425000	0.146265
	0.430000	-0.014883
	0.435000	0.087068
	0.440000	0.248215
	0.445000	0.142976
	0.450000	-0.014883
	0.455000	0.093645
	0.460000	0.251504
	0.465000	0.149554
	0.470000	-0.011594
	0.475000	0.096934
	0.480000	0.248215
	0.485000	0.146265
	0.490000	-0.018171
	0.495000	0.087068
	0.500000	0.248215
	0.505000	0.142976
	0.510000	-0.021460
	0.515000	0.093645
	0.520000	0.248215
	0.525000	0.142976
	0.530000	-0.014883
	0.535000	0.090357
	0.540000	0.244927
	0.545000	0.142976
	0.550000	-0.018171
	0.555000	0.090357
	0.560000	0.244927
	0.565000	0.142976
	0.570000	-0.021460
	0.575000	0.090357
	0.580000	0.251504
	0.585000	0.142976
	0.590000	-0.014883
	0.595000	0.087068
	0.600000	0.248215
	0.605000	0.142976
	0.610000	-0.018171
	0.615000	0.083779
	0.620000	0.248215
	0.625000	0.139687
	0.630000	-0.018171
	0.635000	0.087068
	0.640000	0.248215
	0.645000	0.142976
	0.650000	-0.018171
	0.655000	0.087068
	0.660000	0.248215
	0.665000	0.142976
	0.670000	-0.014883
	0.675000	0.087068
	0.680000	0.244927
	0.685000	0.142976
	0.690000	-0.014883
	0.695000	0.083779
	0.700000	0.251504
	0.705000	0.139687
	0.710000	-0.014883
	0.715000	0.087068
	0.720000	0.251504
	0.725000	0.146265
	0.730000	-0.024749
	0.735000	0.083779
	0.740000	0.248215
	0.745000	0.146265
	0.750000	-0.018171
	0.755000	0.083779
	0.760000	0.244927
	0.765000	0.146265
	0.770000	-0.014883
	0.775000	0.083779
	0.780000	0.244927
	0.785000	0.142976
	0.790000	-0.014883
	0.795000	0.083779
	0.800000	0.241638
	0.805000	0.146265
	0.810000	-0.018171
	0.815000	0.087068
	0.820000	0.248215
	0.825000	0.146265
	0.830000	-0.014883
	0.835000	0.083779
	0.840000	0.248215
	0.845000	0.146265
	0.850000	-0.018171
	0.855000	0.080490
	0.860000	0.244927
	0.865000	0.149554
	0.870000	-0.018171
	0.875000	0.083779
	0.880000	0.244927
	0.885000	0.146265
	0.890000	-0.014883
	0.895000	0.080490
	0.900000	0.248215
	0.905000	0.142976
	0.910000	-0.018171
	0.915000	0.080490
	0.920000	0.244927
	0.925000	0.149554
	0.930000	-0.018171
	0.935000	0.083779
	0.940000	0.248215
	0.945000	0.149554
	0.950000	-0.021460
	0.955000	0.083779
	0.960000	0.251504
	0.965000	0.146265
	0.970000	-0.014883
	0.975000	0.083779
	0.980000	0.248215
	0.985000	0.146265
	0.990000	-0.018171
	0.995000	0.080490
	1.000000	0.244927
	1.005000	0.142976
	1.010000	-0.018171
	1.015000	0.077202
	1.020000	0.238349
	1.025000	0.142976
	1.030000	-0.018171
	1.035000	0.077202
	1.040000	0.244927
	1.045000	0.142976
	1.050000	-0.021460
	1.055000	0.077202
	1.060000	0.241638
	1.065000	0.149554
	1.070000	-0.024749
	1.075000	0.080490
	1.080000	0.238349
	1.085000	0.142976
	1.090000	-0.018171
	1.095000	0.077202
	1.100000	0.244927
	1.105000	0.146265
	1.110000	-0.021460
	1.115000	0.077202
	1.120000	0.238349
	1.125000	0.142976
	1.130000	-0.014883
	1.135000	0.077202
	1.140000	0.244927
	1.145000	0.146265
	1.150000	-0.014883
	1.155000	0.083779
	1.160000	0.241638
	1.165000	0.152842
	1.170000	-0.014883
	1.175000	0.083779
	1.180000	0.241638
	1.185000	0.152842
	1.190000	-0.008305
	1.195000	0.083779
	1.200000	0.244927
	1.205000	0.149554
	1.210000	-0.018171
	1.215000	0.087068
	1.220000	0.248215
	1.225000	0.149554
	1.230000	-0.014883
	1.235000	0.077202
	1.240000	0.244927
	1.245000	0.152842
	1.250000	-0.018171
	1.255000	0.077202
	1.260000	0.248215
	1.265000	0.156131
	1.270000	-0.018171
	1.275000	0.080490
	1.280000	0.248215
	1.285000	0.152842
	1.290000	-0.011594
	1.295000	0.080490
	1.300000	0.241638
	1.305000	0.149554
	1.310000	-0.011594
	1.315000	0.080490
	1.320000	0.251504
	1.325000	0.152842
	1.330000	-0.018171
	1.335000	0.080490
	1.340000	0.241638
	1.345000	0.152842
	1.350000	-0.021460
	1.355000	0.070624
	1.360000	0.241638
	1.365000	0.149554
	1.370000	-0.018171
	1.375000	0.077202
	1.380000	0.244927
	1.385000	0.146265
	1.390000	-0.018171
	1.395000	0.077202
	1.400000	0.248215
	1.405000	0.146265
	1.410000	-0.014883
	1.415000	0.073913
	1.420000	0.241638
	1.425000	0.156131
	1.430000	-0.014883
	1.435000	0.077202
	1.440000	0.241638
	1.445000	0.152842
	1.450000	-0.014883
	1.455000	0.077202
	1.460000	0.248215
	1.465000	0.156131
	1.470000	-0.014883
	1.475000	0.073913
	1.480000	0.248215
	1.485000	0.156131
	1.490000	-0.011594
	1.495000	0.077202
	1.500000	0.244927
	1.505000	0.156131
	1.510000	-0.011594
	1.515000	0.080490
	1.520000	0.251504
	1.525000	0.156131
	1.530000	-0.008305
	1.535000	0.083779
	1.540000	0.248215
	1.545000	0.159420
	1.550000	-0.008305
	1.555000	0.083779
	1.560000	0.251504
	1.565000	0.159420
	1.570000	-0.011594
	1.575000	0.087068
	1.580000	0.258081
	1.585000	0.169286
	1.590000	-0.005016
	1.595000	0.093645
	1.600000	0.264659
	1.605000	0.172575
	1.610000	0.011427
	1.615000	0.090357
	1.620000	0.267948
	1.625000	0.175863
	1.630000	0.014716
	1.635000	0.103511
	1.640000	0.267948
	1.645000	0.182441
	1.650000	0.011427
	1.655000	0.106800
	1.660000	0.274525
	1.665000	0.185730
	1.670000	0.014716
	1.675000	0.106800
	1.680000	0.277814
	1.685000	0.189018
	1.690000	0.018005
	1.695000	0.110089
	1.700000	0.284391
	1.705000	0.192307
	1.710000	0.024582
	1.715000	0.116666
	1.720000	0.284391
	1.725000	0.195596
	1.730000	0.021293
	1.735000	0.113378
	1.740000	0.284391
	1.745000	0.202173
	1.750000	0.031160
	1.755000	0.119955
	1.760000	0.284391
	1.765000	0.202173
	1.770000	0.037737
	1.775000	0.116666
	1.780000	0.290969
	1.785000	0.202173
	1.790000	0.034448
	1.795000	0.123244
	1.800000	0.294257
	1.805000	0.202173
	1.810000	0.034448
	1.815000	0.116666
	1.820000	0.294257
	1.825000	0.198884
	1.830000	0.034448
	1.835000	0.119955
	1.840000	0.294257
	1.845000	0.208751
	1.850000	0.037737
	1.855000	0.126533
	1.860000	0.294257
	1.865000	0.212039
	1.870000	0.044314
	1.875000	0.129821
	1.880000	0.300835
	1.885000	0.218617
	1.890000	0.047603
	1.895000	0.133110
	1.900000	0.304124
	1.905000	0.221905
	1.910000	0.047603
	1.915000	0.133110
	1.920000	0.307412
	1.925000	0.225194
	1.930000	0.047603
	1.935000	0.136399
	1.940000	0.300835
	1.945000	0.218617
	1.950000	0.050892
	1.955000	0.129821
	1.960000	0.300835
	1.965000	0.215328
	1.970000	0.041026
	1.975000	0.129821
	1.980000	0.294257
	1.985000	0.215328
	1.990000	0.044314
	1.995000	0.123244
	2.000000	0.294257
	2.005000	0.208751
	2.010000	0.037737
	2.015000	0.113378
	2.020000	0.281102
	2.025000	0.195596
	2.030000	0.018005
	2.035000	0.100223
	2.040000	0.274525
	2.045000	0.185730
	2.050000	0.011427
	2.055000	0.087068
	2.060000	0.264659
	2.065000	0.175863
	2.070000	0.001561
	2.075000	0.083779
	2.080000	0.254793
	2.085000	0.172575
	2.090000	-0.005016
	2.095000	0.077202
	2.100000	0.248215
	2.105000	0.162708
	2.110000	-0.014883
	2.115000	0.067335
	2.120000	0.244927
	2.125000	0.162708
	2.130000	-0.011594
	2.135000	0.073913
	2.140000	0.248215
	2.145000	0.172575
	2.150000	-0.001728
	2.155000	0.083779
	2.160000	0.264659
	2.165000	0.189018
	2.170000	0.014716
	2.175000	0.100223
	2.180000	0.281102
	2.185000	0.205462
	2.190000	0.027871
	2.195000	0.113378
	2.200000	0.294257
	2.205000	0.212039
	2.210000	0.034448
	2.215000	0.123244
	2.220000	0.307412
	2.225000	0.235060
	2.230000	0.047603
	2.235000	0.129821
	2.240000	0.313990
	2.245000	0.235060
	2.250000	0.054181
	2.255000	0.136399
	2.260000	0.320567
	2.265000	0.235060
	2.270000	0.050892
	2.275000	0.133110
	2.280000	0.320567
	2.285000	0.235060
	2.290000	0.047603
	2.295000	0.136399
	2.300000	0.310701
	2.305000	0.231772
	2.310000	0.054181
	2.315000	0.126533
	2.320000	0.307412
	2.325000	0.221905
	2.330000	0.044314
	2.335000	0.123244
	2.340000	0.297546
	2.345000	0.218617
	2.350000	0.037737
	2.355000	0.123244
	2.360000	0.294257
	2.365000	0.221905
	2.370000	0.037737
	2.375000	0.119955
	2.380000	0.300835
	2.385000	0.225194
	2.390000	0.047603
	2.395000	0.126533
	2.400000	0.310701
	2.405000	0.225194
	2.410000	0.050892
	2.415000	0.129821
	2.420000	0.307412
	2.425000	0.228483
	2.430000	0.050892
	2.435000	0.129821
	2.440000	0.307412
	2.445000	0.228483
	2.450000	0.050892
	2.455000	0.126533
	2.460000	0.304124
	2.465000	0.231772
	2.470000	0.054181
	2.475000	0.129821
	2.480000	0.307412
	2.485000	0.228483
	2.490000	0.054181
	2.495000	0.136399
	2.500000	0.310701
	2.505000	0.238349
	2.510000	0.064047
	2.515000	0.139687
	2.520000	0.317278
	2.525000	0.241638
	2.530000	0.057469
	2.535000	0.139687
	2.540000	0.317278
	2.545000	0.235060
	2.550000	0.057469
	2.555000	0.133110
	2.560000	0.310701
	2.565000	0.235060
	2.570000	0.054181
	2.575000	0.133110
	2.580000	0.307412
	2.585000	0.228483
	2.590000	0.050892
	2.595000	0.126533
	2.600000	0.300835
	2.605000	0.225194
	2.610000	0.047603
	2.615000	0.119955
	2.620000	0.297546
	2.625000	0.225194
	2.630000	0.041026
	2.635000	0.119955
	2.640000	0.297546
	2.645000	0.221905
	2.650000	0.044314
	2.655000	0.113378
	2.660000	0.290969
	2.665000	0.212039
	2.670000	0.027871
	2.675000	0.106800
	2.680000	0.281102
	2.685000	0.212039
	2.690000	0.024582
	2.695000	0.106800
	2.700000	0.281102
	2.705000	0.205462
	2.710000	0.027871
	2.715000	0.096934
	2.720000	0.277814
	2.725000	0.195596
	2.730000	0.018005
	2.735000	0.096934
	2.740000	0.264659
	2.745000	0.189018
	2.750000	0.011427
	2.755000	0.083779
	2.760000	0.258081
	2.765000	0.185730
	2.770000	0.004850
	2.775000	0.077202
	2.780000	0.251504
	2.785000	0.179152
	2.790000	-0.001728
	2.795000	0.067335
	2.800000	0.244927
	2.805000	0.162708
	2.810000	-0.018171
	2.815000	0.060758
	2.820000	0.235060
	2.825000	0.159420
	2.830000	-0.018171
	2.835000	0.050892
	2.840000	0.235060
	2.845000	0.159420
	2.850000	-0.024749
	2.855000	0.047603
	2.860000	0.221905
	2.865000	0.149554
	2.870000	-0.028037
	2.875000	0.044314
	2.880000	0.225194
	2.885000	0.149554
	2.890000	-0.031326
	2.895000	0.041026
	2.900000	0.218617
	2.905000	0.142976
	2.910000	-0.041192
	2.915000	0.034448
	2.920000	0.208751
	2.925000	0.133110
	2.930000	-0.044481
	2.935000	0.027871
	2.940000	0.205462
	2.945000	0.129821
	2.950000	-0.051059
	2.955000	0.024582
	2.960000	0.202173
	2.965000	0.126533
	2.970000	-0.054347
	2.975000	0.021293
	2.980000	0.198884
	2.985000	0.123244
	2.990000	-0.051059
	2.995000	0.024582
	3.000000	0.198884
	3.005000	0.123244
	3.010000	-0.051059
	3.015000	0.027871
	3.020000	0.192307
	3.025000	0.123244
	3.030000	-0.057636
	3.035000	0.018005
	3.040000	0.198884
	3.045000	0.126533
	3.050000	-0.054347
	3.055000	0.021293
	3.060000	0.202173
	3.065000	0.119955
	3.070000	-0.051059
	3.075000	0.018005
	3.080000	0.192307
	3.085000	0.123244
	3.090000	-0.051059
	3.095000	0.018005
	3.100000	0.198884
	3.105000	0.129821
	3.110000	-0.051059
	3.115000	0.021293
	3.120000	0.202173
	3.125000	0.129821
	3.130000	-0.051059
	3.135000	0.021293
	3.140000	0.202173
	3.145000	0.129821
	3.150000	-0.054347
	3.155000	0.024582
	3.160000	0.205462
	3.165000	0.129821
	3.170000	-0.047770
	3.175000	0.018005
	3.180000	0.202173
	3.185000	0.129821
	3.190000	-0.051059
	3.195000	0.018005
	3.200000	0.205462
	3.205000	0.126533
	3.210000	-0.051059
	3.215000	0.024582
	3.220000	0.205462
	3.225000	0.133110
	3.230000	-0.044481
	3.235000	0.021293
	3.240000	0.205462
	3.245000	0.133110
	3.250000	-0.047770
	3.255000	0.024582
	3.260000	0.205462
	3.265000	0.136399
	3.270000	-0.044481
	3.275000	0.027871
	3.280000	0.212039
	3.285000	0.139687
	3.290000	-0.044481
	3.295000	0.027871
	3.300000	0.212039
	3.305000	0.133110
	3.310000	-0.041192
	3.315000	0.027871
	3.320000	0.205462
	3.325000	0.139687
	3.330000	-0.044481
	3.335000	0.027871
	3.340000	0.205462
	3.345000	0.136399
	3.350000	-0.037904
	3.355000	0.031160
	3.360000	0.212039
	3.365000	0.136399
	3.370000	-0.041192
	3.375000	0.027871
	3.380000	0.208751
	3.385000	0.136399
	3.390000	-0.037904
	3.395000	0.027871
	3.400000	0.208751
	3.405000	0.139687
	3.410000	-0.044481
	3.415000	0.024582
	3.420000	0.208751
	3.425000	0.142976
	3.430000	-0.041192
	3.435000	0.027871
	3.440000	0.208751
	3.445000	0.142976
	3.450000	-0.037904
	3.455000	0.034448
	3.460000	0.208751
	3.465000	0.146265
	3.470000	-0.041192
	3.475000	0.027871
	3.480000	0.208751
	3.485000	0.142976
	3.490000	-0.034615
	3.495000	0.027871
	3.500000	0.212039
	3.505000	0.142976
	3.510000	-0.037904
	3.515000	0.027871
	3.520000	0.212039
	3.525000	0.142976
	3.530000	-0.041192
	3.535000	0.027871
	3.540000	0.205462
	3.545000	0.139687
	3.550000	-0.037904
	3.555000	0.024582
	3.560000	0.208751
	3.565000	0.136399
	3.570000	-0.041192
	3.575000	0.027871
	3.580000	0.208751
	3.585000	0.139687
	3.590000	-0.037904
	3.595000	0.027871
	3.600000	0.208751
	3.605000	0.139687
	3.610000	-0.034615
	3.615000	0.031160
	3.620000	0.212039
	3.625000	0.142976
	3.630000	-0.034615
	3.635000	0.031160
	3.640000	0.208751
	3.645000	0.142976
	3.650000	-0.037904
	3.655000	0.027871
	3.660000	0.208751
	3.665000	0.146265
	3.670000	-0.037904
	3.675000	0.027871
	3.680000	0.215328
	3.685000	0.149554
	3.690000	-0.034615
	3.695000	0.027871
	3.700000	0.208751
	3.705000	0.142976
	3.710000	-0.034615
	3.715000	0.034448
	3.720000	0.215328
	3.725000	0.152842
	3.730000	-0.031326
	3.735000	0.034448
	3.740000	0.218617
	3.745000	0.146265
	3.750000	-0.031326
	3.755000	0.031160
	3.760000	0.215328
	3.765000	0.149554
	3.770000	-0.034615
	3.775000	0.031160
	3.780000	0.208751
	3.785000	0.146265
	3.790000	-0.031326
	3.795000	0.031160
	3.800000	0.212039
	3.805000	0.152842
	3.810000	-0.028037
	3.815000	0.037737
	3.820000	0.218617
	3.825000	0.152842
	3.830000	-0.028037
	3.835000	0.037737
	3.840000	0.218617
	3.845000	0.152842
	3.850000	-0.024749
	3.855000	0.041026
	3.860000	0.221905
	3.865000	0.152842
	3.870000	-0.024749
	3.875000	0.037737
	3.880000	0.218617
	3.885000	0.152842
	3.890000	-0.028037
	3.895000	0.037737
	3.900000	0.221905
	3.905000	0.149554
	3.910000	-0.028037
	3.915000	0.034448
	3.920000	0.218617
	3.925000	0.149554
	3.930000	-0.028037
	3.935000	0.037737
	3.940000	0.218617
	3.945000	0.149554
	3.950000	-0.028037
	3.955000	0.034448
	3.960000	0.221905
	3.965000	0.156131
	3.970000	-0.028037
	3.975000	0.037737
	3.980000	0.218617
	3.985000	0.159420
	3.990000	-0.021460
	3.995000	0.041026
	4.000000	0.221905
	4.005000	0.162708
	4.010000	-0.021460
	4.015000	0.041026
	4.020000	0.225194
	4.025000	0.165997
	4.030000	-0.018171
	4.035000	0.037737
	4.040000	0.225194
	4.045000	0.162708
	4.050000	-0.014883
	4.055000	0.044314
	4.060000	0.228483
	4.065000	0.169286
	4.070000	-0.011594
	4.075000	0.047603
	4.080000	0.231772
	4.085000	0.169286
	4.090000	-0.011594
	4.095000	0.054181
	4.100000	0.238349
	4.105000	0.172575
	4.110000	-0.008305
	4.115000	0.057469
	4.120000	0.238349
	4.125000	0.175863
	4.130000	-0.005016
	4.135000	0.054181
	4.140000	0.238349
	4.145000	0.172575
	4.150000	-0.001728
	4.155000	0.057469
	4.160000	0.238349
	4.165000	0.179152
	4.170000	-0.008305
	4.175000	0.054181
	4.180000	0.241638
	4.185000	0.182441
	4.190000	-0.005016
	4.195000	0.057469
	4.200000	0.241638
	4.205000	0.175863
	4.210000	-0.001728
	4.215000	0.060758
	4.220000	0.241638
	4.225000	0.182441
	4.230000	0.001561
	4.235000	0.060758
	4.240000	0.241638
	4.245000	0.189018
	4.250000	0.001561
	4.255000	0.060758
	4.260000	0.248215
	4.265000	0.185730
	4.270000	0.004850
	4.275000	0.060758
	4.280000	0.244927
	4.285000	0.185730
	4.290000	0.004850
	4.295000	0.060758
	4.300000	0.244927
	4.305000	0.189018
	4.310000	0.004850
	4.315000	0.070624
	4.320000	0.251504
	4.325000	0.189018
	4.330000	0.011427
	4.335000	0.070624
	4.340000	0.254793
	4.345000	0.195596
	4.350000	0.014716
	4.355000	0.073913
	4.360000	0.254793
	4.365000	0.195596
	4.370000	0.018005
	4.375000	0.070624
	4.380000	0.254793
	4.385000	0.198884
	4.390000	0.018005
	4.395000	0.073913
	4.400000	0.254793
	4.405000	0.202173
	4.410000	0.018005
	4.415000	0.070624
	4.420000	0.258081
	4.425000	0.205462
	4.430000	0.014716
	4.435000	0.077202
	4.440000	0.258081
	4.445000	0.208751
	4.450000	0.024582
	4.455000	0.077202
	4.460000	0.258081
	4.465000	0.208751
	4.470000	0.027871
	4.475000	0.080490
	4.480000	0.264659
	4.485000	0.208751
	4.490000	0.024582
	4.495000	0.083779
	4.500000	0.267948
	4.505000	0.212039
	4.510000	0.031160
	4.515000	0.083779
	4.520000	0.264659
	4.525000	0.205462
	4.530000	0.034448
	4.535000	0.087068
	4.540000	0.264659
	4.545000	0.212039
	4.550000	0.031160
	4.555000	0.083779
	4.560000	0.267948
	4.565000	0.212039
	4.570000	0.031160
	4.575000	0.080490
	4.580000	0.261370
	4.585000	0.205462
	4.590000	0.018005
	4.595000	0.077202
	4.600000	0.258081
	4.605000	0.198884
	4.610000	0.018005
	4.615000	0.070624
	4.620000	0.251504
	4.625000	0.192307
	4.630000	0.011427
	4.635000	0.060758
	4.640000	0.248215
	4.645000	0.189018
	4.650000	0.001561
	4.655000	0.054181
	4.660000	0.241638
	4.665000	0.189018
	4.670000	0.001561
	4.675000	0.050892
	4.680000	0.241638
	4.685000	0.185730
	4.690000	0.001561
	4.695000	0.050892
	4.700000	0.241638
	4.705000	0.182441
	4.710000	0.001561
	4.715000	0.050892
	4.720000	0.235060
	4.725000	0.185730
	4.730000	0.001561
	4.735000	0.047603
	4.740000	0.235060
	4.745000	0.179152
	4.750000	0.001561
	4.755000	0.047603
	4.760000	0.238349
	4.765000	0.185730
	4.770000	0.001561
	4.775000	0.054181
	4.780000	0.241638
	4.785000	0.189018
	4.790000	0.001561
	4.795000	0.054181
	4.800000	0.241638
	4.805000	0.189018
	4.810000	0.004850
	4.815000	0.054181
	4.820000	0.248215
	4.825000	0.195596
	4.830000	0.008138
	4.835000	0.067335
	4.840000	0.254793
	4.845000	0.202173
	4.850000	0.014716
	4.855000	0.067335
	4.860000	0.258081
	4.865000	0.208751
	4.870000	0.021293
	4.875000	0.070624
	4.880000	0.261370
	4.885000	0.208751
	4.890000	0.018005
	4.895000	0.070624
	4.900000	0.258081
	4.905000	0.208751
	4.910000	0.021293
	4.915000	0.070624
	4.920000	0.264659
	4.925000	0.208751
	4.930000	0.021293
	4.935000	0.067335
	4.940000	0.261370
	4.945000	0.208751
	4.950000	0.018005
	4.955000	0.067335
	4.960000	0.258081
	4.965000	0.205462
	4.970000	0.018005
	4.975000	0.067335
	4.980000	0.254793
	4.985000	0.205462
	4.990000	0.018005
	4.995000	0.067335
	5.000000	0.254793
	5.005000	0.205462
	5.010000	0.018005
	5.015000	0.070624
	5.020000	0.258081
	5.025000	0.205462
	5.030000	0.021293
	5.035000	0.070624
	5.040000	0.261370
	5.045000	0.208751
	5.050000	0.031160
	5.055000	0.080490
	5.060000	0.267948
	5.065000	0.225194
	5.070000	0.037737
	5.075000	0.090357
	5.080000	0.281102
	5.085000	0.225194
	5.090000	0.044314
	5.095000	0.093645
	5.100000	0.281102
	5.105000	0.231772
	5.110000	0.044314
	5.115000	0.096934
	5.120000	0.287680
	5.125000	0.235060
	5.130000	0.047603
	5.135000	0.096934
	5.140000	0.281102
	5.145000	0.231772
	5.150000	0.047603
	5.155000	0.093645
	5.160000	0.281102
	5.165000	0.231772
	5.170000	0.041026
	5.175000	0.093645
	5.180000	0.281102
	5.185000	0.231772
	5.190000	0.041026
	5.195000	0.090357
	5.200000	0.277814
	5.205000	0.228483
	5.210000	0.041026
	5.215000	0.093645
	5.220000	0.274525
	5.225000	0.225194
	5.230000	0.041026
	5.235000	0.090357
	5.240000	0.274525
	5.245000	0.228483
	5.250000	0.037737
	5.255000	0.083779
	5.260000	0.267948
	5.265000	0.221905
	5.270000	0.031160
	5.275000	0.077202
	5.280000	0.264659
	5.285000	0.215328
	5.290000	0.031160
	5.295000	0.073913
	5.300000	0.261370
	5.305000	0.208751
	5.310000	0.021293
	5.315000	0.070624
	5.320000	0.258081
	5.325000	0.208751
	5.330000	0.021293
	5.335000	0.070624
	5.340000	0.244927
	5.345000	0.205462
	5.350000	0.018005
	5.355000	0.064047
	5.360000	0.251504
	5.365000	0.195596
	5.370000	0.008138
	5.375000	0.057469
	5.380000	0.241638
	5.385000	0.189018
	5.390000	0.001561
	5.395000	0.054181
	5.400000	0.238349
	5.405000	0.185730
	5.410000	-0.001728
	5.415000	0.044314
	5.420000	0.228483
	5.425000	0.179152
	5.430000	-0.005016
	5.435000	0.041026
	5.440000	0.225194
	5.445000	0.179152
	5.450000	-0.005016
	5.455000	0.037737
	5.460000	0.221905
	5.465000	0.169286
	5.470000	-0.014883
	5.475000	0.034448
	5.480000	0.221905
	5.485000	0.169286
	5.490000	-0.021460
	5.495000	0.027871
	5.500000	0.215328
	5.505000	0.165997
	5.510000	-0.024749
	5.515000	0.024582
	5.520000	0.212039
	5.525000	0.162708
	5.530000	-0.021460
	5.535000	0.021293
	5.540000	0.208751
	5.545000	0.159420
	5.550000	-0.028037
	5.555000	0.018005
	5.560000	0.202173
	5.565000	0.159420
	5.570000	-0.028037
	5.575000	0.021293
	5.580000	0.205462
	5.585000	0.152842
	5.590000	-0.031326
	5.595000	0.014716
	5.600000	0.195596
	5.605000	0.152842
	5.610000	-0.034615
	5.615000	0.011427
	5.620000	0.192307
	5.625000	0.146265
	5.630000	-0.037904
	5.635000	0.004850
	5.640000	0.192307
	5.645000	0.146265
	5.650000	-0.044481
	5.655000	0.001561
	5.660000	0.189018
	5.665000	0.142976
	5.670000	-0.041192
	5.675000	-0.001728
	5.680000	0.189018
	5.685000	0.142976
	5.690000	-0.044481
	5.695000	0.001561
	5.700000	0.185730
	5.705000	0.142976
	5.710000	-0.041192
	5.715000	0.001561
	5.720000	0.189018
	5.725000	0.139687
	5.730000	-0.044481
	5.735000	0.004850
	5.740000	0.189018
	5.745000	0.136399
	5.750000	-0.047770
	5.755000	-0.001728
	5.760000	0.185730
	5.765000	0.136399
	5.770000	-0.051059
	5.775000	-0.001728
	5.780000	0.175863
	5.785000	0.133110
	5.790000	-0.051059
	5.795000	-0.005016
	5.800000	0.179152
	5.805000	0.133110
	5.810000	-0.054347
	5.815000	-0.008305
	5.820000	0.182441
	5.825000	0.136399
	5.830000	-0.051059
	5.835000	-0.005016
	5.840000	0.182441
	5.845000	0.133110
	5.850000	-0.051059
	5.855000	-0.005016
	5.860000	0.179152
	5.865000	0.133110
	5.870000	-0.054347
	5.875000	-0.008305
	5.880000	0.175863
	5.885000	0.133110
	5.890000	-0.047770
	5.895000	-0.008305
	5.900000	0.179152
	5.905000	0.133110
	5.910000	-0.054347
	5.915000	-0.008305
	5.920000	0.185730
	5.925000	0.133110
	5.930000	-0.054347
	5.935000	-0.008305
	5.940000	0.182441
	5.945000	0.133110
	5.950000	-0.054347
	5.955000	-0.008305
	5.960000	0.182441
	5.965000	0.136399
	5.970000	-0.054347
	5.975000	-0.008305
	5.980000	0.179152
	5.985000	0.136399
	5.990000	-0.047770
	5.995000	-0.008305
	6.000000	0.182441
	6.005000	0.136399
	6.010000	-0.051059
	6.015000	-0.005016
	6.020000	0.182441
	6.025000	0.133110
	6.030000	-0.054347
	6.035000	-0.008305
	6.040000	0.182441
	6.045000	0.139687
	6.050000	-0.047770
	6.055000	-0.005016
	6.060000	0.182441
	6.065000	0.136399
	6.070000	-0.051059
	6.075000	-0.008305
	6.080000	0.179152
	6.085000	0.133110
	6.090000	-0.047770
	6.095000	-0.005016
	6.100000	0.179152
	6.105000	0.133110
	6.110000	-0.054347
	6.115000	-0.008305
	6.120000	0.175863
	6.125000	0.133110
	6.130000	-0.051059
	6.135000	-0.008305
	6.140000	0.179152
	6.145000	0.136399
	6.150000	-0.051059
	6.155000	-0.008305
	6.160000	0.185730
	6.165000	0.136399
	6.170000	-0.047770
	6.175000	-0.005016
	6.180000	0.185730
	6.185000	0.139687
	6.190000	-0.047770
	6.195000	0.001561
	6.200000	0.185730
	6.205000	0.139687
	6.210000	-0.047770
	6.215000	-0.005016
	6.220000	0.185730
	6.225000	0.139687
	6.230000	-0.044481
	6.235000	0.001561
	6.240000	0.189018
	6.245000	0.142976
	6.250000	-0.047770
	6.255000	0.004850
	6.260000	0.189018
	6.265000	0.146265
	6.270000	-0.044481
	6.275000	0.004850
	6.280000	0.189018
	6.285000	0.152842
	6.290000	-0.041192
	6.295000	0.008138
	6.300000	0.195596
	6.305000	0.149554
	6.310000	-0.037904
	6.315000	0.008138
	6.320000	0.195596
	6.325000	0.159420
	6.330000	-0.034615
	6.335000	0.011427
	6.340000	0.202173
	6.345000	0.156131
	6.350000	-0.028037
	6.355000	0.014716
	6.360000	0.208751
	6.365000	0.165997
	6.370000	-0.024749
	6.375000	0.018005
	6.380000	0.208751
	6.385000	0.165997
	6.390000	-0.021460
	6.395000	0.018005
	6.400000	0.212039
	6.405000	0.169286
	6.410000	-0.014883
	6.415000	0.024582
	6.420000	0.212039
	6.425000	0.172575
	6.430000	-0.018171
	6.435000	0.027871
	6.440000	0.221905
	6.445000	0.169286
	6.450000	-0.011594
	6.455000	0.031160
	6.460000	0.215328
	6.465000	0.172575
	6.470000	-0.011594
	6.475000	0.027871
	6.480000	0.212039
	6.485000	0.169286
	6.490000	-0.028037
	6.495000	0.024582
	6.500000	0.212039
	6.505000	0.165997
	6.510000	-0.024749
	6.515000	0.018005
	6.520000	0.208751
	6.525000	0.165997
	6.530000	-0.024749
	6.535000	0.018005
	6.540000	0.202173
	6.545000	0.159420
	6.550000	-0.021460
	6.555000	0.018005
	6.560000	0.202173
	6.565000	0.159420
	6.570000	-0.024749
	6.575000	0.024582
	6.580000	0.205462
	6.585000	0.156131
	6.590000	-0.028037
	6.595000	0.014716
	6.600000	0.202173
	6.605000	0.152842
	6.610000	-0.034615
	6.615000	0.014716
	6.620000	0.202173
	6.625000	0.159420
	6.630000	-0.034615
	6.635000	0.011427
	6.640000	0.198884
	6.645000	0.156131
	6.650000	-0.034615
	6.655000	0.014716
	6.660000	0.205462
	6.665000	0.159420
	6.670000	-0.031326
	6.675000	0.011427
	6.680000	0.198884
	6.685000	0.156131
	6.690000	-0.037904
	6.695000	0.008138
	6.700000	0.202173
	6.705000	0.149554
	6.710000	-0.034615
	6.715000	0.004850
	6.720000	0.195596
	6.725000	0.149554
	6.730000	-0.044481
	6.735000	0.001561
	6.740000	0.195596
	6.745000	0.149554
	6.750000	-0.047770
	6.755000	0.001561
	6.760000	0.189018
	6.765000	0.142976
	6.770000	-0.041192
	6.775000	0.001561
	6.780000	0.192307
	6.785000	0.146265
	6.790000	-0.037904
	6.795000	0.004850
	6.800000	0.192307
	6.805000	0.149554
	6.810000	-0.041192
	6.815000	0.001561
	6.820000	0.195596
	6.825000	0.149554
	6.830000	-0.037904
	6.835000	0.004850
	6.840000	0.189018
	6.845000	0.149554
	6.850000	-0.041192
	6.855000	0.001561
	6.860000	0.192307
	6.865000	0.146265
	6.870000	-0.041192
	6.875000	0.001561
	6.880000	0.195596
	6.885000	0.146265
	6.890000	-0.037904
	6.895000	0.004850
	6.900000	0.198884
	6.905000	0.149554
	6.910000	-0.037904
	6.915000	0.011427
	6.920000	0.195596
	6.925000	0.152842
	6.930000	-0.037904
	6.935000	0.011427
	6.940000	0.192307
	6.945000	0.149554
	6.950000	-0.031326
	6.955000	0.008138
	6.960000	0.195596
	6.965000	0.149554
	6.970000	-0.041192
	6.975000	0.004850
	6.980000	0.195596
	6.985000	0.152842
	6.990000	-0.037904
	6.995000	0.004850
	7.000000	0.195596
	7.005000	0.146265
	7.010000	-0.041192
	7.015000	-0.001728
	7.020000	0.185730
	7.025000	0.149554
	7.030000	-0.041192
	7.035000	0.004850
	7.040000	0.189018
	7.045000	0.149554
	7.050000	-0.041192
	7.055000	0.004850
	7.060000	0.192307
	7.065000	0.152842
	7.070000	-0.041192
	7.075000	0.001561
	7.080000	0.195596
	7.085000	0.146265
	7.090000	-0.041192
	7.095000	0.004850
	7.100000	0.202173
	7.105000	0.149554
	7.110000	-0.041192
	7.115000	0.004850
	7.120000	0.195596
	7.125000	0.146265
	7.130000	-0.034615
	7.135000	0.004850
	7.140000	0.192307
	7.145000	0.146265
	7.150000	-0.031326
	7.155000	0.004850
	7.160000	0.195596
	7.165000	0.149554
	7.170000	-0.037904
	7.175000	0.008138
	7.180000	0.195596
	7.185000	0.152842
	7.190000	-0.037904
	7.195000	0.008138
	7.200000	0.195596
	7.205000	0.149554
	7.210000	-0.037904
	7.215000	0.001561
	7.220000	0.198884
	7.225000	0.152842
	7.230000	-0.037904
	7.235000	0.011427
	7.240000	0.195596
	7.245000	0.152842
	7.250000	-0.031326
	7.255000	0.004850
	7.260000	0.195596
	7.265000	0.149554
	7.270000	-0.037904
	7.275000	0.011427
	7.280000	0.198884
	7.285000	0.149554
	7.290000	-0.034615
	7.295000	0.008138
	7.300000	0.198884
	7.305000	0.152842
	7.310000	-0.034615
	7.315000	0.011427
	7.320000	0.198884
	7.325000	0.156131
	7.330000	-0.034615
	7.335000	0.004850
	7.340000	0.198884
	7.345000	0.152842
	7.350000	-0.034615
	7.355000	0.004850
	7.360000	0.195596
	7.365000	0.152842
	7.370000	-0.034615
	7.375000	0.008138
	7.380000	0.198884
	7.385000	0.152842
	7.390000	-0.034615
	7.395000	0.011427
	7.400000	0.195596
	7.405000	0.156131
	7.410000	-0.034615
	7.415000	0.011427
	7.420000	0.198884
	7.425000	0.152842
	7.430000	-0.037904
	7.435000	0.008138
	7.440000	0.195596
	7.445000	0.149554
	7.450000	-0.037904
	7.455000	0.001561
	7.460000	0.195596
	7.465000	0.156131
	7.470000	-0.034615
	7.475000	0.004850
	7.480000	0.195596
	7.485000	0.149554
	7.490000	-0.037904
	7.495000	0.008138
	7.500000	0.195596
	7.505000	0.152842
	7.510000	-0.041192
	7.515000	0.011427
	7.520000	0.195596
	7.525000	0.149554
	7.530000	-0.031326
	7.535000	0.004850
	7.540000	0.195596
	7.545000	0.149554
	7.550000	-0.031326
	7.555000	0.011427
	7.560000	0.198884
	7.565000	0.152842
	7.570000	-0.031326
	7.575000	0.008138
	7.580000	0.195596
	7.585000	0.159420
	7.590000	-0.034615
	7.595000	0.011427
	7.600000	0.198884
	7.605000	0.156131
	7.610000	-0.034615
	7.615000	0.004850
	7.620000	0.198884
	7.625000	0.156131
	7.630000	-0.031326
	7.635000	0.011427
	7.640000	0.192307
	7.645000	0.152842
	7.650000	-0.034615
	7.655000	0.004850
	7.660000	0.202173
	7.665000	0.159420
	7.670000	-0.034615
	7.675000	0.008138
	7.680000	0.195596
	7.685000	0.156131
	7.690000	-0.034615
	7.695000	0.008138
	7.700000	0.195596
	7.705000	0.152842
	7.710000	-0.041192
	7.715000	0.008138
	7.720000	0.195596
	7.725000	0.152842
	7.730000	-0.031326
	7.735000	0.004850
	7.740000	0.195596
	7.745000	0.152842
	7.750000	-0.037904
	7.755000	0.004850
	7.760000	0.202173
	7.765000	0.152842
	7.770000	-0.037904
	7.775000	0.011427
	7.780000	0.198884
	7.785000	0.152842
	7.790000	-0.034615
	7.795000	0.008138
	7.800000	0.198884
	7.805000	0.152842
	7.810000	-0.041192
	7.815000	0.011427
	7.820000	0.198884
	7.825000	0.149554
	7.830000	-0.034615
	7.835000	0.011427
	7.840000	0.198884
	7.845000	0.152842
	7.850000	-0.034615
	7.855000	0.008138
	7.860000	0.202173
	7.865000	0.152842
	7.870000	-0.037904
	7.875000	0.011427
	7.880000	0.195596
	7.885000	0.156131
	7.890000	-0.037904
	7.895000	0.008138
	7.900000	0.198884
	7.905000	0.156131
	7.910000	-0.031326
	7.915000	0.011427
	7.920000	0.208751
	7.925000	0.152842
	7.930000	-0.037904
	7.935000	0.014716
	7.940000	0.198884
	7.945000	0.159420
	7.950000	-0.031326
	7.955000	0.014716
	7.960000	0.198884
	7.965000	0.156131
	7.970000	-0.034615
	7.975000	0.014716
	7.980000	0.198884
	7.985000	0.159420
	7.990000	-0.028037
	7.995000	0.011427
	8.000000	0.202173
	8.005000	0.162708
	8.010000	-0.031326
	8.015000	0.014716
	8.020000	0.202173
	8.025000	0.162708
	8.030000	-0.028037
	8.035000	0.011427
	8.040000	0.198884
	8.045000	0.162708
	8.050000	-0.024749
	8.055000	0.018005
	8.060000	0.205462
	8.065000	0.162708
	8.070000	-0.024749
	8.075000	0.014716
	8.080000	0.202173
	8.085000	0.159420
	8.090000	-0.024749
	8.095000	0.018005
	8.100000	0.208751
	8.105000	0.162708
	8.110000	-0.028037
	8.115000	0.014716
	8.120000	0.205462
	8.125000	0.162708
	8.130000	-0.021460
	8.135000	0.021293
	8.140000	0.205462
	8.145000	0.165997
	8.150000	-0.021460
	8.155000	0.027871
	8.160000	0.215328
	8.165000	0.169286
	8.170000	-0.024749
	8.175000	0.024582
	8.180000	0.215328
	8.185000	0.172575
	8.190000	-0.014883
	8.195000	0.021293
	8.200000	0.215328
	8.205000	0.165997
	8.210000	-0.014883
	8.215000	0.024582
	8.220000	0.215328
	8.225000	0.169286
	8.230000	-0.008305
	8.235000	0.031160
	8.240000	0.215328
	8.245000	0.179152
	8.250000	-0.011594
	8.255000	0.041026
	8.260000	0.221905
	8.265000	0.179152
	8.270000	-0.001728
	8.275000	0.037737
	8.280000	0.225194
	8.285000	0.185730
	8.290000	-0.005016
	8.295000	0.037737
	8.300000	0.221905
	8.305000	0.179152
	8.310000	-0.001728
	8.315000	0.041026
	8.320000	0.228483
	8.325000	0.185730
	8.330000	-0.001728
	8.335000	0.037737
	8.340000	0.231772
	8.345000	0.189018
	8.350000	0.001561
	8.355000	0.050892
	8.360000	0.238349
	8.365000	0.198884
	8.370000	0.014716
	8.375000	0.064047
	8.380000	0.248215
	8.385000	0.212039
	8.390000	0.027871
	8.395000	0.073913
	8.400000	0.258081
	8.405000	0.218617
	8.410000	0.034448
	8.415000	0.073913
	8.420000	0.258081
	8.425000	0.215328
	8.430000	0.031160
	8.435000	0.067335
	8.440000	0.254793
	8.445000	0.212039
	8.450000	0.018005
	8.455000	0.060758
	8.460000	0.254793
	8.465000	0.205462
	8.470000	0.021293
	8.475000	0.060758
	8.480000	0.241638
	8.485000	0.198884
	8.490000	0.011427
	8.495000	0.050892
	8.500000	0.238349
	8.505000	0.195596
	8.510000	0.011427
	8.515000	0.050892
	8.520000	0.235060
	8.525000	0.185730
	8.530000	0.001561
	8.535000	0.047603
	8.540000	0.231772
	8.545000	0.192307
	8.550000	0.004850
	8.555000	0.044314
	8.560000	0.228483
	8.565000	0.192307
	8.570000	0.011427
	8.575000	0.047603
	8.580000	0.231772
	8.585000	0.185730
	8.590000	0.004850
	8.595000	0.037737
	8.600000	0.228483
	8.605000	0.182441
	8.610000	-0.008305
	8.615000	0.037737
	8.620000	0.221905
	8.625000	0.175863
	8.630000	-0.011594
	8.635000	0.024582
	8.640000	0.215328
	8.645000	0.172575
	8.650000	-0.014883
	8.655000	0.024582
	8.660000	0.208751
	8.665000	0.159420
	8.670000	-0.031326
	8.675000	0.014716
	8.680000	0.202173
	8.685000	0.162708
	8.690000	-0.024749
	8.695000	0.021293
	8.700000	0.212039
	8.705000	0.165997
	8.710000	-0.018171
	8.715000	0.024582
	8.720000	0.215328
	8.725000	0.169286
	8.730000	-0.014883
	8.735000	0.031160
	8.740000	0.225194
	8.745000	0.185730
	8.750000	-0.005016
	8.755000	0.041026
	8.760000	0.231772
	8.765000	0.198884
	8.770000	-0.001728
	8.775000	0.044314
	8.780000	0.235060
	8.785000	0.195596
	8.790000	0.004850
	8.795000	0.047603
	8.800000	0.241638
	8.805000	0.202173
	8.810000	0.011427
	8.815000	0.050892
	8.820000	0.241638
	8.825000	0.205462
	8.830000	0.011427
	8.835000	0.057469
	8.840000	0.248215
	8.845000	0.208751
	8.850000	0.011427
	8.855000	0.050892
	8.860000	0.248215
	8.865000	0.198884
	8.870000	0.004850
	8.875000	0.047603
	8.880000	0.241638
	8.885000	0.195596
	8.890000	0.004850
	8.895000	0.044314
	8.900000	0.238349
	8.905000	0.192307
	8.910000	0.004850
	8.915000	0.044314
	8.920000	0.235060
	8.925000	0.195596
	8.930000	0.004850
	8.935000	0.047603
	8.940000	0.238349
	8.945000	0.195596
	8.950000	0.008138
	8.955000	0.050892
	8.960000	0.241638
	8.965000	0.198884
	8.970000	0.011427
	8.975000	0.054181
	8.980000	0.244927
	8.985000	0.205462
	8.990000	0.014716
	8.995000	0.064047
	9.000000	0.248215
	9.005000	0.208751
	9.010000	0.018005
	9.015000	0.067335
	9.020000	0.254793
	9.025000	0.205462
	9.030000	0.021293
	9.035000	0.070624
	9.040000	0.251504
	9.045000	0.212039
	9.050000	0.024582
	9.055000	0.064047
	9.060000	0.248215
	9.065000	0.215328
	9.070000	0.027871
	9.075000	0.064047
	9.080000	0.251504
	9.085000	0.208751
	9.090000	0.021293
	9.095000	0.064047
	9.100000	0.251504
	9.105000	0.208751
	9.110000	0.018005
	9.115000	0.057469
	9.120000	0.244927
	9.125000	0.205462
	9.130000	0.011427
	9.135000	0.057469
	9.140000	0.244927
	9.145000	0.202173
	9.150000	0.008138
	9.155000	0.054181
	9.160000	0.235060
	9.165000	0.198884
	9.170000	0.004850
	9.175000	0.047603
	9.180000	0.238349
	9.185000	0.189018
	9.190000	0.004850
	9.195000	0.047603
	9.200000	0.231772
	9.205000	0.185730
	9.210000	0.001561
	9.215000	0.041026
	9.220000	0.221905
	9.225000	0.182441
	9.230000	-0.001728
	9.235000	0.037737
	9.240000	0.228483
	9.245000	0.175863
	9.250000	-0.011594
	9.255000	0.027871
	9.260000	0.215328
	9.265000	0.169286
	9.270000	-0.014883
	9.275000	0.024582
	9.280000	0.212039
	9.285000	0.162708
	9.290000	-0.021460
	9.295000	0.018005
	9.300000	0.208751
	9.305000	0.162708
	9.310000	-0.031326
	9.315000	0.014716
	9.320000	0.202173
	9.325000	0.152842
	9.330000	-0.034615
	9.335000	0.014716
	9.340000	0.195596
	9.345000	0.149554
	9.350000	-0.041192
	9.355000	0.008138
	9.360000	0.192307
	9.365000	0.146265
	9.370000	-0.041192
	9.375000	0.004850
	9.380000	0.192307
	9.385000	0.146265
	9.390000	-0.044481
	9.395000	0.001561
	9.400000	0.189018
	9.405000	0.142976
	9.410000	-0.047770
	9.415000	-0.005016
	9.420000	0.182441
	9.425000	0.136399
	9.430000	-0.051059
	9.435000	-0.008305
	9.440000	0.182441
	9.445000	0.129821
	9.450000	-0.057636
	9.455000	-0.011594
	9.460000	0.175863
	9.465000	0.126533
	9.470000	-0.057636
	9.475000	-0.014883
	9.480000	0.175863
	9.485000	0.126533
	9.490000	-0.064213
	9.495000	-0.018171
	9.500000	0.175863
	9.505000	0.123244
	9.510000	-0.064213
	9.515000	-0.021460
	9.520000	0.162708
	9.525000	0.123244
	9.530000	-0.064213
	9.535000	-0.021460
	9.540000	0.169286
	9.545000	0.123244
	9.550000	-0.067502
	9.555000	-0.018171
	9.560000	0.169286
	9.565000	0.119955
	9.570000	-0.070791
	9.575000	-0.018171
	9.580000	0.162708
	9.585000	0.119955
	9.590000	-0.064213
	9.595000	-0.018171
	9.600000	0.165997
	9.605000	0.119955
	9.610000	-0.064213
	9.615000	-0.021460
	9.620000	0.165997
	9.625000	0.116666
	9.630000	-0.067502
	9.635000	-0.024749
	9.640000	0.159420
	9.645000	0.123244
	9.650000	-0.067502
	9.655000	-0.021460
	9.660000	0.162708
	9.665000	0.123244
	9.670000	-0.074080
	9.675000	-0.021460
	9.680000	0.162708
	9.685000	0.116666
	9.690000	-0.067502
	9.695000	-0.024749
	9.700000	0.162708
	9.705000	0.116666
	9.710000	-0.074080
	9.715000	-0.024749
	9.720000	0.165997
	9.725000	0.113378
	9.730000	-0.070791
	9.735000	-0.024749
	9.740000	0.162708
	9.745000	0.123244
	9.750000	-0.070791
	9.755000	-0.021460
	9.760000	0.162708
	9.765000	0.116666
	9.770000	-0.067502
	9.775000	-0.024749
	9.780000	0.162708
	9.785000	0.119955
	9.790000	-0.070791
	9.795000	-0.021460
	9.800000	0.165997
	9.805000	0.116666
	9.810000	-0.064213
	9.815000	-0.021460
	9.820000	0.169286
	9.825000	0.116666
	9.830000	-0.067502
	9.835000	-0.018171
	9.840000	0.165997
	9.845000	0.116666
	9.850000	-0.070791
	9.855000	-0.021460
	9.860000	0.165997
	9.865000	0.119955
	9.870000	-0.067502
	9.875000	-0.021460
	9.880000	0.162708
	9.885000	0.113378
	9.890000	-0.067502
	9.895000	-0.018171
	9.900000	0.165997
	9.905000	0.119955
	9.910000	-0.067502
	9.915000	-0.028037
	9.920000	0.169286
	9.925000	0.123244
	9.930000	-0.067502
	9.935000	-0.018171
	9.940000	0.169286
	9.945000	0.116666
	9.950000	-0.067502
	9.955000	-0.018171
	9.960000	0.169286
	9.965000	0.123244
	9.970000	-0.070791
	9.975000	-0.024749
	9.980000	0.172575
	9.985000	0.123244
	9.990000	-0.067502
	9.995000	-0.021460
	10.000000	0.169286
	10.005000	0.123244
	10.010000	-0.064213
	10.015000	-0.021460
	10.020000	0.162708
	10.025000	0.123244
	10.030000	-0.064213
	10.035000	-0.018171
	10.040000	0.169286
	10.045000	0.123244
	10.050000	-0.067502
	10.055000	-0.021460
	10.060000	0.169286
	10.065000	0.116666
	10.070000	-0.064213
	10.075000	-0.024749
	10.080000	0.169286
	10.085000	0.119955
	10.090000	-0.064213
	10.095000	-0.014883
	10.100000	0.169286
	10.105000	0.123244
	10.110000	-0.067502
	10.115000	-0.018171
	10.120000	0.169286
	10.125000	0.119955
	10.130000	-0.064213
	10.135000	-0.021460
	10.140000	0.172575
	10.145000	0.123244
	10.150000	-0.064213
	10.155000	-0.018171
	10.160000	0.169286
	10.165000	0.119955
	10.170000	-0.067502
	10.175000	-0.018171
	10.180000	0.169286
	10.185000	0.123244
	10.190000	-0.067502
	10.195000	-0.018171
	10.200000	0.169286
	10.205000	0.123244
	10.210000	-0.064213
	10.215000	-0.014883
	10.220000	0.169286
	10.225000	0.119955
	10.230000	-0.067502
	10.235000	-0.014883
	10.240000	0.169286
	10.245000	0.123244
	10.250000	-0.060925
	10.255000	-0.014883
	10.260000	0.169286
	10.265000	0.123244
	10.270000	-0.064213
	10.275000	-0.018171
	10.280000	0.172575
	10.285000	0.119955
	10.290000	-0.067502
	10.295000	-0.021460
	10.300000	0.172575
	10.305000	0.126533
	10.310000	-0.067502
	10.315000	-0.018171
	10.320000	0.169286
	10.325000	0.126533
	10.330000	-0.064213
	10.335000	-0.018171
	10.340000	0.172575
	10.345000	0.126533
	10.350000	-0.060925
	10.355000	-0.014883
	10.360000	0.169286
	10.365000	0.129821
	10.370000	-0.060925
	10.375000	-0.008305
	10.380000	0.172575
	10.385000	0.126533
	10.390000	-0.060925
	10.395000	-0.011594
	10.400000	0.172575
	10.405000	0.123244
	10.410000	-0.060925
	10.415000	-0.011594
	10.420000	0.175863
	10.425000	0.123244
	10.430000	-0.064213
	10.435000	-0.014883
	10.440000	0.172575
	10.445000	0.123244
	10.450000	-0.060925
	10.455000	-0.011594
	10.460000	0.175863
	10.465000	0.123244
	10.470000	-0.067502
	10.475000	-0.011594
	10.480000	0.172575
	10.485000	0.126533
	10.490000	-0.067502
	10.495000	-0.011594
	10.500000	0.175863
	10.505000	0.123244
	10.510000	-0.064213
	10.515000	-0.014883
	10.520000	0.172575
	10.525000	0.123244
	10.530000	-0.064213
	10.535000	-0.011594
	10.540000	0.172575
	10.545000	0.119955
	10.550000	-0.064213
	10.555000	-0.008305
	10.560000	0.175863
	10.565000	0.126533
	10.570000	-0.060925
	10.575000	-0.011594
	10.580000	0.172575
	10.585000	0.126533
	10.590000	-0.060925
	10.595000	-0.011594
	10.600000	0.175863
	10.605000	0.123244
	10.610000	-0.060925
	10.615000	-0.008305
	10.620000	0.175863
	10.625000	0.123244
	10.630000	-0.057636
	10.635000	-0.008305
	10.640000	0.172575
	10.645000	0.126533
	10.650000	-0.060925
	10.655000	-0.014883
	10.660000	0.175863
	10.665000	0.126533
	10.670000	-0.057636
	10.675000	-0.014883
	10.680000	0.175863
	10.685000	0.126533
	10.690000	-0.057636
	10.695000	-0.011594
	10.700000	0.179152
	10.705000	0.129821
	10.710000	-0.060925
	10.715000	-0.008305
	10.720000	0.179152
	10.725000	0.126533
	10.730000	-0.057636
	10.735000	-0.005016
	10.740000	0.179152
	10.745000	0.126533
	10.750000	-0.057636
	10.755000	-0.008305
	10.760000	0.175863
	10.765000	0.126533
	10.770000	-0.057636
	10.775000	-0.011594
	10.780000	0.182441
	10.785000	0.133110
	10.790000	-0.060925
	10.795000	-0.005016
	10.800000	0.179152
	10.805000	0.129821
	10.810000	-0.054347
	10.815000	-0.008305
	10.820000	0.182441
	10.825000	0.133110
	10.830000	-0.057636
	10.835000	-0.001728
	10.840000	0.182441
	10.845000	0.133110
	10.850000	-0.051059
	10.855000	-0.005016
	10.860000	0.182441
	10.865000	0.133110
	10.870000	-0.054347
	10.875000	-0.008305
	10.880000	0.185730
	10.885000	0.133110
	10.890000	-0.057636
	10.895000	0.001561
	10.900000	0.189018
	10.905000	0.136399
	10.910000	-0.051059
	10.915000	-0.005016
	10.920000	0.189018
	10.925000	0.136399
	10.930000	-0.051059
	10.935000	0.001561
	10.940000	0.185730
	10.945000	0.133110
	10.950000	-0.047770
	10.955000	0.001561
	10.960000	0.189018
	10.965000	0.136399
	10.970000	-0.044481
	10.975000	0.004850
	10.980000	0.189018
	10.985000	0.142976
	10.990000	-0.044481
	10.995000	0.011427
	11.000000	0.195596
	11.005000	0.142976
	11.010000	-0.041192
	11.015000	0.008138
	11.020000	0.195596
	11.025000	0.146265
	11.030000	-0.041192
	11.035000	0.011427
	11.040000	0.192307
	11.045000	0.146265
	11.050000	-0.041192
	11.055000	0.014716
	11.060000	0.195596
	11.065000	0.152842
	11.070000	-0.034615
	11.075000	0.014716
	11.080000	0.202173
	11.085000	0.149554
	11.090000	-0.031326
	11.095000	0.018005
	11.100000	0.208751
	11.105000	0.149554
	11.110000	-0.031326
	11.115000	0.018005
	11.120000	0.202173
	11.125000	0.152842
	11.130000	-0.028037
	11.135000	0.021293
	11.140000	0.208751
	11.145000	0.159420
	11.150000	-0.028037
	11.155000	0.024582
	11.160000	0.212039
	11.165000	0.159420
	11.170000	-0.028037
	11.175000	0.031160
	11.180000	0.208751
	11.185000	0.162708
	11.190000	-0.024749
	11.195000	0.027871
	11.200000	0.218617
	11.205000	0.165997
	11.210000	-0.021460
	11.215000	0.031160
	11.220000	0.215328
	11.225000	0.169286
	11.230000	-0.014883
	11.235000	0.034448
	11.240000	0.218617
	11.245000	0.172575
	11.250000	-0.014883
	11.255000	0.037737
	11.260000	0.225194
	11.265000	0.169286
	11.270000	-0.014883
	11.275000	0.041026
	11.280000	0.228483
	11.285000	0.179152
	11.290000	-0.005016
	11.295000	0.044314
	11.300000	0.231772
	11.305000	0.185730
	11.310000	-0.001728
	11.315000	0.057469
	11.320000	0.238349
	11.325000	0.189018
	11.330000	0.004850
	11.335000	0.057469
	11.340000	0.244927
	11.345000	0.192307
	11.350000	0.011427
	11.355000	0.060758
	11.360000	0.248215
	11.365000	0.198884
	11.370000	0.014716
	11.375000	0.067335
	11.380000	0.248215
	11.385000	0.198884
	11.390000	0.018005
	11.395000	0.070624
	11.400000	0.248215
	11.405000	0.198884
	11.410000	0.014716
	11.415000	0.067335
	11.420000	0.254793
	11.425000	0.205462
	11.430000	0.018005
	11.435000	0.067335
	11.440000	0.244927
	11.445000	0.195596
	11.450000	0.014716
	11.455000	0.067335
	11.460000	0.248215
	11.465000	0.198884
	11.470000	0.011427
	11.475000	0.064047
	11.480000	0.244927
	11.485000	0.195596
	11.490000	0.008138
	11.495000	0.057469
	11.500000	0.241638
	11.505000	0.195596
	11.510000	0.004850
	11.515000	0.057469
	11.520000	0.241638
	11.525000	0.189018
	11.530000	0.004850
	11.535000	0.057469
	11.540000	0.235060
	11.545000	0.192307
	11.550000	0.004850
	11.555000	0.057469
	11.560000	0.238349
	11.565000	0.192307
	11.570000	0.004850
	11.575000	0.047603
	11.580000	0.238349
	11.585000	0.189018
	11.590000	-0.005016
	11.595000	0.054181
	11.600000	0.235060
	11.605000	0.182441
	11.610000	-0.005016
	11.615000	0.047603
	11.620000	0.231772
	11.625000	0.175863
	11.630000	-0.008305
	11.635000	0.044314
	11.640000	0.225194
	11.645000	0.175863
	11.650000	-0.008305
	11.655000	0.037737
	11.660000	0.225194
	11.665000	0.172575
	11.670000	-0.018171
	11.675000	0.027871
	11.680000	0.215328
	11.685000	0.159420
	11.690000	-0.024749
	11.695000	0.024582
	11.700000	0.208751
	11.705000	0.159420
	11.710000	-0.031326
	11.715000	0.018005
	11.720000	0.212039
	11.725000	0.159420
	11.730000	-0.024749
	11.735000	0.031160
	11.740000	0.215328
	11.745000	0.169286
	11.750000	-0.018171
	11.755000	0.031160
	11.760000	0.221905
	11.765000	0.175863
	11.770000	-0.018171
	11.775000	0.037737
	11.780000	0.225194
	11.785000	0.172575
	11.790000	-0.018171
	11.795000	0.031160
	11.800000	0.225194
	11.805000	0.172575
	11.810000	-0.018171
	11.815000	0.031160
	11.820000	0.221905
	11.825000	0.175863
	11.830000	-0.014883
	11.835000	0.037737
	11.840000	0.228483
	11.845000	0.179152
	11.850000	-0.014883
	11.855000	0.034448
	11.860000	0.225194
	11.865000	0.175863
	11.870000	-0.011594
	11.875000	0.037737
	11.880000	0.228483
	11.885000	0.175863
	11.890000	-0.018171
	11.895000	0.044314
	11.900000	0.228483
	11.905000	0.179152
	11.910000	-0.008305
	11.915000	0.041026
	11.920000	0.225194
	11.925000	0.182441
	11.930000	-0.014883
	11.935000	0.034448
	11.940000	0.225194
	11.945000	0.175863
	11.950000	-0.011594
	11.955000	0.041026
	11.960000	0.235060
	11.965000	0.182441
	11.970000	-0.005016
	11.975000	0.050892
	11.980000	0.248215
	11.985000	0.195596
	11.990000	0.008138
	11.995000	0.060758
	12.000000	0.254793
	12.005000	0.205462
	12.010000	0.018005
	12.015000	0.064047
	12.020000	0.258081
	12.025000	0.208751
	12.030000	0.024582
	12.035000	0.067335
	12.040000	0.258081
	12.045000	0.202173
	12.050000	0.018005
	12.055000	0.070624
	12.060000	0.258081
	12.065000	0.202173
	12.070000	0.014716
	12.075000	0.067335
	12.080000	0.254793
	12.085000	0.198884
	12.090000	0.021293
	12.095000	0.064047
	12.100000	0.258081
	12.105000	0.205462
	12.110000	0.014716
	12.115000	0.070624
	12.120000	0.251504
	12.125000	0.208751
	12.130000	0.021293
	12.135000	0.073913
	12.140000	0.258081
	12.145000	0.212039
	12.150000	0.018005
	12.155000	0.070624
	12.160000	0.254793
	12.165000	0.202173
	12.170000	0.018005
	12.175000	0.070624
	12.180000	0.251504
	12.185000	0.202173
	12.190000	0.011427
	12.195000	0.064047
	12.200000	0.248215
	12.205000	0.198884
	12.210000	0.011427
	12.215000	0.060758
	12.220000	0.244927
	12.225000	0.189018
	12.230000	0.011427
	12.235000	0.054181
	12.240000	0.238349
	12.245000	0.192307
	12.250000	-0.001728
	12.255000	0.054181
	12.260000	0.238349
	12.265000	0.185730
	12.270000	-0.005016
	12.275000	0.047603
	12.280000	0.231772
	12.285000	0.175863
	12.290000	-0.005016
	12.295000	0.044314
	12.300000	0.225194
	12.305000	0.175863
	12.310000	-0.011594
	12.315000	0.037737
	12.320000	0.228483
	12.325000	0.169286
	12.330000	-0.018171
	12.335000	0.037737
	12.340000	0.221905
	12.345000	0.169286
	12.350000	-0.021460
	12.355000	0.031160
	12.360000	0.215328
	12.365000	0.165997
	12.370000	-0.024749
	12.375000	0.027871
	12.380000	0.212039
	12.385000	0.159420
	12.390000	-0.031326
	12.395000	0.021293
	12.400000	0.205462
	12.405000	0.156131
	12.410000	-0.028037
	12.415000	0.021293
	12.420000	0.202173
	12.425000	0.149554
	12.430000	-0.037904
	12.435000	0.011427
	12.440000	0.198884
	12.445000	0.142976
	12.450000	-0.041192
	12.455000	0.011427
	12.460000	0.198884
	12.465000	0.142976
	12.470000	-0.044481
	12.475000	0.011427
	12.480000	0.192307
	12.485000	0.142976
	12.490000	-0.044481
	12.495000	0.011427
	12.500000	0.195596
	12.505000	0.139687
	12.510000	-0.051059
	12.515000	0.001561
	12.520000	0.185730
	12.525000	0.133110
	12.530000	-0.054347
	12.535000	-0.001728
	12.540000	0.182441
	12.545000	0.129821
	12.550000	-0.057636
	12.555000	-0.001728
	12.560000	0.179152
	12.565000	0.126533
	12.570000	-0.064213
	12.575000	-0.014883
	12.580000	0.169286
	12.585000	0.113378
	12.590000	-0.077368
	12.595000	-0.021460
	12.600000	0.159420
	12.605000	0.106800
	12.610000	-0.080657
	12.615000	-0.028037
	12.620000	0.156131
	12.625000	0.100223
	12.630000	-0.087234
	12.635000	-0.037904
	12.640000	0.146265
	12.645000	0.090357
	12.650000	-0.100389
	12.655000	-0.047770
	12.660000	0.133110
	12.665000	0.080490
	12.670000	-0.110256
	12.675000	-0.060925
	12.680000	0.126533
	12.685000	0.077202
	12.690000	-0.113544
	12.695000	-0.060925
	12.700000	0.123244
	12.705000	0.070624
	12.710000	-0.110256
	12.715000	-0.054347
	12.720000	0.126533
	12.725000	0.080490
	12.730000	-0.103678
	12.735000	-0.044481
	12.740000	0.136399
	12.745000	0.083779
	12.750000	-0.097101
	12.755000	-0.041192
	12.760000	0.146265
	12.765000	0.090357
	12.770000	-0.093812
	12.775000	-0.041192
	12.780000	0.142976
	12.785000	0.090357
	12.790000	-0.100389
	12.795000	-0.041192
	12.800000	0.139687
	12.805000	0.093645
	12.810000	-0.097101
	12.815000	-0.047770
	12.820000	0.146265
	12.825000	0.087068
	12.830000	-0.100389
	12.835000	-0.041192
	12.840000	0.136399
	12.845000	0.090357
	12.850000	-0.097101
	12.855000	-0.037904
	12.860000	0.139687
	12.865000	0.093645
	12.870000	-0.090523
	12.875000	-0.037904
	12.880000	0.142976
	12.885000	0.093645
	12.890000	-0.087234
	12.895000	-0.034615
	12.900000	0.152842
	12.905000	0.093645
	12.910000	-0.087234
	12.915000	-0.031326
	12.920000	0.152842
	12.925000	0.100223
	12.930000	-0.083946
	12.935000	-0.031326
	12.940000	0.156131
	12.945000	0.096934
	12.950000	-0.090523
	12.955000	-0.031326
	12.960000	0.149554
	12.965000	0.096934
	12.970000	-0.090523
	12.975000	-0.041192
	12.980000	0.152842
	12.985000	0.096934
	12.990000	-0.090523
	12.995000	-0.031326
	13.000000	0.149554
	13.005000	0.096934
	13.010000	-0.090523
	13.015000	-0.037904
	13.020000	0.149554
	13.025000	0.093645
	13.030000	-0.087234
	13.035000	-0.031326
	13.040000	0.149554
	13.045000	0.096934
	13.050000	-0.093812
	13.055000	-0.034615
	13.060000	0.149554
	13.065000	0.093645
	13.070000	-0.087234
	13.075000	-0.031326
	13.080000	0.142976
	13.085000	0.093645
	13.090000	-0.087234
	13.095000	-0.037904
	13.100000	0.149554
	13.105000	0.096934
	13.110000	-0.090523
	13.115000	-0.037904
	13.120000	0.156131
	13.125000	0.096934
	13.130000	-0.087234
	13.135000	-0.034615
	13.140000	0.149554
	13.145000	0.100223
	13.150000	-0.087234
	13.155000	-0.031326
	13.160000	0.156131
	13.165000	0.100223
	13.170000	-0.087234
	13.175000	-0.031326
	13.180000	0.156131
	13.185000	0.106800
	13.190000	-0.083946
	13.195000	-0.024749
	13.200000	0.156131
	13.205000	0.096934
	13.210000	-0.087234
	13.215000	-0.024749
	13.220000	0.159420
	13.225000	0.103511
	13.230000	-0.080657
	13.235000	-0.028037
	13.240000	0.159420
	13.245000	0.106800
	13.250000	-0.080657
	13.255000	-0.021460
	13.260000	0.159420
	13.265000	0.103511
	13.270000	-0.080657
	13.275000	-0.024749
	13.280000	0.156131
	13.285000	0.103511
	13.290000	-0.077368
	13.295000	-0.024749
	13.300000	0.165997
	13.305000	0.103511
	13.310000	-0.083946
	13.315000	-0.024749
	13.320000	0.159420
	13.325000	0.110089
	13.330000	-0.077368
	13.335000	-0.024749
	13.340000	0.156131
	13.345000	0.110089
	13.350000	-0.083946
	13.355000	-0.031326
	13.360000	0.159420
	13.365000	0.103511
	13.370000	-0.083946
	13.375000	-0.031326
	13.380000	0.149554
	13.385000	0.103511
	13.390000	-0.083946
	13.395000	-0.028037
	13.400000	0.156131
	13.405000	0.096934
	13.410000	-0.087234
	13.415000	-0.031326
	13.420000	0.152842
	13.425000	0.100223
	13.430000	-0.083946
	13.435000	-0.028037
	13.440000	0.152842
	13.445000	0.103511
	13.450000	-0.083946
	13.455000	-0.028037
	13.460000	0.152842
	13.465000	0.106800
	13.470000	-0.080657
	13.475000	-0.028037
	13.480000	0.159420
	13.485000	0.106800
	13.490000	-0.080657
	13.495000	-0.024749
	13.500000	0.162708
	13.505000	0.106800
	13.510000	-0.077368
	13.515000	-0.024749
	13.520000	0.162708
	13.525000	0.106800
	13.530000	-0.074080
	13.535000	-0.021460
	13.540000	0.159420
	13.545000	0.110089
	13.550000	-0.074080
	13.555000	-0.021460
	13.560000	0.162708
	13.565000	0.110089
	13.570000	-0.074080
	13.575000	-0.021460
	13.580000	0.165997
	13.585000	0.110089
	13.590000	-0.074080
	13.595000	-0.021460
	13.600000	0.172575
	13.605000	0.116666
	13.610000	-0.070791
	13.615000	-0.018171
	13.620000	0.172575
	13.625000	0.116666
	13.630000	-0.070791
	13.635000	-0.014883
	13.640000	0.175863
	13.645000	0.119955
	13.650000	-0.064213
	13.655000	-0.014883
	13.660000	0.172575
	13.665000	0.119955
	13.670000	-0.070791
	13.675000	-0.011594
	13.680000	0.172575
	13.685000	0.116666
	13.690000	-0.064213
	13.695000	-0.008305
	13.700000	0.172575
	13.705000	0.116666
	13.710000	-0.064213
	13.715000	-0.008305
	13.720000	0.169286
	13.725000	0.123244
	13.730000	-0.064213
	13.735000	-0.008305
	13.740000	0.172575
	13.745000	0.119955
	13.750000	-0.060925
	13.755000	-0.011594
	13.760000	0.175863
	13.765000	0.123244
	13.770000	-0.064213
	13.775000	-0.008305
	13.780000	0.175863
	13.785000	0.123244
	13.790000	-0.067502
	13.795000	-0.008305
	13.800000	0.179152
	13.805000	0.126533
	13.810000	-0.060925
	13.815000	-0.005016
	13.820000	0.185730
	13.825000	0.129821
	13.830000	-0.057636
	13.835000	-0.005016
	13.840000	0.185730
	13.845000	0.136399
	13.850000	-0.054347
	13.855000	-0.001728
	13.860000	0.189018
	13.865000	0.133110
	13.870000	-0.051059
	13.875000	-0.001728
	13.880000	0.185730
	13.885000	0.133110
	13.890000	-0.051059
	13.895000	-0.001728
	13.900000	0.185730
	13.905000	0.133110
	13.910000	-0.051059
	13.915000	0.001561
	13.920000	0.189018
	13.925000	0.136399
	13.930000	-0.044481
	13.935000	0.004850
	13.940000	0.189018
	13.945000	0.136399
	13.950000	-0.047770
	13.955000	0.004850
	13.960000	0.189018
	13.965000	0.136399
	13.970000	-0.047770
	13.975000	0.001561
	13.980000	0.189018
	13.985000	0.133110
	13.990000	-0.047770
	13.995000	0.011427
	14.000000	0.189018
	14.005000	0.136399
	14.010000	-0.041192
	14.015000	0.008138
	14.020000	0.189018
	14.025000	0.139687
	14.030000	-0.051059
	14.035000	0.001561
	14.040000	0.189018
	14.045000	0.136399
	14.050000	-0.044481
	14.055000	0.004850
	14.060000	0.192307
	14.065000	0.139687
	14.070000	-0.047770
	14.075000	0.004850
	14.080000	0.192307
	14.085000	0.142976
	14.090000	-0.044481
	14.095000	0.011427
	14.100000	0.195596
	14.105000	0.142976
	14.110000	-0.037904
	14.115000	0.011427
	14.120000	0.195596
	14.125000	0.142976
	14.130000	-0.041192
	14.135000	0.018005
	14.140000	0.202173
	14.145000	0.139687
	14.150000	-0.041192
	14.155000	0.011427
	14.160000	0.198884
	14.165000	0.142976
	14.170000	-0.044481
	14.175000	0.011427
	14.180000	0.198884
	14.185000	0.146265
	14.190000	-0.034615
	14.195000	0.011427
	14.200000	0.202173
	14.205000	0.149554
	14.210000	-0.034615
	14.215000	0.014716
	14.220000	0.198884
	14.225000	0.149554
	14.230000	-0.034615
	14.235000	0.018005
	14.240000	0.208751
	14.245000	0.149554
	14.250000	-0.034615
	14.255000	0.018005
	14.260000	0.198884
	14.265000	0.149554
	14.270000	-0.037904
	14.275000	0.014716
	14.280000	0.198884
	14.285000	0.146265
	14.290000	-0.034615
	14.295000	0.011427
	14.300000	0.198884
	14.305000	0.142976
	14.310000	-0.037904
	14.315000	0.014716
	14.320000	0.195596
	14.325000	0.152842
	14.330000	-0.034615
	14.335000	0.018005
	14.340000	0.202173
	14.345000	0.152842
	14.350000	-0.034615
	14.355000	0.014716
	14.360000	0.202173
	14.365000	0.152842
	14.370000	-0.031326
	14.375000	0.024582
	14.380000	0.205462
	14.385000	0.156131
	14.390000	-0.028037
	14.395000	0.027871
	14.400000	0.208751
	14.405000	0.162708
	14.410000	-0.018171
	14.415000	0.034448
	14.420000	0.215328
	14.425000	0.162708
	14.430000	-0.018171
	14.435000	0.034448
	14.440000	0.218617
	14.445000	0.165997
	14.450000	-0.018171
	14.455000	0.034448
	14.460000	0.212039
	14.465000	0.169286
	14.470000	-0.018171
	14.475000	0.027871
	14.480000	0.215328
	14.485000	0.159420
	14.490000	-0.024749
	14.495000	0.027871
	14.500000	0.208751
	14.505000	0.159420
	14.510000	-0.028037
	14.515000	0.027871
	14.520000	0.208751
	14.525000	0.156131
	14.530000	-0.028037
	14.535000	0.027871
	14.540000	0.212039
	14.545000	0.156131
	14.550000	-0.021460
	14.555000	0.034448
	14.560000	0.212039
	14.565000	0.159420
	14.570000	-0.021460
	14.575000	0.031160
	14.580000	0.218617
	14.585000	0.165997
	14.590000	-0.021460
	14.595000	0.034448
	14.600000	0.215328
	14.605000	0.165997
	14.610000	-0.024749
	14.615000	0.034448
	14.620000	0.215328
	14.625000	0.159420
	14.630000	-0.028037
	14.635000	0.024582
	14.640000	0.212039
	14.645000	0.162708
	14.650000	-0.021460
	14.655000	0.034448
	14.660000	0.221905
	14.665000	0.172575
	14.670000	-0.011594
	14.675000	0.037737
	14.680000	0.228483
	14.685000	0.179152
	14.690000	-0.005016
	14.695000	0.047603
	14.700000	0.235060
	14.705000	0.182441
	14.710000	-0.011594
	14.715000	0.047603
	14.720000	0.231772
	14.725000	0.175863
	14.730000	-0.014883
	14.735000	0.037737
	14.740000	0.221905
	14.745000	0.172575
	14.750000	-0.014883
	14.755000	0.037737
	14.760000	0.225194
	14.765000	0.172575
	14.770000	-0.011594
	14.775000	0.044314
	14.780000	0.235060
	14.785000	0.192307
	14.790000	0.004850
	14.795000	0.057469
	14.800000	0.238349
	14.805000	0.185730
	14.810000	-0.001728
	14.815000	0.044314
	14.820000	0.231772
	14.825000	0.175863
	14.830000	-0.011594
	14.835000	0.031160
	14.840000	0.218617
	14.845000	0.162708
	14.850000	-0.021460
	14.855000	0.027871
	14.860000	0.208751
	14.865000	0.162708
	14.870000	-0.028037
	14.875000	0.024582
	14.880000	0.212039
	14.885000	0.156131
	14.890000	-0.028037
	14.895000	0.024582
	14.900000	0.208751
	14.905000	0.159420
	14.910000	-0.028037
	14.915000	0.024582
	14.920000	0.212039
	14.925000	0.159420
	14.930000	-0.028037
	14.935000	0.027871
	14.940000	0.215328
	14.945000	0.159420
	14.950000	-0.024749
	14.955000	0.031160
	14.960000	0.212039
	14.965000	0.159420
	14.970000	-0.024749
	14.975000	0.031160
	14.980000	0.212039
	14.985000	0.162708
	14.990000	-0.024749
	14.995000	0.027871
	15.000000	0.212039
	15.005000	0.162708
	15.010000	-0.028037
	15.015000	0.034448
	15.020000	0.218617
	15.025000	0.159420
	15.030000	-0.021460
	15.035000	0.024582
	15.040000	0.215328
	15.045000	0.165997
	15.050000	-0.018171
	15.055000	0.034448
	15.060000	0.225194
	15.065000	0.172575
	15.070000	-0.011594
	15.075000	0.041026
	15.080000	0.225194
	15.085000	0.179152
	15.090000	-0.008305
	15.095000	0.044314
	15.100000	0.225194
	15.105000	0.175863
	15.110000	-0.008305
	15.115000	0.044314
	15.120000	0.228483
	15.125000	0.179152
	15.130000	-0.008305
	15.135000	0.044314
	15.140000	0.225194
	15.145000	0.179152
	15.150000	-0.008305
	15.155000	0.041026
	15.160000	0.225194
	15.165000	0.172575
	15.170000	-0.014883
	15.175000	0.041026
	15.180000	0.221905
	15.185000	0.162708
	15.190000	-0.018171
	15.195000	0.034448
	15.200000	0.215328
	15.205000	0.169286
	15.210000	-0.021460
	15.215000	0.034448
	15.220000	0.212039
	15.225000	0.162708
	15.230000	-0.024749
	15.235000	0.027871
	15.240000	0.212039
	15.245000	0.152842
	15.250000	-0.028037
	15.255000	0.024582
	15.260000	0.202173
	15.265000	0.152842
	15.270000	-0.034615
	15.275000	0.014716
	15.280000	0.202173
	15.285000	0.142976
	15.290000	-0.041192
	15.295000	0.011427
	15.300000	0.189018
	15.305000	0.139687
	15.310000	-0.047770
	15.315000	0.004850
	15.320000	0.189018
	15.325000	0.133110
	15.330000	-0.051059
	15.335000	0.004850
	15.340000	0.185730
	15.345000	0.129821
	15.350000	-0.054347
	15.355000	-0.001728
	15.360000	0.179152
	15.365000	0.123244
	15.370000	-0.060925
	15.375000	-0.005016
	15.380000	0.179152
	15.385000	0.126533
	15.390000	-0.057636
	15.395000	-0.011594
	15.400000	0.172575
	15.405000	0.119955
	15.410000	-0.067502
	15.415000	-0.014883
	15.420000	0.169286
	15.425000	0.116666
	15.430000	-0.070791
	15.435000	-0.021460
	15.440000	0.162708
	15.445000	0.106800
	15.450000	-0.074080
	15.455000	-0.024749
	15.460000	0.159420
	15.465000	0.103511
	15.470000	-0.080657
	15.475000	-0.031326
	15.480000	0.149554
	15.485000	0.096934
	15.490000	-0.080657
	15.495000	-0.031326
	15.500000	0.149554
	15.505000	0.100223
	15.510000	-0.083946
	15.515000	-0.028037
	15.520000	0.149554
	15.525000	0.093645
	15.530000	-0.090523
	15.535000	-0.031326
	15.540000	0.152842
	15.545000	0.100223
	15.550000	-0.087234
	15.555000	-0.028037
	15.560000	0.149554
	15.565000	0.090357
	15.570000	-0.087234
	15.575000	-0.028037
	15.580000	0.149554
	15.585000	0.100223
	15.590000	-0.083946
	15.595000	-0.034615
	15.600000	0.156131
	15.605000	0.096934
	15.610000	-0.087234
	15.615000	-0.028037
	15.620000	0.152842
	15.625000	0.093645
	15.630000	-0.093812
	15.635000	-0.034615
	15.640000	0.149554
	15.645000	0.096934
	15.650000	-0.090523
	15.655000	-0.034615
	15.660000	0.149554
	15.665000	0.093645
	15.670000	-0.090523
	15.675000	-0.031326
	15.680000	0.149554
	15.685000	0.093645
	15.690000	-0.090523
	15.695000	-0.031326
	15.700000	0.149554
	15.705000	0.096934
	15.710000	-0.090523
	15.715000	-0.034615
	15.720000	0.152842
	15.725000	0.096934
	15.730000	-0.093812
	15.735000	-0.034615
	15.740000	0.152842
	15.745000	0.090357
	15.750000	-0.090523
	15.755000	-0.028037
	15.760000	0.149554
	15.765000	0.093645
	15.770000	-0.090523
	15.775000	-0.031326
	15.780000	0.149554
	15.785000	0.096934
	15.790000	-0.093812
	15.795000	-0.034615
	15.800000	0.146265
	15.805000	0.093645
	15.810000	-0.090523
	15.815000	-0.037904
	15.820000	0.149554
	15.825000	0.093645
	15.830000	-0.090523
	15.835000	-0.034615
	15.840000	0.149554
	15.845000	0.090357
	15.850000	-0.093812
	15.855000	-0.034615
	15.860000	0.149554
	15.865000	0.093645
	15.870000	-0.087234
	15.875000	-0.031326
	15.880000	0.152842
	15.885000	0.090357
	15.890000	-0.090523
	15.895000	-0.034615
	15.900000	0.149554
	15.905000	0.087068
	15.910000	-0.087234
	15.915000	-0.031326
	15.920000	0.149554
	15.925000	0.096934
	15.930000	-0.087234
	15.935000	-0.028037
	15.940000	0.152842
	15.945000	0.093645
	15.950000	-0.090523
	15.955000	-0.031326
	15.960000	0.149554
	15.965000	0.090357
	15.970000	-0.087234
	15.975000	-0.028037
	15.980000	0.152842
	15.985000	0.093645
	15.990000	-0.090523
	15.995000	-0.041192
	16.000000	0.149554
	16.005000	0.083779
	16.010000	-0.100389
	16.015000	-0.041192
	16.020000	0.133110
	16.025000	0.083779
	16.030000	-0.100389
	16.035000	-0.044481
	16.040000	0.139687
	16.045000	0.080490
	16.050000	-0.103678
	16.055000	-0.041192
	16.060000	0.139687
	16.065000	0.080490
	16.070000	-0.103678
	16.075000	-0.041192
	16.080000	0.149554
	16.085000	0.090357
	16.090000	-0.097101
	16.095000	-0.037904
	16.100000	0.149554
	16.105000	0.090357
	16.110000	-0.097101
	16.115000	-0.031326
	16.120000	0.142976
	16.125000	0.090357
	16.130000	-0.097101
	16.135000	-0.034615
	16.140000	0.149554
	16.145000	0.090357
	16.150000	-0.093812
	16.155000	-0.037904
	16.160000	0.146265
	16.165000	0.087068
	16.170000	-0.093812
	16.175000	-0.031326
	16.180000	0.152842
	16.185000	0.090357
	16.190000	-0.093812
	16.195000	-0.031326
	16.200000	0.149554
	16.205000	0.093645
	16.210000	-0.090523
	16.215000	-0.034615
	16.220000	0.156131
	16.225000	0.096934
	16.230000	-0.087234
	16.235000	-0.028037
	16.240000	0.152842
	16.245000	0.096934
	16.250000	-0.083946
	16.255000	-0.021460
	16.260000	0.159420
	16.265000	0.096934
	16.270000	-0.083946
	16.275000	-0.021460
	16.280000	0.159420
	16.285000	0.103511
	16.290000	-0.080657
	16.295000	-0.024749
	16.300000	0.162708
	16.305000	0.100223
	16.310000	-0.083946
	16.315000	-0.024749
	16.320000	0.156131
	16.325000	0.096934
	16.330000	-0.083946
	16.335000	-0.024749
	16.340000	0.159420
	16.345000	0.096934
	16.350000	-0.087234
	16.355000	-0.028037
	16.360000	0.159420
	16.365000	0.093645
	16.370000	-0.083946
	16.375000	-0.028037
	16.380000	0.156131
	16.385000	0.093645
	16.390000	-0.087234
	16.395000	-0.028037
	16.400000	0.159420
	16.405000	0.093645
	16.410000	-0.087234
	16.415000	-0.028037
	16.420000	0.152842
	16.425000	0.093645
	16.430000	-0.090523
	16.435000	-0.031326
	16.440000	0.156131
	16.445000	0.096934
	16.450000	-0.087234
	16.455000	-0.024749
	16.460000	0.159420
	16.465000	0.096934
	16.470000	-0.083946
	16.475000	-0.028037
	16.480000	0.156131
	16.485000	0.093645
	16.490000	-0.083946
	16.495000	-0.024749
	16.500000	0.159420
	16.505000	0.090357
	16.510000	-0.083946
	16.515000	-0.018171
	16.520000	0.162708
	16.525000	0.096934
	16.530000	-0.090523
	16.535000	-0.024749
	16.540000	0.159420
	16.545000	0.096934
	16.550000	-0.087234
	16.555000	-0.024749
	16.560000	0.159420
	16.565000	0.100223
	16.570000	-0.083946
	16.575000	-0.024749
	16.580000	0.156131
	16.585000	0.100223
	16.590000	-0.087234
	16.595000	-0.021460
	16.600000	0.159420
	16.605000	0.100223
	16.610000	-0.080657
	16.615000	-0.021460
	16.620000	0.162708
	16.625000	0.096934
	16.630000	-0.087234
	16.635000	-0.021460
	16.640000	0.159420
	16.645000	0.100223
	16.650000	-0.080657
	16.655000	-0.021460
	16.660000	0.159420
	16.665000	0.100223
	16.670000	-0.080657
	16.675000	-0.018171
	16.680000	0.162708
	16.685000	0.100223
	16.690000	-0.080657
	16.695000	-0.018171
	16.700000	0.165997
	16.705000	0.100223
	16.710000	-0.080657
	16.715000	-0.018171
	16.720000	0.162708
	16.725000	0.100223
	16.730000	-0.077368
	16.735000	-0.018171
	16.740000	0.169286
	16.745000	0.100223
	16.750000	-0.074080
	16.755000	-0.014883
	16.760000	0.165997
	16.765000	0.100223
	16.770000	-0.077368
	16.775000	-0.014883
	16.780000	0.165997
	16.785000	0.100223
	16.790000	-0.077368
	16.795000	-0.008305
	16.800000	0.169286
	16.805000	0.103511
	16.810000	-0.077368
	16.815000	-0.014883
	16.820000	0.172575
	16.825000	0.106800
	16.830000	-0.074080
	16.835000	-0.011594
	16.840000	0.169286
	16.845000	0.103511
	16.850000	-0.070791
	16.855000	-0.008305
	16.860000	0.172575
	16.865000	0.110089
	16.870000	-0.070791
	16.875000	-0.008305
	16.880000	0.172575
	16.885000	0.106800
	16.890000	-0.070791
	16.895000	-0.001728
	16.900000	0.179152
	16.905000	0.110089
	16.910000	-0.067502
	16.915000	-0.001728
	16.920000	0.175863
	16.925000	0.110089
	16.930000	-0.064213
	16.935000	-0.005016
	16.940000	0.182441
	16.945000	0.116666
	16.950000	-0.064213
	16.955000	0.001561
	16.960000	0.175863
	16.965000	0.113378
	16.970000	-0.067502
	16.975000	-0.001728
	16.980000	0.175863
	16.985000	0.116666
	16.990000	-0.064213
	16.995000	0.001561
	17.000000	0.175863
	17.005000	0.113378
	17.010000	-0.064213
	17.015000	-0.005016
	17.020000	0.179152
	17.025000	0.113378
	17.030000	-0.067502
	17.035000	-0.001728
	17.040000	0.179152
	17.045000	0.116666
	17.050000	-0.067502
	17.055000	-0.005016
	17.060000	0.179152
	17.065000	0.110089
	17.070000	-0.064213
	17.075000	-0.005016
	17.080000	0.175863
	17.085000	0.106800
	17.090000	-0.064213
	17.095000	-0.005016
	17.100000	0.182441
	17.105000	0.110089
	17.110000	-0.067502
	17.115000	0.001561
	17.120000	0.179152
	17.125000	0.116666
	17.130000	-0.064213
	17.135000	0.001561
	17.140000	0.182441
	17.145000	0.119955
	17.150000	-0.057636
	17.155000	0.004850
	17.160000	0.185730
	17.165000	0.123244
	17.170000	-0.057636
	17.175000	0.004850
	17.180000	0.185730
	17.185000	0.123244
	17.190000	-0.057636
	17.195000	0.008138
	17.200000	0.189018
	17.205000	0.126533
	17.210000	-0.054347
	17.215000	0.014716
	17.220000	0.189018
	17.225000	0.129821
	17.230000	-0.051059
	17.235000	0.014716
	17.240000	0.192307
	17.245000	0.129821
	17.250000	-0.047770
	17.255000	0.018005
	17.260000	0.195596
	17.265000	0.126533
	17.270000	-0.054347
	17.275000	0.014716
	17.280000	0.195596
	17.285000	0.126533
	17.290000	-0.047770
	17.295000	0.011427
	17.300000	0.192307
	17.305000	0.129821
	17.310000	-0.047770
	17.315000	0.014716
	17.320000	0.189018
	17.325000	0.129821
	17.330000	-0.054347
	17.335000	0.014716
	17.340000	0.195596
	17.345000	0.129821
	17.350000	-0.051059
	17.355000	0.018005
	17.360000	0.192307
	17.365000	0.126533
	17.370000	-0.054347
	17.375000	0.014716
	17.380000	0.192307
	17.385000	0.129821
	17.390000	-0.047770
	17.395000	0.014716
	17.400000	0.198884
	17.405000	0.129821
	17.410000	-0.047770
	17.415000	0.011427
	17.420000	0.198884
	17.425000	0.126533
	17.430000	-0.054347
	17.435000	0.014716
	17.440000	0.189018
	17.445000	0.123244
	17.450000	-0.051059
	17.455000	0.004850
	17.460000	0.189018
	17.465000	0.116666
	17.470000	-0.054347
	17.475000	0.008138
	17.480000	0.182441
	17.485000	0.113378
	17.490000	-0.064213
	17.495000	0.004850
	17.500000	0.182441
	17.505000	0.119955
	17.510000	-0.060925
	17.515000	0.014716
	17.520000	0.185730
	17.525000	0.116666
	17.530000	-0.057636
	17.535000	0.011427
	17.540000	0.185730
	17.545000	0.116666
	17.550000	-0.057636
	17.555000	0.011427
	17.560000	0.179152
	17.565000	0.119955
	17.570000	-0.060925
	17.575000	0.011427
	17.580000	0.192307
	17.585000	0.116666
	17.590000	-0.057636
	17.595000	0.011427
	17.600000	0.185730
	17.605000	0.119955
	17.610000	-0.057636
	17.615000	0.014716
	17.620000	0.192307
	17.625000	0.119955
	17.630000	-0.054347
	17.635000	0.014716
	17.640000	0.189018
	17.645000	0.119955
	17.650000	-0.057636
	17.655000	0.014716
	17.660000	0.192307
	17.665000	0.119955
	17.670000	-0.057636
	17.675000	0.014716
	17.680000	0.189018
	17.685000	0.123244
	17.690000	-0.057636
	17.695000	0.011427
	17.700000	0.189018
	17.705000	0.113378
	17.710000	-0.060925
	17.715000	0.008138
	17.720000	0.185730
	17.725000	0.116666
	17.730000	-0.060925
	17.735000	0.008138
	17.740000	0.189018
	17.745000	0.116666
	17.750000	-0.060925
	17.755000	0.008138
	17.760000	0.189018
	17.765000	0.116666
	17.770000	-0.060925
	17.775000	0.004850
	17.780000	0.182441
	17.785000	0.113378
	17.790000	-0.064213
	17.795000	0.008138
	17.800000	0.182441
	17.805000	0.116666
	17.810000	-0.060925
	17.815000	0.008138
	17.820000	0.189018
	17.825000	0.116666
	17.830000	-0.060925
	17.835000	0.008138
	17.840000	0.195596
	17.845000	0.126533
	17.850000	-0.060925
	17.855000	0.018005
	17.860000	0.192307
	17.865000	0.123244
	17.870000	-0.051059
	17.875000	0.014716
	17.880000	0.198884
	17.885000	0.123244
	17.890000	-0.054347
	17.895000	0.014716
	17.900000	0.202173
	17.905000	0.123244
	17.910000	-0.057636
	17.915000	0.011427
	17.920000	0.195596
	17.925000	0.119955
	17.930000	-0.057636
	17.935000	0.008138
	17.940000	0.192307
	17.945000	0.116666
	17.950000	-0.064213
	17.955000	0.011427
	17.960000	0.185730
	17.965000	0.113378
	17.970000	-0.060925
	17.975000	0.011427
	17.980000	0.189018
	17.985000	0.116666
	17.990000	-0.064213
	17.995000	0.014716
	18.000000	0.192307
	18.005000	0.116666
	18.010000	-0.060925
	18.015000	0.011427
	18.020000	0.185730
	18.025000	0.116666
	18.030000	-0.064213
	18.035000	0.004850
	18.040000	0.185730
	18.045000	0.110089
	18.050000	-0.070791
	18.055000	0.001561
	18.060000	0.182441
	18.065000	0.106800
	18.070000	-0.070791
	18.075000	0.001561
	18.080000	0.179152
	18.085000	0.113378
	18.090000	-0.064213
	18.095000	0.008138
	18.100000	0.189018
	18.105000	0.116666
	18.110000	-0.060925
	18.115000	0.014716
	18.120000	0.195596
	18.125000	0.119955
	18.130000	-0.054347
	18.135000	0.018005
	18.140000	0.198884
	18.145000	0.123244
	18.150000	-0.054347
	18.155000	0.021293
	18.160000	0.202173
	18.165000	0.129821
	18.170000	-0.051059
	18.175000	0.021293
	18.180000	0.198884
	18.185000	0.129821
	18.190000	-0.047770
	18.195000	0.021293
	18.200000	0.205462
	18.205000	0.133110
	18.210000	-0.041192
	18.215000	0.034448
	18.220000	0.208751
	18.225000	0.136399
	18.230000	-0.037904
	18.235000	0.037737
	18.240000	0.215328
	18.245000	0.139687
	18.250000	-0.041192
	18.255000	0.037737
	18.260000	0.215328
	18.265000	0.142976
	18.270000	-0.034615
	18.275000	0.037737
	18.280000	0.215328
	18.285000	0.139687
	18.290000	-0.041192
	18.295000	0.037737
	18.300000	0.208751
	18.305000	0.136399
	18.310000	-0.044481
	18.315000	0.031160
	18.320000	0.205462
	18.325000	0.129821
	18.330000	-0.044481
	18.335000	0.031160
	18.340000	0.202173
	18.345000	0.126533
	18.350000	-0.047770
	18.355000	0.024582
	18.360000	0.205462
	18.365000	0.123244
	18.370000	-0.051059
	18.375000	0.021293
	18.380000	0.202173
	18.385000	0.119955
	18.390000	-0.060925
	18.395000	0.021293
	18.400000	0.202173
	18.405000	0.116666
	18.410000	-0.057636
	18.415000	0.014716
	18.420000	0.189018
	18.425000	0.113378
	18.430000	-0.064213
	18.435000	0.014716
	18.440000	0.182441
	18.445000	0.106800
	18.450000	-0.067502
	18.455000	0.004850
	18.460000	0.175863
	18.465000	0.103511
	18.470000	-0.080657
	18.475000	-0.001728
	18.480000	0.179152
	18.485000	0.103511
	18.490000	-0.077368
	18.495000	-0.005016
	18.500000	0.172575
	18.505000	0.096934
	18.510000	-0.087234
	18.515000	-0.005016
	18.520000	0.169286
	18.525000	0.090357
	18.530000	-0.087234
	18.535000	-0.008305
	18.540000	0.159420
	18.545000	0.080490
	18.550000	-0.093812
	18.555000	-0.014883
	18.560000	0.159420
	18.565000	0.080490
	18.570000	-0.097101
	18.575000	-0.018171
	18.580000	0.156131
	18.585000	0.077202
	18.590000	-0.093812
	18.595000	-0.014883
	18.600000	0.156131
	18.605000	0.077202
	18.610000	-0.097101
	18.615000	-0.018171
	18.620000	0.149554
	18.625000	0.077202
	18.630000	-0.100389
	18.635000	-0.018171
	18.640000	0.152842
	18.645000	0.070624
	18.650000	-0.103678
	18.655000	-0.021460
	18.660000	0.152842
	18.665000	0.077202
	18.670000	-0.103678
	18.675000	-0.018171
	18.680000	0.156131
	18.685000	0.077202
	18.690000	-0.106967
	18.695000	-0.021460
	18.700000	0.152842
	18.705000	0.077202
	18.710000	-0.103678
	18.715000	-0.021460
	18.720000	0.152842
	18.725000	0.077202
	18.730000	-0.103678
	18.735000	-0.024749
	18.740000	0.152842
	18.745000	0.077202
	18.750000	-0.100389
	18.755000	-0.021460
	18.760000	0.152842
	18.765000	0.070624
	18.770000	-0.103678
	18.775000	-0.021460
	18.780000	0.149554
	18.785000	0.070624
	18.790000	-0.103678
	18.795000	-0.018171
	18.800000	0.152842
	18.805000	0.070624
	18.810000	-0.103678
	18.815000	-0.021460
	18.820000	0.152842
	18.825000	0.067335
	18.830000	-0.103678
	18.835000	-0.021460
	18.840000	0.152842
	18.845000	0.077202
	18.850000	-0.106967
	18.855000	-0.018171
	18.860000	0.152842
	18.865000	0.073913
	18.870000	-0.103678
	18.875000	-0.018171
	18.880000	0.152842
	18.885000	0.070624
	18.890000	-0.106967
	18.895000	-0.024749
	18.900000	0.152842
	18.905000	0.073913
	18.910000	-0.103678
	18.915000	-0.021460
	18.920000	0.156131
	18.925000	0.070624
	18.930000	-0.100389
	18.935000	-0.024749
	18.940000	0.156131
	18.945000	0.070624
	18.950000	-0.103678
	18.955000	-0.014883
	18.960000	0.149554
	18.965000	0.070624
	18.970000	-0.106967
	18.975000	-0.021460
	18.980000	0.156131
	18.985000	0.067335
	18.990000	-0.103678
	18.995000	-0.021460
	19.000000	0.156131
	19.005000	0.067335
	19.010000	-0.110256
	19.015000	-0.024749
	19.020000	0.149554
	19.025000	0.070624
	19.030000	-0.103678
	19.035000	-0.021460
	19.040000	0.149554
	19.045000	0.064047
	19.050000	-0.106967
	19.055000	-0.024749
	19.060000	0.152842
	19.065000	0.064047
	19.070000	-0.110256
	19.075000	-0.021460
	19.080000	0.149554
	19.085000	0.064047
	19.090000	-0.106967
	19.095000	-0.021460
	19.100000	0.149554
	19.105000	0.064047
	19.110000	-0.110256
	19.115000	-0.021460
	19.120000	0.149554
	19.125000	0.064047
	19.130000	-0.106967
	19.135000	-0.021460
	19.140000	0.152842
	19.145000	0.060758
	19.150000	-0.106967
	19.155000	-0.024749
	19.160000	0.149554
	19.165000	0.064047
	19.170000	-0.110256
	19.175000	-0.021460
	19.180000	0.149554
	19.185000	0.070624
	19.190000	-0.106967
	19.195000	-0.018171
	19.200000	0.149554
	19.205000	0.060758
	19.210000	-0.106967
	19.215000	-0.021460
	19.220000	0.152842
	19.225000	0.064047
	19.230000	-0.110256
	19.235000	-0.021460
	19.240000	0.152842
	19.245000	0.067335
	19.250000	-0.103678
	19.255000	-0.018171
	19.260000	0.152842
	19.265000	0.067335
	19.270000	-0.110256
	19.275000	-0.021460
	19.280000	0.152842
	19.285000	0.067335
	19.290000	-0.110256
	19.295000	-0.018171
	19.300000	0.156131
	19.305000	0.067335
	19.310000	-0.106967
	19.315000	-0.018171
	19.320000	0.156131
	19.325000	0.064047
	19.330000	-0.110256
	19.335000	-0.018171
	19.340000	0.152842
	19.345000	0.060758
	19.350000	-0.116833
	19.355000	-0.024749
	19.360000	0.152842
	19.365000	0.064047
	19.370000	-0.113544
	19.375000	-0.021460
	19.380000	0.152842
	19.385000	0.067335
	19.390000	-0.106967
	19.395000	-0.018171
	19.400000	0.159420
	19.405000	0.064047
	19.410000	-0.106967
	19.415000	-0.018171
	19.420000	0.152842
	19.425000	0.060758
	19.430000	-0.110256
	19.435000	-0.018171
	19.440000	0.152842
	19.445000	0.060758
	19.450000	-0.106967
	19.455000	-0.021460
	19.460000	0.156131
	19.465000	0.060758
	19.470000	-0.106967
	19.475000	-0.024749
	19.480000	0.152842
	19.485000	0.067335
	19.490000	-0.103678
	19.495000	-0.021460
	19.500000	0.152842
	19.505000	0.064047
	19.510000	-0.110256
	19.515000	-0.024749
	19.520000	0.149554
	19.525000	0.060758
	19.530000	-0.106967
	19.535000	-0.021460
	19.540000	0.152842
	19.545000	0.064047
	19.550000	-0.110256
	19.555000	-0.018171
	19.560000	0.152842
	19.565000	0.060758
	19.570000	-0.106967
	19.575000	-0.014883
	19.580000	0.149554
	19.585000	0.064047
	19.590000	-0.106967
	19.595000	-0.018171
	19.600000	0.152842
	19.605000	0.067335
	19.610000	-0.106967
	19.615000	-0.014883
	19.620000	0.156131
	19.625000	0.064047
	19.630000	-0.106967
	19.635000	-0.011594
	19.640000	0.156131
	19.645000	0.064047
	19.650000	-0.103678
	19.655000	-0.008305
	19.660000	0.156131
	19.665000	0.067335
	19.670000	-0.106967
	19.675000	-0.014883
	19.680000	0.152842
	19.685000	0.064047
	19.690000	-0.103678
	19.695000	-0.011594
	19.700000	0.156131
	19.705000	0.064047
	19.710000	-0.103678
	19.715000	-0.011594
	19.720000	0.152842
	19.725000	0.064047
	19.730000	-0.103678
	19.735000	-0.008305
	19.740000	0.162708
	19.745000	0.067335
	19.750000	-0.103678
	19.755000	-0.011594
	19.760000	0.165997
	19.765000	0.067335
	19.770000	-0.093812
	19.775000	-0.011594
	19.780000	0.162708
	19.785000	0.070624
	19.790000	-0.097101
	19.795000	-0.001728
	19.800000	0.162708
	19.805000	0.064047
	19.810000	-0.097101
	19.815000	-0.005016
	19.820000	0.162708
	19.825000	0.064047
	19.830000	-0.097101
	19.835000	-0.008305
	19.840000	0.165997
	19.845000	0.070624
	19.850000	-0.097101
	19.855000	-0.005016
	19.860000	0.169286
	19.865000	0.077202
	19.870000	-0.093812
	19.875000	0.001561
	19.880000	0.169286
	19.885000	0.077202
	19.890000	-0.090523
	19.895000	0.001561
	19.900000	0.175863
	19.905000	0.073913
	19.910000	-0.090523
	19.915000	0.004850
	19.920000	0.169286
	19.925000	0.077202
	19.930000	-0.093812
	19.935000	0.008138
	19.940000	0.179152
	19.945000	0.080490
	19.950000	-0.090523
	19.955000	0.004850
	19.960000	0.175863
	19.965000	0.083779
	19.970000	-0.083946
	19.975000	0.011427
	19.980000	0.179152
	19.985000	0.087068
	19.990000	-0.080657
	19.995000	0.011427
	20.000000	0.182441
	20.005000	0.090357
	20.010000	-0.077368
	20.015000	0.021293
	20.020000	0.185730
	20.025000	0.087068
	20.030000	-0.070791
	20.035000	0.021293
	20.040000	0.185730
	20.045000	0.087068
	20.050000	-0.074080
	20.055000	0.021293
	20.060000	0.189018
	20.065000	0.096934
	20.070000	-0.077368
	20.075000	0.024582
	20.080000	0.192307
	20.085000	0.100223
	20.090000	-0.067502
	20.095000	0.024582
	20.100000	0.198884
	20.105000	0.100223
	20.110000	-0.064213
	20.115000	0.027871
	20.120000	0.195596
	20.125000	0.100223
	20.130000	-0.064213
	20.135000	0.031160
	20.140000	0.198884
	20.145000	0.103511
	20.150000	-0.060925
	20.155000	0.031160
	20.160000	0.202173
	20.165000	0.103511
	20.170000	-0.060925
	20.175000	0.041026
	20.180000	0.202173
	20.185000	0.106800
	20.190000	-0.064213
	20.195000	0.031160
	20.200000	0.202173
	20.205000	0.100223
	20.210000	-0.064213
	20.215000	0.034448
	20.220000	0.198884
	20.225000	0.103511
	20.230000	-0.057636
	20.235000	0.034448
	20.240000	0.202173
	20.245000	0.110089
	20.250000	-0.054347
	20.255000	0.041026
	20.260000	0.208751
	20.265000	0.106800
	20.270000	-0.057636
	20.275000	0.044314
	20.280000	0.205462
	20.285000	0.110089
	20.290000	-0.051059
	20.295000	0.044314
	20.300000	0.208751
	20.305000	0.116666
	20.310000	-0.051059
	20.315000	0.050892
	20.320000	0.215328
	20.325000	0.116666
	20.330000	-0.044481
	20.335000	0.050892
	20.340000	0.218617
	20.345000	0.116666
	20.350000	-0.047770
	20.355000	0.047603
	20.360000	0.208751
	20.365000	0.116666
	20.370000	-0.051059
	20.375000	0.044314
	20.380000	0.208751
	20.385000	0.113378
	20.390000	-0.051059
	20.395000	0.044314
	20.400000	0.208751
	20.405000	0.106800
	20.410000	-0.051059
	20.415000	0.047603
	20.420000	0.212039
	20.425000	0.110089
	20.430000	-0.051059
	20.435000	0.047603
	20.440000	0.212039
	20.445000	0.113378
	20.450000	-0.051059
	20.455000	0.047603
	20.460000	0.212039
	20.465000	0.113378
	20.470000	-0.051059
	20.475000	0.044314
	20.480000	0.205462
	20.485000	0.106800
	20.490000	-0.054347
	20.495000	0.044314
	20.500000	0.202173
	20.505000	0.103511
	20.510000	-0.060925
	20.515000	0.041026
	20.520000	0.202173
	20.525000	0.100223
	20.530000	-0.064213
	20.535000	0.034448
	20.540000	0.198884
	20.545000	0.103511
	20.550000	-0.067502
	20.555000	0.034448
	20.560000	0.198884
	20.565000	0.103511
	20.570000	-0.067502
	20.575000	0.037737
	20.580000	0.198884
	20.585000	0.093645
	20.590000	-0.070791
	20.595000	0.027871
	20.600000	0.198884
	20.605000	0.090357
	20.610000	-0.074080
	20.615000	0.031160
	20.620000	0.195596
	20.625000	0.090357
	20.630000	-0.074080
	20.635000	0.024582
	20.640000	0.185730
	20.645000	0.083779
	20.650000	-0.083946
	20.655000	0.024582
	20.660000	0.185730
	20.665000	0.080490
	20.670000	-0.083946
	20.675000	0.021293
	20.680000	0.182441
	20.685000	0.077202
	20.690000	-0.087234
	20.695000	0.018005
	20.700000	0.185730
	20.705000	0.080490
	20.710000	-0.080657
	20.715000	0.024582
	20.720000	0.192307
	20.725000	0.090357
	20.730000	-0.077368
	20.735000	0.027871
	20.740000	0.189018
	20.745000	0.093645
	20.750000	-0.074080
	20.755000	0.031160
	20.760000	0.192307
	20.765000	0.090357
	20.770000	-0.077368
	20.775000	0.031160
	20.780000	0.195596
	20.785000	0.090357
	20.790000	-0.067502
	20.795000	0.031160
	20.800000	0.195596
	20.805000	0.093645
	20.810000	-0.074080
	20.815000	0.034448
	20.820000	0.195596
	20.825000	0.093645
	20.830000	-0.077368
	20.835000	0.034448
	20.840000	0.195596
	20.845000	0.093645
	20.850000	-0.074080
	20.855000	0.037737
	20.860000	0.198884
	20.865000	0.093645
	20.870000	-0.067502
	20.875000	0.031160
	20.880000	0.198884
	20.885000	0.093645
	20.890000	-0.067502
	20.895000	0.034448
	20.900000	0.202173
	20.905000	0.090357
	20.910000	-0.067502
	20.915000	0.037737
	20.920000	0.205462
	20.925000	0.093645
	20.930000	-0.067502
	20.935000	0.044314
	20.940000	0.208751
	20.945000	0.100223
	20.950000	-0.057636
	20.955000	0.050892
	20.960000	0.215328
	20.965000	0.106800
	20.970000	-0.054347
	20.975000	0.050892
	20.980000	0.215328
	20.985000	0.106800
	20.990000	-0.047770
	20.995000	0.054181
	21.000000	0.212039
	21.005000	0.110089
	21.010000	-0.051059
	21.015000	0.050892
	21.020000	0.215328
	21.025000	0.110089
	21.030000	-0.051059
	21.035000	0.057469
	21.040000	0.215328
	21.045000	0.113378
	21.050000	-0.044481
	21.055000	0.057469
	21.060000	0.215328
	21.065000	0.110089
	21.070000	-0.047770
	21.075000	0.067335
	21.080000	0.221905
	21.085000	0.116666
	21.090000	-0.047770
	21.095000	0.060758
	21.100000	0.221905
	21.105000	0.106800
	21.110000	-0.051059
	21.115000	0.067335
	21.120000	0.218617
	21.125000	0.110089
	21.130000	-0.047770
	21.135000	0.060758
	21.140000	0.215328
	21.145000	0.110089
	21.150000	-0.051059
	21.155000	0.057469
	21.160000	0.221905
	21.165000	0.106800
	21.170000	-0.054347
	21.175000	0.057469
	21.180000	0.212039
	21.185000	0.106800
	21.190000	-0.054347
	21.195000	0.054181
	21.200000	0.212039
	21.205000	0.106800
	21.210000	-0.054347
	21.215000	0.057469
	21.220000	0.215328
	21.225000	0.100223
	21.230000	-0.054347
	21.235000	0.060758
	21.240000	0.218617
	21.245000	0.110089
	21.250000	-0.051059
	21.255000	0.064047
	21.260000	0.215328
	21.265000	0.103511
	21.270000	-0.051059
	21.275000	0.054181
	21.280000	0.215328
	21.285000	0.100223
	21.290000	-0.057636
	21.295000	0.050892
	21.300000	0.208751
	21.305000	0.096934
	21.310000	-0.060925
	21.315000	0.050892
	21.320000	0.202173
	21.325000	0.093645
	21.330000	-0.067502
	21.335000	0.047603
	21.340000	0.205462
	21.345000	0.090357
	21.350000	-0.067502
	21.355000	0.044314
	21.360000	0.198884
	21.365000	0.090357
	21.370000	-0.074080
	21.375000	0.041026
	21.380000	0.195596
	21.385000	0.083779
	21.390000	-0.074080
	21.395000	0.037737
	21.400000	0.189018
	21.405000	0.073913
	21.410000	-0.080657
	21.415000	0.034448
	21.420000	0.182441
	21.425000	0.070624
	21.430000	-0.087234
	21.435000	0.027871
	21.440000	0.179152
	21.445000	0.064047
	21.450000	-0.087234
	21.455000	0.027871
	21.460000	0.182441
	21.465000	0.070624
	21.470000	-0.087234
	21.475000	0.027871
	21.480000	0.182441
	21.485000	0.064047
	21.490000	-0.083946
	21.495000	0.031160
	21.500000	0.182441
	21.505000	0.064047
	21.510000	-0.087234
	21.515000	0.027871
	21.520000	0.179152
	21.525000	0.064047
	21.530000	-0.093812
	21.535000	0.021293
	21.540000	0.175863
	21.545000	0.057469
	21.550000	-0.097101
	21.555000	0.021293
	21.560000	0.175863
	21.565000	0.057469
	21.570000	-0.093812
	21.575000	0.014716
	21.580000	0.172575
	21.585000	0.054181
	21.590000	-0.103678
	21.595000	0.018005
	21.600000	0.172575
	21.605000	0.050892
	21.610000	-0.097101
	21.615000	0.014716
	21.620000	0.165997
	21.625000	0.047603
	21.630000	-0.103678
	21.635000	0.018005
	21.640000	0.169286
	21.645000	0.047603
	21.650000	-0.103678
	21.655000	0.014716
	21.660000	0.165997
	21.665000	0.047603
	21.670000	-0.103678
	21.675000	0.011427
	21.680000	0.162708
	21.685000	0.047603
	21.690000	-0.106967
	21.695000	0.018005
	21.700000	0.159420
	21.705000	0.047603
	21.710000	-0.106967
	21.715000	0.014716
	21.720000	0.159420
	21.725000	0.044314
	21.730000	-0.106967
	21.735000	0.011427
	21.740000	0.162708
	21.745000	0.037737
	21.750000	-0.106967
	21.755000	0.011427
	21.760000	0.162708
	21.765000	0.041026
	21.770000	-0.110256
	21.775000	0.014716
	21.780000	0.165997
	21.785000	0.044314
	21.790000	-0.103678
	21.795000	0.011427
	21.800000	0.162708
	21.805000	0.044314
	21.810000	-0.110256
	21.815000	0.014716
	21.820000	0.162708
	21.825000	0.044314
	21.830000	-0.110256
	21.835000	0.014716
	21.840000	0.159420
	21.845000	0.041026
	21.850000	-0.106967
	21.855000	0.014716
	21.860000	0.159420
	21.865000	0.037737
	21.870000	-0.113544
	21.875000	0.011427
	21.880000	0.162708
	21.885000	0.044314
	21.890000	-0.113544
	21.895000	0.014716
	21.900000	0.156131
	21.905000	0.037737
	21.910000	-0.106967
	21.915000	0.014716
	21.920000	0.162708
	21.925000	0.037737
	21.930000	-0.110256
	21.935000	0.014716
	21.940000	0.159420
	21.945000	0.041026
	21.950000	-0.106967
	21.955000	0.011427
	21.960000	0.156131
	21.965000	0.034448
	21.970000	-0.113544
	21.975000	0.014716
	21.980000	0.162708
	21.985000	0.037737
	21.990000	-0.110256
	21.995000	0.014716
	22.000000	0.165997
	22.005000	0.037737
	22.010000	-0.106967
	22.015000	0.014716
	22.020000	0.159420
	22.025000	0.037737
	22.030000	-0.110256
	22.035000	0.018005
	22.040000	0.159420
	22.045000	0.037737
	22.050000	-0.113544
	22.055000	0.018005
	22.060000	0.162708
	22.065000	0.031160
	22.070000	-0.110256
	22.075000	0.018005
	22.080000	0.159420
	22.085000	0.034448
	22.090000	-0.113544
	22.095000	0.011427
	22.100000	0.156131
	22.105000	0.031160
	22.110000	-0.113544
	22.115000	0.014716
	22.120000	0.156131
	22.125000	0.024582
	22.130000	-0.110256
	22.135000	0.008138
	22.140000	0.156131
	22.145000	0.027871
	22.150000	-0.113544
	22.155000	0.014716
	22.160000	0.159420
	22.165000	0.034448
	22.170000	-0.106967
	22.175000	0.018005
	22.180000	0.159420
	22.185000	0.031160
	22.190000	-0.106967
	22.195000	0.024582
	22.200000	0.162708
	22.205000	0.037737
	22.210000	-0.097101
	22.215000	0.027871
	22.220000	0.169286
	22.225000	0.041026
	22.230000	-0.097101
	22.235000	0.027871
	22.240000	0.165997
	22.245000	0.041026
	22.250000	-0.093812
	22.255000	0.031160
	22.260000	0.165997
	22.265000	0.037737
	22.270000	-0.090523
	22.275000	0.031160
	22.280000	0.162708
	22.285000	0.041026
	22.290000	-0.087234
	22.295000	0.044314
	22.300000	0.172575
	22.305000	0.044314
	22.310000	-0.080657
	22.315000	0.044314
	22.320000	0.169286
	22.325000	0.044314
	22.330000	-0.077368
	22.335000	0.050892
	22.340000	0.172575
	22.345000	0.054181
	22.350000	-0.070791
	22.355000	0.050892
	22.360000	0.182441
	22.365000	0.057469
	22.370000	-0.067502
	22.375000	0.064047
	22.380000	0.182441
	22.385000	0.054181
	22.390000	-0.064213
	22.395000	0.057469
	22.400000	0.175863
	22.405000	0.050892
	22.410000	-0.067502
	22.415000	0.057469
	22.420000	0.175863
	22.425000	0.054181
	22.430000	-0.064213
	22.435000	0.060758
	22.440000	0.175863
	22.445000	0.047603
	22.450000	-0.064213
	22.455000	0.054181
	22.460000	0.175863
	22.465000	0.054181
	22.470000	-0.067502
	22.475000	0.060758
	22.480000	0.179152
	22.485000	0.054181
	22.490000	-0.057636
	22.495000	0.060758
	22.500000	0.179152
	22.505000	0.057469
	22.510000	-0.057636
	22.515000	0.064047
	22.520000	0.179152
	22.525000	0.054181
	22.530000	-0.057636
	22.535000	0.064047
	22.540000	0.179152
	22.545000	0.054181
	22.550000	-0.057636
	22.555000	0.060758
	22.560000	0.175863
	22.565000	0.054181
	22.570000	-0.057636
	22.575000	0.060758
	22.580000	0.175863
	22.585000	0.057469
	22.590000	-0.054347
	22.595000	0.064047
	22.600000	0.169286
	22.605000	0.050892
	22.610000	-0.054347
	22.615000	0.064047
	22.620000	0.175863
	22.625000	0.047603
	22.630000	-0.054347
	22.635000	0.067335
	22.640000	0.172575
	22.645000	0.054181
	22.650000	-0.057636
	22.655000	0.064047
	22.660000	0.169286
	22.665000	0.050892
	22.670000	-0.054347
	22.675000	0.064047
	22.680000	0.179152
	22.685000	0.054181
	22.690000	-0.057636
	22.695000	0.067335
	22.700000	0.172575
	22.705000	0.050892
	22.710000	-0.057636
	22.715000	0.064047
	22.720000	0.175863
	22.725000	0.047603
	22.730000	-0.060925
	22.735000	0.070624
	22.740000	0.169286
	22.745000	0.044314
	22.750000	-0.057636
	22.755000	0.064047
	22.760000	0.162708
	22.765000	0.050892
	22.770000	-0.064213
	22.775000	0.060758
	22.780000	0.169286
	22.785000	0.047603
	22.790000	-0.060925
	22.795000	0.060758
	22.800000	0.169286
	22.805000	0.041026
	22.810000	-0.064213
	22.815000	0.060758
	22.820000	0.169286
	22.825000	0.044314
	22.830000	-0.064213
	22.835000	0.057469
	22.840000	0.169286
	22.845000	0.041026
	22.850000	-0.060925
	22.855000	0.057469
	22.860000	0.165997
	22.865000	0.041026
	22.870000	-0.064213
	22.875000	0.060758
	22.880000	0.162708
	22.885000	0.041026
	22.890000	-0.060925
	22.895000	0.060758
	22.900000	0.165997
	22.905000	0.044314
	22.910000	-0.064213
	22.915000	0.060758
	22.920000	0.162708
	22.925000	0.044314
	22.930000	-0.057636
	22.935000	0.064047
	22.940000	0.165997
	22.945000	0.037737
	22.950000	-0.067502
	22.955000	0.057469
	22.960000	0.162708
	22.965000	0.037737
	22.970000	-0.067502
	22.975000	0.057469
	22.980000	0.159420
	22.985000	0.037737
	22.990000	-0.064213
	22.995000	0.057469
	23.000000	0.159420
	23.005000	0.037737
	23.010000	-0.064213
	23.015000	0.050892
	23.020000	0.156131
	23.025000	0.037737
	23.030000	-0.070791
	23.035000	0.057469
	23.040000	0.162708
	23.045000	0.034448
	23.050000	-0.064213
	23.055000	0.057469
	23.060000	0.165997
	23.065000	0.037737
	23.070000	-0.064213
	23.075000	0.057469
	23.080000	0.159420
	23.085000	0.034448
	23.090000	-0.067502
	23.095000	0.060758
	23.100000	0.162708
	23.105000	0.037737
	23.110000	-0.064213
	23.115000	0.064047
	23.120000	0.162708
	23.125000	0.037737
	23.130000	-0.067502
	23.135000	0.060758
	23.140000	0.162708
	23.145000	0.031160
	23.150000	-0.070791
	23.155000	0.057469
	23.160000	0.159420
	23.165000	0.027871
	23.170000	-0.067502
	23.175000	0.057469
	23.180000	0.156131
	23.185000	0.031160
	23.190000	-0.070791
	23.195000	0.054181
	23.200000	0.156131
	23.205000	0.031160
	23.210000	-0.067502
	23.215000	0.060758
	23.220000	0.159420
	23.225000	0.024582
	23.230000	-0.067502
	23.235000	0.054181
	23.240000	0.149554
	23.245000	0.024582
	23.250000	-0.074080
	23.255000	0.050892
	23.260000	0.149554
	23.265000	0.024582
	23.270000	-0.077368
	23.275000	0.050892
	23.280000	0.146265
	23.285000	0.024582
	23.290000	-0.077368
	23.295000	0.050892
	23.300000	0.149554
	23.305000	0.024582
	23.310000	-0.080657
	23.315000	0.050892
	23.320000	0.149554
	23.325000	0.024582
	23.330000	-0.077368
	23.335000	0.050892
	23.340000	0.149554
	23.345000	0.021293
	23.350000	-0.067502
	23.355000	0.057469
	23.360000	0.159420
	23.365000	0.024582
	23.370000	-0.070791
	23.375000	0.057469
	23.380000	0.149554
	23.385000	0.024582
	23.390000	-0.077368
	23.395000	0.057469
	23.400000	0.149554
	23.405000	0.027871
	23.410000	-0.074080
	23.415000	0.054181
	23.420000	0.152842
	23.425000	0.024582
	23.430000	-0.074080
	23.435000	0.057469
	23.440000	0.152842
	23.445000	0.024582
	23.450000	-0.070791
	23.455000	0.050892
	23.460000	0.152842
	23.465000	0.024582
	23.470000	-0.070791
	23.475000	0.054181
	23.480000	0.156131
	23.485000	0.031160
	23.490000	-0.070791
	23.495000	0.064047
	23.500000	0.156131
	23.505000	0.027871
	23.510000	-0.074080
	23.515000	0.057469
	23.520000	0.159420
	23.525000	0.027871
	23.530000	-0.070791
	23.535000	0.060758
	23.540000	0.156131
	23.545000	0.021293
	23.550000	-0.064213
	23.555000	0.064047
	23.560000	0.156131
	23.565000	0.024582
	23.570000	-0.070791
	23.575000	0.057469
	23.580000	0.156131
	23.585000	0.024582
	23.590000	-0.070791
	23.595000	0.057469
	23.600000	0.152842
	23.605000	0.021293
	23.610000	-0.067502
	23.615000	0.060758
	23.620000	0.156131
	23.625000	0.021293
	23.630000	-0.064213
	23.635000	0.064047
	23.640000	0.156131
	23.645000	0.031160
	23.650000	-0.067502
	23.655000	0.064047
	23.660000	0.159420
	23.665000	0.024582
	23.670000	-0.070791
	23.675000	0.060758
	23.680000	0.152842
	23.685000	0.021293
	23.690000	-0.074080
	23.695000	0.060758
	23.700000	0.152842
	23.705000	0.021293
	23.710000	-0.074080
	23.715000	0.060758
	23.720000	0.149554
	23.725000	0.021293
	23.730000	-0.070791
	23.735000	0.057469
	23.740000	0.152842
	23.745000	0.021293
	23.750000	-0.077368
	23.755000	0.064047
	23.760000	0.156131
	23.765000	0.021293
	23.770000	-0.074080
	23.775000	0.057469
	23.780000	0.156131
	23.785000	0.014716
	23.790000	-0.070791
	23.795000	0.064047
	23.800000	0.152842
	23.805000	0.014716
	23.810000	-0.074080
	23.815000	0.057469
	23.820000	0.152842
	23.825000	0.018005
	23.830000	-0.070791
	23.835000	0.060758
	23.840000	0.152842
	23.845000	0.014716
	23.850000	-0.077368
	23.855000	0.064047
	23.860000	0.149554
	23.865000	0.014716
	23.870000	-0.070791
	23.875000	0.064047
	23.880000	0.152842
	23.885000	0.014716
	23.890000	-0.067502
	23.895000	0.060758
	23.900000	0.156131
	23.905000	0.018005
	23.910000	-0.074080
	23.915000	0.060758
	23.920000	0.152842
	23.925000	0.014716
	23.930000	-0.077368
	23.935000	0.060758
	23.940000	0.149554
	23.945000	0.014716
	23.950000	-0.074080
	23.955000	0.060758
	23.960000	0.152842
	23.965000	0.011427
	23.970000	-0.070791
	23.975000	0.060758
	23.980000	0.149554
	23.985000	0.014716
	23.990000	-0.077368
	23.995000	0.064047
	24.000000	0.146265
	24.005000	0.014716
	24.010000	-0.070791
	24.015000	0.064047
	24.020000	0.146265
	24.025000	0.011427
	24.030000	-0.074080
	24.035000	0.064047
	24.040000	0.146265
	24.045000	0.008138
	24.050000	-0.070791
	24.055000	0.054181
	24.060000	0.146265
	24.065000	0.008138
	24.070000	-0.077368
	24.075000	0.057469
	24.080000	0.142976
	24.085000	0.011427
	24.090000	-0.077368
	24.095000	0.060758
	24.100000	0.142976
	24.105000	0.011427
	24.110000	-0.077368
	24.115000	0.057469
	24.120000	0.146265
	24.125000	0.004850
	24.130000	-0.080657
	24.135000	0.057469
	24.140000	0.146265
	24.145000	0.001561
	24.150000	-0.077368
	24.155000	0.060758
	24.160000	0.136399
	24.165000	0.004850
	24.170000	-0.080657
	24.175000	0.057469
	24.180000	0.139687
	24.185000	0.004850
	24.190000	-0.080657
	24.195000	0.057469
	24.200000	0.133110
	24.205000	0.001561
	24.210000	-0.083946
	24.215000	0.054181
	24.220000	0.142976
	24.225000	-0.001728
	24.230000	-0.083946
	24.235000	0.057469
	24.240000	0.133110
	24.245000	0.001561
	24.250000	-0.083946
	24.255000	0.054181
	24.260000	0.139687
	24.265000	-0.001728
	24.270000	-0.087234
	24.275000	0.057469
	24.280000	0.136399
	24.285000	0.001561
	24.290000	-0.080657
	24.295000	0.054181
	24.300000	0.136399
	24.305000	-0.001728
	24.310000	-0.080657
	24.315000	0.060758
	24.320000	0.142976
	24.325000	0.001561
	24.330000	-0.083946
	24.335000	0.057469
	24.340000	0.142976
	24.345000	-0.001728
	24.350000	-0.083946
	24.355000	0.057469
	24.360000	0.136399
	24.365000	-0.001728
	24.370000	-0.080657
	24.375000	0.057469
	24.380000	0.133110
	24.385000	-0.001728
	24.390000	-0.080657
	24.395000	0.057469
	24.400000	0.139687
	24.405000	0.001561
	24.410000	-0.083946
	24.415000	0.057469
	24.420000	0.136399
	24.425000	-0.001728
	24.430000	-0.083946
	24.435000	0.054181
	24.440000	0.136399
	24.445000	-0.008305
	24.450000	-0.083946
	24.455000	0.057469
	24.460000	0.136399
	24.465000	-0.005016
	24.470000	-0.087234
	24.475000	0.057469
	24.480000	0.133110
	24.485000	-0.008305
	24.490000	-0.080657
	24.495000	0.054181
	24.500000	0.136399
	24.505000	-0.005016
	24.510000	-0.080657
	24.515000	0.057469
	24.520000	0.136399
	24.525000	-0.005016
	24.530000	-0.087234
	24.535000	0.057469
	24.540000	0.133110
	24.545000	-0.008305
	24.550000	-0.090523
	24.555000	0.057469
	24.560000	0.133110
	24.565000	-0.008305
	24.570000	-0.083946
	24.575000	0.054181
	24.580000	0.136399
	24.585000	-0.011594
	24.590000	-0.080657
	24.595000	0.054181
	24.600000	0.133110
	24.605000	-0.008305
	24.610000	-0.087234
	24.615000	0.057469
	24.620000	0.133110
	24.625000	-0.011594
	24.630000	-0.087234
	24.635000	0.054181
	24.640000	0.136399
	24.645000	-0.011594
	24.650000	-0.083946
	24.655000	0.054181
	24.660000	0.133110
	24.665000	-0.014883
	24.670000	-0.087234
	24.675000	0.050892
	24.680000	0.129821
	24.685000	-0.011594
	24.690000	-0.083946
	24.695000	0.054181
	24.700000	0.129821
	24.705000	-0.014883
	24.710000	-0.087234
	24.715000	0.054181
	24.720000	0.129821
	24.725000	-0.011594
	24.730000	-0.083946
	24.735000	0.054181
	24.740000	0.129821
	24.745000	-0.011594
	24.750000	-0.083946
	24.755000	0.057469
	24.760000	0.129821
	24.765000	-0.018171
	24.770000	-0.087234
	24.775000	0.057469
	24.780000	0.133110
	24.785000	-0.014883
	24.790000	-0.083946
	24.795000	0.057469
	24.800000	0.126533
	24.805000	-0.024749
	24.810000	-0.087234
	24.815000	0.054181
	24.820000	0.129821
	24.825000	-0.014883
	24.830000	-0.087234
	24.835000	0.054181
	24.840000	0.123244
	24.845000	-0.014883
	24.850000	-0.090523
	24.855000	0.054181
	24.860000	0.129821
	24.865000	-0.018171
	24.870000	-0.090523
	24.875000	0.057469
	24.880000	0.129821
	24.885000	-0.018171
	24.890000	-0.087234
	24.895000	0.054181
	24.900000	0.129821
	24.905000	-0.018171
	24.910000	-0.090523
	24.915000	0.057469
	24.920000	0.123244
	24.925000	-0.021460
	24.930000	-0.090523
	24.935000	0.057469
	24.940000	0.123244
	24.945000	-0.018171
	24.950000	-0.090523
	24.955000	0.060758
	24.960000	0.123244
	24.965000	-0.024749
	24.970000	-0.090523
	24.975000	0.054181
	24.980000	0.123244
	24.985000	-0.028037
	24.990000	-0.093812
	24.995000	0.054181
	25.000000	0.116666
	25.005000	-0.024749
	25.010000	-0.090523
	25.015000	0.054181
	25.020000	0.116666
	25.025000	-0.028037
	25.030000	-0.093812
	25.035000	0.054181
	25.040000	0.119955
	25.045000	-0.021460
	25.050000	-0.090523
	25.055000	0.054181
	25.060000	0.119955
	25.065000	-0.031326
	25.070000	-0.093812
	25.075000	0.054181
	25.080000	0.119955
	25.085000	-0.024749
	25.090000	-0.093812
	25.095000	0.054181
	25.100000	0.119955
	25.105000	-0.024749
	25.110000	-0.090523
	25.115000	0.054181
	25.120000	0.119955
	25.125000	-0.024749
	25.130000	-0.093812
	25.135000	0.054181
	25.140000	0.123244
	25.145000	-0.028037
	25.150000	-0.093812
	25.155000	0.054181
	25.160000	0.123244
	25.165000	-0.028037
	25.170000	-0.090523
	25.175000	0.054181
	25.180000	0.126533
	25.185000	-0.031326
	25.190000	-0.090523
	25.195000	0.057469
	25.200000	0.119955
	25.205000	-0.028037
	25.210000	-0.090523
	25.215000	0.054181
	25.220000	0.123244
	25.225000	-0.028037
	25.230000	-0.097101
	25.235000	0.057469
	25.240000	0.113378
	25.245000	-0.028037
	25.250000	-0.093812
	25.255000	0.054181
	25.260000	0.119955
	25.265000	-0.028037
	25.270000	-0.090523
	25.275000	0.050892
	25.280000	0.116666
	25.285000	-0.031326
	25.290000	-0.093812
	25.295000	0.054181
	25.300000	0.116666
	25.305000	-0.034615
	25.310000	-0.093812
	25.315000	0.050892
	25.320000	0.119955
	25.325000	-0.034615
	25.330000	-0.097101
	25.335000	0.057469
	25.340000	0.116666
	25.345000	-0.037904
	25.350000	-0.093812
	25.355000	0.050892
	25.360000	0.116666
	25.365000	-0.037904
	25.370000	-0.093812
	25.375000	0.050892
	25.380000	0.116666
	25.385000	-0.034615
	25.390000	-0.100389
	25.395000	0.050892
	25.400000	0.113378
	25.405000	-0.034615
	25.410000	-0.093812
	25.415000	0.054181
	25.420000	0.116666
	25.425000	-0.034615
	25.430000	-0.093812
	25.435000	0.054181
	25.440000	0.116666
	25.445000	-0.031326
	25.450000	-0.093812
	25.455000	0.050892
	25.460000	0.116666
	25.465000	-0.031326
	25.470000	-0.087234
	25.475000	0.064047
	25.480000	0.116666
	25.485000	-0.034615
	25.490000	-0.093812
	25.495000	0.057469
	25.500000	0.116666
	25.505000	-0.031326
	25.510000	-0.090523
	25.515000	0.060758
	25.520000	0.123244
	25.525000	-0.028037
	25.530000	-0.083946
	25.535000	0.060758
	25.540000	0.123244
	25.545000	-0.028037
	25.550000	-0.090523
	25.555000	0.067335
	25.560000	0.126533
	25.565000	-0.028037
	25.570000	-0.087234
	25.575000	0.067335
	25.580000	0.123244
	25.585000	-0.028037
	25.590000	-0.087234
	25.595000	0.064047
	25.600000	0.123244
	25.605000	-0.028037
	25.610000	-0.083946
	25.615000	0.064047
	25.620000	0.123244
	25.625000	-0.028037
	25.630000	-0.087234
	25.635000	0.064047
	25.640000	0.123244
	25.645000	-0.034615
	25.650000	-0.087234
	25.655000	0.067335
	25.660000	0.123244
	25.665000	-0.031326
	25.670000	-0.087234
	25.675000	0.064047
	25.680000	0.126533
	25.685000	-0.031326
	25.690000	-0.090523
	25.695000	0.067335
	25.700000	0.116666
	25.705000	-0.028037
	25.710000	-0.090523
	25.715000	0.064047
	25.720000	0.123244
	25.725000	-0.034615
	25.730000	-0.087234
	25.735000	0.064047
	25.740000	0.119955
	25.745000	-0.031326
	25.750000	-0.090523
	25.755000	0.067335
	25.760000	0.123244
	25.765000	-0.034615
	25.770000	-0.090523
	25.775000	0.067335
	25.780000	0.116666
	25.785000	-0.037904
	25.790000	-0.093812
	25.795000	0.060758
	25.800000	0.113378
	25.805000	-0.041192
	25.810000	-0.093812
	25.815000	0.057469
	25.820000	0.119955
	25.825000	-0.041192
	25.830000	-0.093812
	25.835000	0.067335
	25.840000	0.126533
	25.845000	-0.031326
	25.850000	-0.083946
	25.855000	0.077202
	25.860000	0.139687
	25.865000	-0.021460
	25.870000	-0.070791
	25.875000	0.090357
	25.880000	0.142976
	25.885000	-0.021460
	25.890000	-0.074080
	25.895000	0.083779
	25.900000	0.139687
	25.905000	-0.028037
	25.910000	-0.080657
	25.915000	0.083779
	25.920000	0.139687
	25.925000	-0.028037
	25.930000	-0.083946
	25.935000	0.077202
	25.940000	0.126533
	25.945000	-0.041192
	25.950000	-0.097101
	25.955000	0.070624
	25.960000	0.126533
	25.965000	-0.047770
	25.970000	-0.097101
	25.975000	0.070624
	25.980000	0.126533
	25.985000	-0.047770
	25.990000	-0.097101
	25.995000	0.070624
	26.000000	0.133110
	26.005000	-0.041192
	26.010000	-0.100389
	26.015000	0.067335
	26.020000	0.126533
	26.025000	-0.051059
	26.030000	-0.110256
	26.035000	0.060758
	26.040000	0.119955
	26.045000	-0.054347
	26.050000	-0.120122
	26.055000	0.054181
	26.060000	0.110089
	26.065000	-0.064213
	26.070000	-0.120122
	26.075000	0.054181
	26.080000	0.116666
	26.085000	-0.057636
	26.090000	-0.120122
	26.095000	0.057469
	26.100000	0.123244
	26.105000	-0.051059
	26.110000	-0.113544
	26.115000	0.064047
	26.120000	0.129821
	26.125000	-0.044481
	26.130000	-0.106967
	26.135000	0.073913
	26.140000	0.129821
	26.145000	-0.044481
	26.150000	-0.100389
	26.155000	0.073913
	26.160000	0.136399
	26.165000	-0.041192
	26.170000	-0.103678
	26.175000	0.077202
	26.180000	0.133110
	26.185000	-0.041192
	26.190000	-0.103678
	26.195000	0.073913
	26.200000	0.139687
	26.205000	-0.041192
	26.210000	-0.103678
	26.215000	0.087068
	26.220000	0.146265
	26.225000	-0.028037
	26.230000	-0.083946
	26.235000	0.093645
	26.240000	0.159420
	26.245000	-0.021460
	26.250000	-0.080657
	26.255000	0.096934
	26.260000	0.162708
	26.265000	-0.011594
	26.270000	-0.077368
	26.275000	0.103511
	26.280000	0.169286
	26.285000	-0.011594
	26.290000	-0.067502
	26.295000	0.103511
	26.300000	0.172575
	26.305000	-0.008305
	26.310000	-0.067502
	26.315000	0.116666
	26.320000	0.172575
	26.325000	-0.008305
	26.330000	-0.064213
	26.335000	0.116666
	26.340000	0.179152
	26.345000	-0.001728
	26.350000	-0.060925
	26.355000	0.119955
	26.360000	0.182441
	26.365000	-0.001728
	26.370000	-0.060925
	26.375000	0.123244
	26.380000	0.182441
	26.385000	0.001561
	26.390000	-0.057636
	26.395000	0.126533
	26.400000	0.182441
	26.405000	0.001561
	26.410000	-0.057636
	26.415000	0.126533
	26.420000	0.189018
	26.425000	0.004850
	26.430000	-0.054347
	26.435000	0.123244
	26.440000	0.189018
	26.445000	0.001561
	26.450000	-0.054347
	26.455000	0.133110
	26.460000	0.185730
	26.465000	-0.005016
	26.470000	-0.057636
	26.475000	0.119955
	26.480000	0.179152
	26.485000	-0.011594
	26.490000	-0.060925
	26.495000	0.116666
	26.500000	0.172575
	26.505000	-0.011594
	26.510000	-0.067502
	26.515000	0.113378
	26.520000	0.169286
	26.525000	-0.014883
	26.530000	-0.074080
	26.535000	0.116666
	26.540000	0.165997
	26.545000	-0.014883
	26.550000	-0.074080
	26.555000	0.106800
	26.560000	0.159420
	26.565000	-0.028037
	26.570000	-0.083946
	26.575000	0.103511
	26.580000	0.159420
	26.585000	-0.028037
	26.590000	-0.077368
	26.595000	0.106800
	26.600000	0.165997
	26.605000	-0.028037
	26.610000	-0.083946
	26.615000	0.106800
	26.620000	0.162708
	26.625000	-0.031326
	26.630000	-0.080657
	26.635000	0.106800
	26.640000	0.156131
	26.645000	-0.024749
	26.650000	-0.077368
	26.655000	0.110089
	26.660000	0.162708
	26.665000	-0.024749
	26.670000	-0.077368
	26.675000	0.113378
	26.680000	0.169286
	26.685000	-0.028037
	26.690000	-0.074080
	26.695000	0.116666
	26.700000	0.169286
	26.705000	-0.014883
	26.710000	-0.070791
	26.715000	0.116666
	26.720000	0.172575
	26.725000	-0.014883
	26.730000	-0.064213
	26.735000	0.123244
	26.740000	0.182441
	26.745000	-0.011594
	26.750000	-0.064213
	26.755000	0.129821
	26.760000	0.179152
	26.765000	-0.008305
	26.770000	-0.060925
	26.775000	0.129821
	26.780000	0.179152
	26.785000	-0.011594
	26.790000	-0.060925
	26.795000	0.129821
	26.800000	0.179152
	26.805000	-0.008305
	26.810000	-0.054347
	26.815000	0.129821
	26.820000	0.182441
	26.825000	-0.005016
	26.830000	-0.054347
	26.835000	0.129821
	26.840000	0.179152
	26.845000	-0.008305
	26.850000	-0.054347
	26.855000	0.136399
	26.860000	0.179152
	26.865000	-0.005016
	26.870000	-0.047770
	26.875000	0.142976
	26.880000	0.189018
	26.885000	-0.001728
	26.890000	-0.044481
	26.895000	0.149554
	26.900000	0.198884
	26.905000	0.008138
	26.910000	-0.037904
	26.915000	0.149554
	26.920000	0.195596
	26.925000	0.011427
	26.930000	-0.031326
	26.935000	0.149554
	26.940000	0.195596
	26.945000	0.011427
	26.950000	-0.034615
	26.955000	0.149554
	26.960000	0.195596
	26.965000	0.001561
	26.970000	-0.034615
	26.975000	0.149554
	26.980000	0.189018
	26.985000	-0.001728
	26.990000	-0.041192
	26.995000	0.146265
	27.000000	0.189018
	27.005000	-0.005016
	27.010000	-0.044481
	27.015000	0.136399
	27.020000	0.179152
	27.025000	-0.014883
	27.030000	-0.051059
	27.035000	0.139687
	27.040000	0.175863
	27.045000	-0.011594
	27.050000	-0.054347
	27.055000	0.129821
	27.060000	0.175863
	27.065000	-0.021460
	27.070000	-0.051059
	27.075000	0.133110
	27.080000	0.172575
	27.085000	-0.018171
	27.090000	-0.057636
	27.095000	0.136399
	27.100000	0.169286
	27.105000	-0.018171
	27.110000	-0.060925
	27.115000	0.133110
	27.120000	0.169286
	27.125000	-0.018171
	27.130000	-0.064213
	27.135000	0.126533
	27.140000	0.165997
	27.145000	-0.031326
	27.150000	-0.064213
	27.155000	0.119955
	27.160000	0.162708
	27.165000	-0.031326
	27.170000	-0.070791
	27.175000	0.116666
	27.180000	0.156131
	27.185000	-0.031326
	27.190000	-0.074080
	27.195000	0.116666
	27.200000	0.149554
	27.205000	-0.034615
	27.210000	-0.074080
	27.215000	0.113378
	27.220000	0.152842
	27.225000	-0.041192
	27.230000	-0.070791
	27.235000	0.106800
	27.240000	0.139687
	27.245000	-0.051059
	27.250000	-0.083946
	27.255000	0.106800
	27.260000	0.139687
	27.265000	-0.054347
	27.270000	-0.083946
	27.275000	0.096934
	27.280000	0.133110
	27.285000	-0.057636
	27.290000	-0.093812
	27.295000	0.090357
	27.300000	0.129821
	27.305000	-0.064213
	27.310000	-0.090523
	27.315000	0.090357
	27.320000	0.123244
	27.325000	-0.070791
	27.330000	-0.097101
	27.335000	0.090357
	27.340000	0.123244
	27.345000	-0.064213
	27.350000	-0.100389
	27.355000	0.083779
	27.360000	0.116666
	27.365000	-0.070791
	27.370000	-0.110256
	27.375000	0.083779
	27.380000	0.116666
	27.385000	-0.077368
	27.390000	-0.103678
	27.395000	0.083779
	27.400000	0.116666
	27.405000	-0.074080
	27.410000	-0.106967
	27.415000	0.083779
	27.420000	0.116666
	27.425000	-0.077368
	27.430000	-0.103678
	27.435000	0.087068
	27.440000	0.110089
	27.445000	-0.077368
	27.450000	-0.100389
	27.455000	0.083779
	27.460000	0.113378
	27.465000	-0.077368
	27.470000	-0.106967
	27.475000	0.083779
	27.480000	0.116666
	27.485000	-0.080657
	27.490000	-0.103678
	27.495000	0.083779
	27.500000	0.110089
	27.505000	-0.080657
	27.510000	-0.110256
	27.515000	0.083779
	27.520000	0.106800
	27.525000	-0.083946
	27.530000	-0.110256
	27.535000	0.080490
	27.540000	0.113378
	27.545000	-0.080657
	27.550000	-0.106967
	27.555000	0.083779
	27.560000	0.106800
	27.565000	-0.077368
	27.570000	-0.103678
	27.575000	0.083779
	27.580000	0.113378
	27.585000	-0.080657
	27.590000	-0.103678
	27.595000	0.083779
	27.600000	0.116666
	27.605000	-0.077368
	27.610000	-0.097101
	27.615000	0.096934
	27.620000	0.116666
	27.625000	-0.074080
	27.630000	-0.097101
	27.635000	0.093645
	27.640000	0.116666
	27.645000	-0.070791
	27.650000	-0.090523
	27.655000	0.103511
	27.660000	0.119955
	27.665000	-0.070791
	27.670000	-0.093812
	27.675000	0.100223
	27.680000	0.123244
	27.685000	-0.067502
	27.690000	-0.090523
	27.695000	0.100223
	27.700000	0.123244
	27.705000	-0.064213
	27.710000	-0.090523
	27.715000	0.103511
	27.720000	0.126533
	27.725000	-0.067502
	27.730000	-0.093812
	27.735000	0.103511
	27.740000	0.123244
	27.745000	-0.070791
	27.750000	-0.093812
	27.755000	0.100223
	27.760000	0.116666
	27.765000	-0.077368
	27.770000	-0.100389
	27.775000	0.096934
	27.780000	0.116666
	27.785000	-0.083946
	27.790000	-0.097101
	27.795000	0.093645
	27.800000	0.110089
	27.805000	-0.080657
	27.810000	-0.106967
	27.815000	0.090357
	27.820000	0.106800
	27.825000	-0.083946
	27.830000	-0.106967
	27.835000	0.090357
	27.840000	0.106800
	27.845000	-0.080657
	27.850000	-0.103678
	27.855000	0.090357
	27.860000	0.100223
	27.865000	-0.090523
	27.870000	-0.106967
	27.875000	0.083779
	27.880000	0.103511
	27.885000	-0.090523
	27.890000	-0.106967
	27.895000	0.087068
	27.900000	0.100223
	27.905000	-0.090523
	27.910000	-0.103678
	27.915000	0.090357
	27.920000	0.103511
	27.925000	-0.090523
	27.930000	-0.103678
	27.935000	0.087068
	27.940000	0.106800
	27.945000	-0.090523
	27.950000	-0.106967
	27.955000	0.087068
	27.960000	0.100223
	27.965000	-0.093812
	27.970000	-0.106967
	27.975000	0.087068
	27.980000	0.103511
	27.985000	-0.087234
	27.990000	-0.106967
	27.995000	0.090357
	28.000000	0.103511
	28.005000	-0.093812
	28.010000	-0.106967
	28.015000	0.090357
	28.020000	0.100223
	28.025000	-0.093812
	28.030000	-0.110256
	28.035000	0.087068
	28.040000	0.096934
	28.045000	-0.093812
	28.050000	-0.103678
	28.055000	0.093645
	28.060000	0.100223
	28.065000	-0.090523
	28.070000	-0.110256
	28.075000	0.093645
	28.080000	0.100223
	28.085000	-0.093812
	28.090000	-0.106967
	28.095000	0.087068
	28.100000	0.096934
	28.105000	-0.097101
	28.110000	-0.106967
	28.115000	0.093645
	28.120000	0.100223
	28.125000	-0.097101
	28.130000	-0.103678
	28.135000	0.090357
	28.140000	0.100223
	28.145000	-0.100389
	28.150000	-0.100389
	28.155000	0.087068
	28.160000	0.096934
	28.165000	-0.093812
	28.170000	-0.100389
	28.175000	0.090357
	28.180000	0.096934
	28.185000	-0.090523
	28.190000	-0.100389
	28.195000	0.093645
	28.200000	0.096934
	28.205000	-0.093812
	28.210000	-0.103678
	28.215000	0.093645
	28.220000	0.096934
	28.225000	-0.097101
	28.230000	-0.100389
	28.235000	0.087068
	28.240000	0.100223
	28.245000	-0.097101
	28.250000	-0.100389
	28.255000	0.096934
	28.260000	0.096934
	28.265000	-0.093812
	28.270000	-0.100389
	28.275000	0.096934
	28.280000	0.096934
	28.285000	-0.093812
	28.290000	-0.100389
	28.295000	0.096934
	28.300000	0.096934
	28.305000	-0.097101
	28.310000	-0.097101
	28.315000	0.096934
	28.320000	0.100223
	28.325000	-0.097101
	28.330000	-0.097101
	28.335000	0.093645
	28.340000	0.100223
	28.345000	-0.093812
	28.350000	-0.097101
	28.355000	0.093645
	28.360000	0.096934
	28.365000	-0.093812
	28.370000	-0.097101
	28.375000	0.096934
	28.380000	0.093645
	28.385000	-0.097101
	28.390000	-0.097101
	28.395000	0.100223
	28.400000	0.096934
	28.405000	-0.093812
	28.410000	-0.090523
	28.415000	0.096934
	28.420000	0.100223
	28.425000	-0.100389
	28.430000	-0.090523
	28.435000	0.096934
	28.440000	0.100223
	28.445000	-0.097101
	28.450000	-0.093812
	28.455000	0.100223
	28.460000	0.096934
	28.465000	-0.093812
	28.470000	-0.093812
	28.475000	0.096934
	28.480000	0.096934
	28.485000	-0.090523
	28.490000	-0.090523
	28.495000	0.100223
	28.500000	0.096934
	28.505000	-0.093812
	28.510000	-0.093812
	28.515000	0.096934
	28.520000	0.096934
	28.525000	-0.097101
	28.530000	-0.090523
	28.535000	0.100223
	28.540000	0.096934
	28.545000	-0.100389
	28.550000	-0.097101
	28.555000	0.106800
	28.560000	0.096934
	28.565000	-0.097101
	28.570000	-0.090523
	28.575000	0.106800
	28.580000	0.093645
	28.585000	-0.097101
	28.590000	-0.090523
	28.595000	0.100223
	28.600000	0.096934
	28.605000	-0.090523
	28.610000	-0.083946
	28.615000	0.103511
	28.620000	0.093645
	28.625000	-0.093812
	28.630000	-0.090523
	28.635000	0.106800
	28.640000	0.100223
	28.645000	-0.100389
	28.650000	-0.087234
	28.655000	0.113378
	28.660000	0.096934
	28.665000	-0.093812
	28.670000	-0.087234
	28.675000	0.106800
	28.680000	0.096934
	28.685000	-0.100389
	28.690000	-0.083946
	28.695000	0.113378
	28.700000	0.103511
	28.705000	-0.093812
	28.710000	-0.080657
	28.715000	0.110089
	28.720000	0.096934
	28.725000	-0.093812
	28.730000	-0.080657
	28.735000	0.113378
	28.740000	0.100223
	28.745000	-0.090523
	28.750000	-0.080657
	28.755000	0.113378
	28.760000	0.100223
	28.765000	-0.090523
	28.770000	-0.077368
	28.775000	0.110089
	28.780000	0.100223
	28.785000	-0.087234
	28.790000	-0.077368
	28.795000	0.113378
	28.800000	0.103511
	28.805000	-0.087234
	28.810000	-0.077368
	28.815000	0.116666
	28.820000	0.103511
	28.825000	-0.083946
	28.830000	-0.074080
	28.835000	0.119955
	28.840000	0.113378
	28.845000	-0.087234
	28.850000	-0.074080
	28.855000	0.123244
	28.860000	0.103511
	28.865000	-0.083946
	28.870000	-0.067502
	28.875000	0.126533
	28.880000	0.110089
	28.885000	-0.087234
	28.890000	-0.064213
	28.895000	0.126533
	28.900000	0.113378
	28.905000	-0.080657
	28.910000	-0.060925
	28.915000	0.129821
	28.920000	0.113378
	28.925000	-0.074080
	28.930000	-0.057636
	28.935000	0.133110
	28.940000	0.113378
	28.945000	-0.074080
	28.950000	-0.060925
	28.955000	0.129821
	28.960000	0.110089
	28.965000	-0.083946
	28.970000	-0.064213
	28.975000	0.129821
	28.980000	0.110089
	28.985000	-0.083946
	28.990000	-0.067502
	28.995000	0.123244
	29.000000	0.106800
	29.005000	-0.087234
	29.010000	-0.060925
	29.015000	0.126533
	29.020000	0.106800
	29.025000	-0.083946
	29.030000	-0.067502
	29.035000	0.133110
	29.040000	0.106800
	29.045000	-0.083946
	29.050000	-0.057636
	29.055000	0.133110
	29.060000	0.110089
	29.065000	-0.080657
	29.070000	-0.060925
	29.075000	0.133110
	29.080000	0.106800
	29.085000	-0.083946
	29.090000	-0.057636
	29.095000	0.133110
	29.100000	0.113378
	29.105000	-0.080657
	29.110000	-0.057636
	29.115000	0.133110
	29.120000	0.113378
	29.125000	-0.083946
	29.130000	-0.054347
	29.135000	0.139687
	29.140000	0.116666
	29.145000	-0.074080
	29.150000	-0.044481
	29.155000	0.142976
	29.160000	0.119955
	29.165000	-0.070791
	29.170000	-0.041192
	29.175000	0.149554
	29.180000	0.126533
	29.185000	-0.064213
	29.190000	-0.041192
	29.195000	0.149554
	29.200000	0.129821
	29.205000	-0.064213
	29.210000	-0.034615
	29.215000	0.152842
	29.220000	0.129821
	29.225000	-0.067502
	29.230000	-0.041192
	29.235000	0.152842
	29.240000	0.129821
	29.245000	-0.064213
	29.250000	-0.037904
	29.255000	0.149554
	29.260000	0.126533
	29.265000	-0.060925
	29.270000	-0.037904
	29.275000	0.156131
	29.280000	0.123244
	29.285000	-0.067502
	29.290000	-0.037904
	29.295000	0.156131
	29.300000	0.129821
	29.305000	-0.067502
	29.310000	-0.041192
	29.315000	0.156131
	29.320000	0.119955
	29.325000	-0.067502
	29.330000	-0.037904
	29.335000	0.152842
	29.340000	0.126533
	29.345000	-0.070791
	29.350000	-0.041192
	29.355000	0.152842
	29.360000	0.123244
	29.365000	-0.080657
	29.370000	-0.051059
	29.375000	0.142976
	29.380000	0.106800
	29.385000	-0.090523
	29.390000	-0.057636
	29.395000	0.136399
	29.400000	0.110089
	29.405000	-0.090523
	29.410000	-0.057636
	29.415000	0.146265
	29.420000	0.110089
	29.425000	-0.087234
	29.430000	-0.051059
	29.435000	0.142976
	29.440000	0.116666
	29.445000	-0.083946
	29.450000	-0.047770
	29.455000	0.149554
	29.460000	0.116666
	29.465000	-0.080657
	29.470000	-0.044481
	29.475000	0.146265
	29.480000	0.116666
	29.485000	-0.087234
	29.490000	-0.051059
	29.495000	0.149554
	29.500000	0.113378
	29.505000	-0.090523
	29.510000	-0.054347
	29.515000	0.149554
	29.520000	0.116666
	29.525000	-0.080657
	29.530000	-0.044481
	29.535000	0.159420
	29.540000	0.126533
	29.545000	-0.074080
	29.550000	-0.031326
	29.555000	0.172575
	29.560000	0.136399
	29.565000	-0.064213
	29.570000	-0.024749
	29.575000	0.172575
	29.580000	0.136399
	29.585000	-0.060925
	29.590000	-0.028037
	29.595000	0.175863
	29.600000	0.136399
	29.605000	-0.064213
	29.610000	-0.021460
	29.615000	0.175863
	29.620000	0.142976
	29.625000	-0.054347
	29.630000	-0.014883
	29.635000	0.185730
	29.640000	0.139687
	29.645000	-0.054347
	29.650000	-0.011594
	29.655000	0.185730
	29.660000	0.142976
	29.665000	-0.060925
	29.670000	-0.021460
	29.675000	0.169286
	29.680000	0.133110
	29.685000	-0.067502
	29.690000	-0.028037
	29.695000	0.162708
	29.700000	0.126533
	29.705000	-0.070791
	29.710000	-0.024749
	29.715000	0.169286
	29.720000	0.129821
	29.725000	-0.064213
	29.730000	-0.018171
	29.735000	0.182441
	29.740000	0.136399
	29.745000	-0.054347
	29.750000	-0.008305
	29.755000	0.189018
	29.760000	0.142976
	29.765000	-0.041192
	29.770000	0.001561
	29.775000	0.198884
	29.780000	0.156131
	29.785000	-0.034615
	29.790000	0.011427
	29.795000	0.205462
	29.800000	0.156131
	29.805000	-0.034615
	29.810000	0.008138
	29.815000	0.198884
	29.820000	0.149554
	29.825000	-0.041192
	29.830000	0.004850
	29.835000	0.198884
	29.840000	0.149554
	29.845000	-0.041192
	29.850000	0.001561
	29.855000	0.192307
	29.860000	0.139687
	29.865000	-0.044481
	29.870000	-0.001728
	29.875000	0.189018
	29.880000	0.139687
	29.885000	-0.047770
	29.890000	-0.005016
	29.895000	0.185730
	29.900000	0.136399
	29.905000	-0.051059
	29.910000	-0.005016
	29.915000	0.175863
	29.920000	0.129821
	29.925000	-0.060925
	29.930000	-0.008305
	29.935000	0.179152
	29.940000	0.119955
	29.945000	-0.067502
	29.950000	-0.014883
	29.955000	0.172575
	29.960000	0.116666
	29.965000	-0.064213
	29.970000	-0.018171
	29.975000	0.169286
	29.980000	0.110089
	29.985000	-0.074080
	29.990000	-0.021460
	29.995000	0.165997
	30.000000	0.113378
	30.005000	-0.077368
	30.010000	-0.021460
	30.015000	0.169286
	30.020000	0.113378
	30.025000	-0.074080
	30.030000	-0.018171
	30.035000	0.162708
	30.040000	0.110089
	30.045000	-0.077368
	30.050000	-0.024749
	30.055000	0.159420
	30.060000	0.103511
	30.065000	-0.080657
	30.070000	-0.024749
	30.075000	0.159420
	30.080000	0.093645
	30.085000	-0.083946
	30.090000	-0.031326
	30.095000	0.152842
	30.100000	0.096934
	30.105000	-0.090523
	30.110000	-0.034615
	30.115000	0.152842
	30.120000	0.090357
	30.125000	-0.093812
	30.130000	-0.041192
	30.135000	0.139687
	30.140000	0.087068
	30.145000	-0.097101
	30.150000	-0.041192
	30.155000	0.146265
	30.160000	0.087068
	30.165000	-0.103678
	30.170000	-0.041192
	30.175000	0.142976
	30.180000	0.083779
	30.185000	-0.100389
	30.190000	-0.041192
	30.195000	0.142976
	30.200000	0.083779
	30.205000	-0.103678
	30.210000	-0.041192
	30.215000	0.136399
	30.220000	0.077202
	30.225000	-0.110256
	30.230000	-0.044481
	30.235000	0.133110
	30.240000	0.073913
	30.245000	-0.110256
	30.250000	-0.047770
	30.255000	0.133110
	30.260000	0.070624
	30.265000	-0.113544
	30.270000	-0.047770
	30.275000	0.133110
	30.280000	0.070624
	30.285000	-0.113544
	30.290000	-0.041192
	30.295000	0.136399
	30.300000	0.073913
	30.305000	-0.103678
	30.310000	-0.041192
	30.315000	0.136399
	30.320000	0.070624
	30.325000	-0.110256
	30.330000	-0.044481
	30.335000	0.136399
	30.340000	0.070624
	30.345000	-0.110256
	30.350000	-0.041192
	30.355000	0.139687
	30.360000	0.073913
	30.365000	-0.106967
	30.370000	-0.041192
	30.375000	0.139687
	30.380000	0.073913
	30.385000	-0.110256
	30.390000	-0.037904
	30.395000	0.146265
	30.400000	0.073913
	30.405000	-0.106967
	30.410000	-0.037904
	30.415000	0.139687
	30.420000	0.073913
	30.425000	-0.106967
	30.430000	-0.034615
	30.435000	0.142976
	30.440000	0.070624
	30.445000	-0.110256
	30.450000	-0.034615
	30.455000	0.136399
	30.460000	0.070624
	30.465000	-0.113544
	30.470000	-0.041192
	30.475000	0.139687
	30.480000	0.064047
	30.485000	-0.110256
	30.490000	-0.041192
	30.495000	0.139687
	30.500000	0.064047
	30.505000	-0.116833
	30.510000	-0.047770
	30.515000	0.129821
	30.520000	0.064047
	30.525000	-0.116833
	30.530000	-0.044481
	30.535000	0.133110
	30.540000	0.057469
	30.545000	-0.120122
	30.550000	-0.044481
	30.555000	0.129821
	30.560000	0.054181
	30.565000	-0.123410
	30.570000	-0.047770
	30.575000	0.133110
	30.580000	0.057469
	30.585000	-0.120122
	30.590000	-0.041192
	30.595000	0.133110
	30.600000	0.050892
	30.605000	-0.123410
	30.610000	-0.047770
	30.615000	0.133110
	30.620000	0.050892
	30.625000	-0.126699
	30.630000	-0.047770
	30.635000	0.129821
	30.640000	0.050892
	30.645000	-0.126699
	30.650000	-0.047770
	30.655000	0.129821
	30.660000	0.047603
	30.665000	-0.126699
	30.670000	-0.047770
	30.675000	0.126533
	30.680000	0.050892
	30.685000	-0.126699
	30.690000	-0.047770
	30.695000	0.136399
	30.700000	0.047603
	30.705000	-0.129988
	30.710000	-0.047770
	30.715000	0.129821
	30.720000	0.044314
	30.725000	-0.129988
	30.730000	-0.044481
	30.735000	0.126533
	30.740000	0.047603
	30.745000	-0.126699
	30.750000	-0.047770
	30.755000	0.126533
	30.760000	0.044314
	30.765000	-0.129988
	30.770000	-0.044481
	30.775000	0.129821
	30.780000	0.044314
	30.785000	-0.129988
	30.790000	-0.041192
	30.795000	0.129821
	30.800000	0.044314
	30.805000	-0.133277
	30.810000	-0.044481
	30.815000	0.126533
	30.820000	0.041026
	30.825000	-0.133277
	30.830000	-0.047770
	30.835000	0.126533
	30.840000	0.044314
	30.845000	-0.133277
	30.850000	-0.041192
	30.855000	0.129821
	30.860000	0.044314
	30.865000	-0.136565
	30.870000	-0.044481
	30.875000	0.129821
	30.880000	0.041026
	30.885000	-0.126699
	30.890000	-0.047770
	30.895000	0.123244
	30.900000	0.047603
	30.905000	-0.126699
	30.910000	-0.044481
	30.915000	0.129821
	30.920000	0.041026
	30.925000	-0.129988
	30.930000	-0.041192
	30.935000	0.129821
	30.940000	0.047603
	30.945000	-0.136565
	30.950000	-0.041192
	30.955000	0.129821
	30.960000	0.041026
	30.965000	-0.129988
	30.970000	-0.044481
	30.975000	0.129821
	30.980000	0.044314
	30.985000	-0.133277
	30.990000	-0.041192
	30.995000	0.129821
	31.000000	0.037737
	31.005000	-0.133277
	31.010000	-0.037904
	31.015000	0.133110
	31.020000	0.044314
	31.025000	-0.126699
	31.030000	-0.041192
	31.035000	0.133110
	31.040000	0.041026
	31.045000	-0.129988
	31.050000	-0.041192
	31.055000	0.136399
	31.060000	0.037737
	31.065000	-0.133277
	31.070000	-0.041192
	31.075000	0.136399
	31.080000	0.041026
	31.085000	-0.133277
	31.090000	-0.037904
	31.095000	0.133110
	31.100000	0.037737
	31.105000	-0.133277
	31.110000	-0.037904
	31.115000	0.129821
	31.120000	0.034448
	31.125000	-0.133277
	31.130000	-0.034615
	31.135000	0.133110
	31.140000	0.034448
	31.145000	-0.129988
	31.150000	-0.037904
	31.155000	0.129821
	31.160000	0.034448
	31.165000	-0.136565
	31.170000	-0.037904
	31.175000	0.129821
	31.180000	0.034448
	31.185000	-0.129988
	31.190000	-0.034615
	31.195000	0.129821
	31.200000	0.031160
	31.205000	-0.129988
	31.210000	-0.037904
	31.215000	0.129821
	31.220000	0.034448
	31.225000	-0.133277
	31.230000	-0.034615
	31.235000	0.136399
	31.240000	0.037737
	31.245000	-0.133277
	31.250000	-0.034615
	31.255000	0.136399
	31.260000	0.031160
	31.265000	-0.126699
	31.270000	-0.034615
	31.275000	0.129821
	31.280000	0.034448
	31.285000	-0.133277
	31.290000	-0.034615
	31.295000	0.139687
	31.300000	0.031160
	31.305000	-0.129988
	31.310000	-0.034615
	31.315000	0.129821
	31.320000	0.037737
	31.325000	-0.129988
	31.330000	-0.028037
	31.335000	0.136399
	31.340000	0.027871
	31.345000	-0.129988
	31.350000	-0.034615
	31.355000	0.136399
	31.360000	0.031160
	31.365000	-0.129988
	31.370000	-0.031326
	31.375000	0.133110
	31.380000	0.034448
	31.385000	-0.133277
	31.390000	-0.028037
	31.395000	0.136399
	31.400000	0.041026
	31.405000	-0.126699
	31.410000	-0.028037
	31.415000	0.136399
	31.420000	0.034448
	31.425000	-0.129988
	31.430000	-0.028037
	31.435000	0.139687
	31.440000	0.041026
	31.445000	-0.129988
	31.450000	-0.021460
	31.455000	0.139687
	31.460000	0.027871
	31.465000	-0.126699
	31.470000	-0.021460
	31.475000	0.136399
	31.480000	0.034448
	31.485000	-0.126699
	31.490000	-0.021460
	31.495000	0.142976
	31.500000	0.031160
	31.505000	-0.123410
	31.510000	-0.018171
	31.515000	0.146265
	31.520000	0.034448
	31.525000	-0.129988
	31.530000	-0.021460
	31.535000	0.142976
	31.540000	0.031160
	31.545000	-0.129988
	31.550000	-0.014883
	31.555000	0.146265
	31.560000	0.034448
	31.565000	-0.123410
	31.570000	-0.011594
	31.575000	0.142976
	31.580000	0.037737
	31.585000	-0.126699
	31.590000	-0.014883
	31.595000	0.142976
	31.600000	0.037737
	31.605000	-0.123410
	31.610000	-0.014883
	31.615000	0.149554
	31.620000	0.034448
	31.625000	-0.126699
	31.630000	-0.014883
	31.635000	0.142976
	31.640000	0.041026
	31.645000	-0.123410
	31.650000	-0.014883
	31.655000	0.146265
	31.660000	0.034448
	31.665000	-0.123410
	31.670000	-0.014883
	31.675000	0.149554
	31.680000	0.034448
	31.685000	-0.123410
	31.690000	-0.011594
	31.695000	0.152842
	31.700000	0.031160
	31.705000	-0.120122
	31.710000	-0.008305
	31.715000	0.149554
	31.720000	0.037737
	31.725000	-0.120122
	31.730000	-0.008305
	31.735000	0.152842
	31.740000	0.034448
	31.745000	-0.120122
	31.750000	-0.008305
	31.755000	0.152842
	31.760000	0.037737
	31.765000	-0.126699
	31.770000	-0.008305
	31.775000	0.146265
	31.780000	0.031160
	31.785000	-0.126699
	31.790000	-0.014883
	31.795000	0.142976
	31.800000	0.027871
	31.805000	-0.129988
	31.810000	-0.008305
	31.815000	0.142976
	31.820000	0.021293
	31.825000	-0.126699
	31.830000	-0.018171
	31.835000	0.142976
	31.840000	0.021293
	31.845000	-0.129988
	31.850000	-0.008305
	31.855000	0.142976
	31.860000	0.024582
	31.865000	-0.129988
	31.870000	-0.008305
	31.875000	0.146265
	31.880000	0.021293
	31.885000	-0.126699
	31.890000	-0.008305
	31.895000	0.142976
	31.900000	0.024582
	31.905000	-0.126699
	31.910000	-0.008305
	31.915000	0.142976
	31.920000	0.021293
	31.925000	-0.129988
	31.930000	-0.005016
	31.935000	0.142976
	31.940000	0.024582
	31.945000	-0.129988
	31.950000	-0.005016
	31.955000	0.142976
	31.960000	0.027871
	31.965000	-0.123410
	31.970000	-0.001728
	31.975000	0.149554
	31.980000	0.024582
	31.985000	-0.123410
	31.990000	0.001561
	31.995000	0.149554
	32.000000	0.024582
	32.005000	-0.123410
	32.010000	0.001561
	32.015000	0.152842
	32.020000	0.027871
	32.025000	-0.123410
	32.030000	-0.001728
	32.035000	0.149554
	32.040000	0.027871
	32.045000	-0.123410
	32.050000	0.001561
	32.055000	0.152842
	32.060000	0.027871
	32.065000	-0.120122
	32.070000	0.004850
	32.075000	0.149554
	32.080000	0.027871
	32.085000	-0.120122
	32.090000	0.004850
	32.095000	0.152842
	32.100000	0.031160
	32.105000	-0.113544
	32.110000	0.008138
	32.115000	0.162708
	32.120000	0.037737
	32.125000	-0.116833
	32.130000	0.011427
	32.135000	0.162708
	32.140000	0.031160
	32.145000	-0.116833
	32.150000	0.014716
	32.155000	0.156131
	32.160000	0.037737
	32.165000	-0.106967
	32.170000	0.014716
	32.175000	0.162708
	32.180000	0.041026
	32.185000	-0.106967
	32.190000	0.027871
	32.195000	0.175863
	32.200000	0.050892
	32.205000	-0.097101
	32.210000	0.027871
	32.215000	0.175863
	32.220000	0.054181
	32.225000	-0.100389
	32.230000	0.034448
	32.235000	0.175863
	32.240000	0.054181
	32.245000	-0.097101
	32.250000	0.034448
	32.255000	0.179152
	32.260000	0.057469
	32.265000	-0.090523
	32.270000	0.037737
	32.275000	0.182441
	32.280000	0.060758
	32.285000	-0.087234
	32.290000	0.047603
	32.295000	0.189018
	32.300000	0.060758
	32.305000	-0.080657
	32.310000	0.044314
	32.315000	0.189018
	32.320000	0.060758
	32.325000	-0.080657
	32.330000	0.047603
	32.335000	0.195596
	32.340000	0.067335
	32.345000	-0.080657
	32.350000	0.050892
	32.355000	0.195596
	32.360000	0.067335
	32.365000	-0.070791
	32.370000	0.054181
	32.375000	0.195596
	32.380000	0.067335
	32.385000	-0.074080
	32.390000	0.060758
	32.395000	0.202173
	32.400000	0.067335
	32.405000	-0.077368
	32.410000	0.054181
	32.415000	0.202173
	32.420000	0.064047
	32.425000	-0.077368
	32.430000	0.050892
	32.435000	0.192307
	32.440000	0.060758
	32.445000	-0.080657
	32.450000	0.044314
	32.455000	0.185730
	32.460000	0.050892
	32.465000	-0.090523
	32.470000	0.041026
	32.475000	0.189018
	32.480000	0.050892
	32.485000	-0.097101
	32.490000	0.037737
	32.495000	0.185730
	32.500000	0.047603
	32.505000	-0.093812
	32.510000	0.044314
	32.515000	0.185730
	32.520000	0.044314
	32.525000	-0.093812
	32.530000	0.041026
	32.535000	0.172575
	32.540000	0.037737
	32.545000	-0.106967
	32.550000	0.027871
	32.555000	0.169286
	32.560000	0.037737
	32.565000	-0.113544
	32.570000	0.024582
	32.575000	0.169286
	32.580000	0.027871
	32.585000	-0.110256
	32.590000	0.031160
	32.595000	0.169286
	32.600000	0.027871
	32.605000	-0.110256
	32.610000	0.031160
	32.615000	0.172575
	32.620000	0.031160
	32.625000	-0.113544
	32.630000	0.031160
	32.635000	0.169286
	32.640000	0.031160
	32.645000	-0.106967
	32.650000	0.031160
	32.655000	0.169286
	32.660000	0.021293
	32.665000	-0.120122
	32.670000	0.018005
	32.675000	0.156131
	32.680000	0.011427
	32.685000	-0.133277
	32.690000	0.014716
	32.695000	0.162708
	32.700000	0.018005
	32.705000	-0.113544
	32.710000	0.027871
	32.715000	0.165997
	32.720000	0.031160
	32.725000	-0.113544
	32.730000	0.031160
	32.735000	0.172575
	32.740000	0.034448
	32.745000	-0.103678
	32.750000	0.041026
	32.755000	0.185730
	32.760000	0.041026
	32.765000	-0.090523
	32.770000	0.057469
	32.775000	0.202173
	32.780000	0.054181
	32.785000	-0.080657
	32.790000	0.060758
	32.795000	0.198884
	32.800000	0.050892
	32.805000	-0.087234
	32.810000	0.060758
	32.815000	0.195596
	32.820000	0.044314
	32.825000	-0.090523
	32.830000	0.054181
	32.835000	0.192307
	32.840000	0.041026
	32.845000	-0.087234
	32.850000	0.057469
	32.855000	0.192307
	32.860000	0.044314
	32.865000	-0.093812
	32.870000	0.057469
	32.875000	0.192307
	32.880000	0.050892
	32.885000	-0.087234
	32.890000	0.064047
	32.895000	0.198884
	32.900000	0.047603
	32.905000	-0.077368
	32.910000	0.070624
	32.915000	0.198884
	32.920000	0.057469
	32.925000	-0.074080
	32.930000	0.077202
	32.935000	0.208751
	32.940000	0.060758
	32.945000	-0.070791
	32.950000	0.073913
	32.955000	0.205462
	32.960000	0.057469
	32.965000	-0.064213
	32.970000	0.077202
	32.975000	0.205462
	32.980000	0.057469
	32.985000	-0.070791
	32.990000	0.077202
	32.995000	0.212039
	33.000000	0.057469
	33.005000	-0.067502
	33.010000	0.080490
	33.015000	0.208751
	33.020000	0.054181
	33.025000	-0.070791
	33.030000	0.080490
	33.035000	0.202173
	33.040000	0.054181
	33.045000	-0.070791
	33.050000	0.077202
	33.055000	0.202173
	33.060000	0.047603
	33.065000	-0.074080
	33.070000	0.070624
	33.075000	0.192307
	33.080000	0.044314
	33.085000	-0.083946
	33.090000	0.067335
	33.095000	0.182441
	33.100000	0.041026
	33.105000	-0.080657
	33.110000	0.064047
	33.115000	0.185730
	33.120000	0.034448
	33.125000	-0.090523
	33.130000	0.057469
	33.135000	0.185730
	33.140000	0.034448
	33.145000	-0.090523
	33.150000	0.064047
	33.155000	0.185730
	33.160000	0.027871
	33.165000	-0.090523
	33.170000	0.060758
	33.175000	0.175863
	33.180000	0.027871
	33.185000	-0.097101
	33.190000	0.054181
	33.195000	0.175863
	33.200000	0.018005
	33.205000	-0.106967
	33.210000	0.047603
	33.215000	0.165997
	33.220000	0.014716
	33.225000	-0.113544
	33.230000	0.044314
	33.235000	0.162708
	33.240000	0.008138
	33.245000	-0.106967
	33.250000	0.044314
	33.255000	0.162708
	33.260000	0.004850
	33.265000	-0.113544
	33.270000	0.044314
	33.275000	0.162708
	33.280000	0.001561
	33.285000	-0.113544
	33.290000	0.044314
	33.295000	0.156131
	33.300000	-0.001728
	33.305000	-0.120122
	33.310000	0.037737
	33.315000	0.152842
	33.320000	-0.005016
	33.325000	-0.113544
	33.330000	0.037737
	33.335000	0.152842
	33.340000	-0.008305
	33.345000	-0.123410
	33.350000	0.034448
	33.355000	0.146265
	33.360000	-0.005016
	33.365000	-0.126699
	33.370000	0.031160
	33.375000	0.146265
	33.380000	-0.014883
	33.385000	-0.126699
	33.390000	0.027871
	33.395000	0.142976
	33.400000	-0.014883
	33.405000	-0.126699
	33.410000	0.027871
	33.415000	0.142976
	33.420000	-0.014883
	33.425000	-0.126699
	33.430000	0.031160
	33.435000	0.142976
	33.440000	-0.014883
	33.445000	-0.126699
	33.450000	0.034448
	33.455000	0.142976
	33.460000	-0.011594
	33.465000	-0.129988
	33.470000	0.031160
	33.475000	0.146265
	33.480000	-0.018171
	33.485000	-0.129988
	33.490000	0.031160
	33.495000	0.139687
	33.500000	-0.021460
	33.505000	-0.129988
	33.510000	0.031160
	33.515000	0.142976
	33.520000	-0.021460
	33.525000	-0.133277
	33.530000	0.037737
	33.535000	0.136399
	33.540000	-0.018171
	33.545000	-0.129988
	33.550000	0.027871
	33.555000	0.136399
	33.560000	-0.024749
	33.565000	-0.136565
	33.570000	0.031160
	33.575000	0.142976
	33.580000	-0.021460
	33.585000	-0.126699
	33.590000	0.034448
	33.595000	0.142976
	33.600000	-0.021460
	33.605000	-0.129988
	33.610000	0.034448
	33.615000	0.139687
	33.620000	-0.024749
	33.625000	-0.129988
	33.630000	0.034448
	33.635000	0.142976
	33.640000	-0.028037
	33.645000	-0.129988
	33.650000	0.034448
	33.655000	0.142976
	33.660000	-0.028037
	33.665000	-0.129988
	33.670000	0.034448
	33.675000	0.129821
	33.680000	-0.034615
	33.685000	-0.133277
	33.690000	0.034448
	33.695000	0.136399
	33.700000	-0.034615
	33.705000	-0.133277
	33.710000	0.037737
	33.715000	0.136399
	33.720000	-0.031326
	33.725000	-0.133277
	33.730000	0.034448
	33.735000	0.136399
	33.740000	-0.034615
	33.745000	-0.129988
	33.750000	0.037737
	33.755000	0.139687
	33.760000	-0.031326
	33.765000	-0.133277
	33.770000	0.041026
	33.775000	0.136399
	33.780000	-0.034615
	33.785000	-0.136565
	33.790000	0.034448
	33.795000	0.133110
	33.800000	-0.037904
	33.805000	-0.133277
	33.810000	0.037737
	33.815000	0.133110
	33.820000	-0.034615
	33.825000	-0.133277
	33.830000	0.037737
	33.835000	0.133110
	33.840000	-0.034615
	33.845000	-0.133277
	33.850000	0.037737
	33.855000	0.129821
	33.860000	-0.034615
	33.865000	-0.133277
	33.870000	0.037737
	33.875000	0.133110
	33.880000	-0.037904
	33.885000	-0.129988
	33.890000	0.041026
	33.895000	0.136399
	33.900000	-0.037904
	33.905000	-0.133277
	33.910000	0.037737
	33.915000	0.136399
	33.920000	-0.037904
	33.925000	-0.133277
	33.930000	0.037737
	33.935000	0.133110
	33.940000	-0.034615
	33.945000	-0.129988
	33.950000	0.037737
	33.955000	0.133110
	33.960000	-0.034615
	33.965000	-0.126699
	33.970000	0.044314
	33.975000	0.136399
	33.980000	-0.034615
	33.985000	-0.133277
	33.990000	0.041026
	33.995000	0.136399
	34.000000	-0.034615
	34.005000	-0.129988
	34.010000	0.041026
	34.015000	0.133110
	34.020000	-0.041192
	34.025000	-0.133277
	34.030000	0.047603
	34.035000	0.136399
	34.040000	-0.041192
	34.045000	-0.123410
	34.050000	0.041026
	34.055000	0.133110
	34.060000	-0.037904
	34.065000	-0.133277
	34.070000	0.041026
	34.075000	0.133110
	34.080000	-0.037904
	34.085000	-0.129988
	34.090000	0.044314
	34.095000	0.133110
	34.100000	-0.037904
	34.105000	-0.126699
	34.110000	0.044314
	34.115000	0.133110
	34.120000	-0.041192
	34.125000	-0.126699
	34.130000	0.044314
	34.135000	0.129821
	34.140000	-0.041192
	34.145000	-0.129988
	34.150000	0.047603
	34.155000	0.129821
	34.160000	-0.037904
	34.165000	-0.123410
	34.170000	0.050892
	34.175000	0.136399
	34.180000	-0.041192
	34.185000	-0.129988
	34.190000	0.050892
	34.195000	0.136399
	34.200000	-0.041192
	34.205000	-0.120122
	34.210000	0.047603
	34.215000	0.136399
	34.220000	-0.037904
	34.225000	-0.123410
	34.230000	0.050892
	34.235000	0.133110
	34.240000	-0.037904
	34.245000	-0.123410
	34.250000	0.057469
	34.255000	0.129821
	34.260000	-0.041192
	34.265000	-0.123410
	34.270000	0.054181
	34.275000	0.136399
	34.280000	-0.041192
	34.285000	-0.123410
	34.290000	0.047603
	34.295000	0.133110
	34.300000	-0.044481
	34.305000	-0.126699
	34.310000	0.047603
	34.315000	0.133110
	34.320000	-0.044481
	34.325000	-0.126699
	34.330000	0.054181
	34.335000	0.133110
	34.340000	-0.044481
	34.345000	-0.126699
	34.350000	0.057469
	34.355000	0.123244
	34.360000	-0.047770
	34.365000	-0.126699
	34.370000	0.050892
	34.375000	0.129821
	34.380000	-0.054347
	34.385000	-0.129988
	34.390000	0.044314
	34.395000	0.126533
	34.400000	-0.054347
	34.405000	-0.126699
	34.410000	0.047603
	34.415000	0.119955
	34.420000	-0.054347
	34.425000	-0.126699
	34.430000	0.044314
	34.435000	0.126533
	34.440000	-0.051059
	34.445000	-0.133277
	34.450000	0.050892
	34.455000	0.129821
	34.460000	-0.054347
	34.465000	-0.126699
	34.470000	0.050892
	34.475000	0.119955
	34.480000	-0.051059
	34.485000	-0.126699
	34.490000	0.047603
	34.495000	0.123244
	34.500000	-0.051059
	34.505000	-0.126699
	34.510000	0.050892
	34.515000	0.126533
	34.520000	-0.051059
	34.525000	-0.116833
	34.530000	0.054181
	34.535000	0.133110
	34.540000	-0.047770
	34.545000	-0.123410
	34.550000	0.060758
	34.555000	0.133110
	34.560000	-0.047770
	34.565000	-0.120122
	34.570000	0.067335
	34.575000	0.136399
	34.580000	-0.041192
	34.585000	-0.116833
	34.590000	0.067335
	34.595000	0.136399
	34.600000	-0.041192
	34.605000	-0.110256
	34.610000	0.070624
	34.615000	0.139687
	34.620000	-0.037904
	34.625000	-0.110256
	34.630000	0.070624
	34.635000	0.142976
	34.640000	-0.037904
	34.645000	-0.106967
	34.650000	0.080490
	34.655000	0.149554
	34.660000	-0.028037
	34.665000	-0.097101
	34.670000	0.083779
	34.675000	0.156131
	34.680000	-0.028037
	34.685000	-0.090523
	34.690000	0.093645
	34.695000	0.159420
	34.700000	-0.014883
	34.705000	-0.083946
	34.710000	0.103511
	34.715000	0.162708
	34.720000	-0.011594
	34.725000	-0.077368
	34.730000	0.103511
	34.735000	0.165997
	34.740000	-0.011594
	34.745000	-0.074080
	34.750000	0.106800
	34.755000	0.172575
	34.760000	-0.005016
	34.765000	-0.074080
	34.770000	0.110089
	34.775000	0.179152
	34.780000	-0.008305
	34.785000	-0.067502
	34.790000	0.113378
	34.795000	0.175863
	34.800000	-0.001728
	34.805000	-0.070791
	34.810000	0.119955
	34.815000	0.175863
	34.820000	-0.005016
	34.825000	-0.067502
	34.830000	0.116666
	34.835000	0.182441
	34.840000	-0.005016
	34.845000	-0.070791
	34.850000	0.113378
	34.855000	0.179152
	34.860000	-0.005016
	34.865000	-0.070791
	34.870000	0.116666
	34.875000	0.179152
	34.880000	-0.008305
	34.885000	-0.067502
	34.890000	0.113378
	34.895000	0.175863
	34.900000	-0.011594
	34.905000	-0.074080
	34.910000	0.113378
	34.915000	0.172575
	34.920000	-0.008305
	34.925000	-0.070791
	34.930000	0.113378
	34.935000	0.172575
	34.940000	-0.011594
	34.945000	-0.074080
	34.950000	0.113378
	34.955000	0.172575
	34.960000	-0.014883
	34.965000	-0.077368
	34.970000	0.110089
	34.975000	0.165997
	34.980000	-0.021460
	34.985000	-0.083946
	34.990000	0.100223
	34.995000	0.162708
	35.000000	-0.024749
	35.005000	-0.087234
	35.010000	0.090357
	35.015000	0.152842
	35.020000	-0.034615
	35.025000	-0.087234
	35.030000	0.100223
	35.035000	0.156131
	35.040000	-0.034615
	35.045000	-0.090523
	35.050000	0.093645
	35.055000	0.146265
	35.060000	-0.037904
	35.065000	-0.093812
	35.070000	0.090357
	35.075000	0.146265
	35.080000	-0.037904
	35.085000	-0.097101
	35.090000	0.090357
	35.095000	0.146265
	35.100000	-0.034615
	35.105000	-0.093812
	35.110000	0.093645
	35.115000	0.149554
	35.120000	-0.037904
	35.125000	-0.093812
	35.130000	0.096934
	35.135000	0.149554
	35.140000	-0.037904
	35.145000	-0.100389
	35.150000	0.090357
	35.155000	0.149554
	35.160000	-0.037904
	35.165000	-0.093812
	35.170000	0.093645
	35.175000	0.149554
	35.180000	-0.041192
	35.185000	-0.100389
	35.190000	0.093645
	35.195000	0.146265
	35.200000	-0.044481
	35.205000	-0.097101
	35.210000	0.090357
	35.215000	0.139687
	35.220000	-0.044481
	35.225000	-0.106967
	35.230000	0.083779
	35.235000	0.133110
	35.240000	-0.057636
	35.245000	-0.106967
	35.250000	0.090357
	35.255000	0.133110
	35.260000	-0.054347
	35.265000	-0.106967
	35.270000	0.087068
	35.275000	0.136399
	35.280000	-0.051059
	35.285000	-0.097101
	35.290000	0.093645
	35.295000	0.146265
	35.300000	-0.044481
	35.305000	-0.087234
	35.310000	0.100223
	35.315000	0.152842
	35.320000	-0.034615
	35.325000	-0.080657
	35.330000	0.110089
	35.335000	0.156131
	35.340000	-0.028037
	35.345000	-0.074080
	35.350000	0.116666
	35.355000	0.162708
	35.360000	-0.021460
	35.365000	-0.074080
	35.370000	0.119955
	35.375000	0.165997
	35.380000	-0.021460
	35.385000	-0.067502
	35.390000	0.123244
	35.395000	0.172575
	35.400000	-0.024749
	35.405000	-0.060925
	35.410000	0.123244
	35.415000	0.165997
	35.420000	-0.021460
	35.425000	-0.057636
	35.430000	0.129821
	35.435000	0.169286
	35.440000	-0.011594
	35.445000	-0.057636
	35.450000	0.136399
	35.455000	0.179152
	35.460000	-0.011594
	35.465000	-0.060925
	35.470000	0.129821
	35.475000	0.172575
	35.480000	-0.021460
	35.485000	-0.064213
	35.490000	0.123244
	35.495000	0.159420
	35.500000	-0.028037
	35.505000	-0.067502
	35.510000	0.113378
	35.515000	0.152842
	35.520000	-0.034615
	35.525000	-0.083946
	35.530000	0.106800
	35.535000	0.149554
	35.540000	-0.044481
	35.545000	-0.087234
	35.550000	0.103511
	35.555000	0.142976
	35.560000	-0.054347
	35.565000	-0.087234
	35.570000	0.103511
	35.575000	0.136399
	35.580000	-0.051059
	35.585000	-0.093812
	35.590000	0.100223
	35.595000	0.133110
	35.600000	-0.054347
	35.605000	-0.093812
	35.610000	0.096934
	35.615000	0.136399
	35.620000	-0.054347
	35.625000	-0.090523
	35.630000	0.100223
	35.635000	0.129821
	35.640000	-0.060925
	35.645000	-0.087234
	35.650000	0.096934
	35.655000	0.133110
	35.660000	-0.054347
	35.665000	-0.090523
	35.670000	0.106800
	35.675000	0.136399
	35.680000	-0.054347
	35.685000	-0.087234
	35.690000	0.106800
	35.695000	0.142976
	35.700000	-0.047770
	35.705000	-0.087234
	35.710000	0.106800
	35.715000	0.133110
	35.720000	-0.057636
	35.725000	-0.090523
	35.730000	0.096934
	35.735000	0.126533
	35.740000	-0.064213
	35.745000	-0.090523
	35.750000	0.090357
	35.755000	0.123244
	35.760000	-0.070791
	35.765000	-0.100389
	35.770000	0.090357
	35.775000	0.116666
	35.780000	-0.070791
	35.785000	-0.106967
	35.790000	0.090357
	35.795000	0.113378
	35.800000	-0.074080
	35.805000	-0.103678
	35.810000	0.083779
	35.815000	0.106800
	35.820000	-0.080657
	35.825000	-0.110256
	35.830000	0.083779
	35.835000	0.106800
	35.840000	-0.080657
	35.845000	-0.110256
	35.850000	0.073913
	35.855000	0.103511
	35.860000	-0.090523
	35.865000	-0.116833
	35.870000	0.070624
	35.875000	0.093645
	35.880000	-0.100389
	35.885000	-0.129988
	35.890000	0.067335
	35.895000	0.087068
	35.900000	-0.106967
	35.905000	-0.126699
	35.910000	0.064047
	35.915000	0.083779
	35.920000	-0.106967
	35.925000	-0.126699
	35.930000	0.064047
	35.935000	0.087068
	35.940000	-0.103678
	35.945000	-0.126699
	35.950000	0.070624
	35.955000	0.090357
	35.960000	-0.100389
	35.965000	-0.123410
	35.970000	0.077202
	35.975000	0.090357
	35.980000	-0.097101
	35.985000	-0.113544
	35.990000	0.083779
	35.995000	0.100223
	36.000000	-0.087234
	36.005000	-0.106967
	36.010000	0.087068
	36.015000	0.103511
	36.020000	-0.087234
	36.025000	-0.113544
	36.030000	0.083779
	36.035000	0.096934
	36.040000	-0.097101
	36.045000	-0.113544
	36.050000	0.073913
	36.055000	0.093645
	36.060000	-0.097101
	36.065000	-0.120122
	36.070000	0.073913
	36.075000	0.093645
	36.080000	-0.106967
	36.085000	-0.120122
	36.090000	0.070624
	36.095000	0.090357
	36.100000	-0.106967
	36.105000	-0.120122
	36.110000	0.070624
	36.115000	0.083779
	36.120000	-0.103678
	36.125000	-0.126699
	36.130000	0.067335
	36.135000	0.087068
	36.140000	-0.110256
	36.145000	-0.126699
	36.150000	0.070624
	36.155000	0.083779
	36.160000	-0.106967
	36.165000	-0.126699
	36.170000	0.070624
	36.175000	0.087068
	36.180000	-0.113544
	36.185000	-0.123410
	36.190000	0.070624
	36.195000	0.083779
	36.200000	-0.110256
	36.205000	-0.120122
	36.210000	0.070624
	36.215000	0.090357
	36.220000	-0.110256
	36.225000	-0.123410
	36.230000	0.073913
	36.235000	0.087068
	36.240000	-0.106967
	36.245000	-0.116833
	36.250000	0.073913
	36.255000	0.090357
	36.260000	-0.106967
	36.265000	-0.120122
	36.270000	0.080490
	36.275000	0.090357
	36.280000	-0.110256
	36.285000	-0.116833
	36.290000	0.080490
	36.295000	0.087068
	36.300000	-0.106967
	36.305000	-0.116833
	36.310000	0.073913
	36.315000	0.087068
	36.320000	-0.100389
	36.325000	-0.116833
	36.330000	0.077202
	36.335000	0.087068
	36.340000	-0.110256
	36.345000	-0.120122
	36.350000	0.080490
	36.355000	0.087068
	36.360000	-0.113544
	36.365000	-0.123410
	36.370000	0.073913
	36.375000	0.083779
	36.380000	-0.116833
	36.385000	-0.126699
	36.390000	0.077202
	36.395000	0.083779
	36.400000	-0.116833
	36.405000	-0.120122
	36.410000	0.070624
	36.415000	0.073913
	36.420000	-0.116833
	36.425000	-0.120122
	36.430000	0.073913
	36.435000	0.080490
	36.440000	-0.116833
	36.445000	-0.126699
	36.450000	0.073913
	36.455000	0.073913
	36.460000	-0.123410
	36.465000	-0.123410
	36.470000	0.070624
	36.475000	0.077202
	36.480000	-0.120122
	36.485000	-0.120122
	36.490000	0.067335
	36.495000	0.073913
	36.500000	-0.120122
	36.505000	-0.123410
	36.510000	0.073913
	36.515000	0.070624
	36.520000	-0.116833
	36.525000	-0.123410
	36.530000	0.070624
	36.535000	0.073913
	36.540000	-0.126699
	36.545000	-0.123410
	36.550000	0.067335
	36.555000	0.070624
	36.560000	-0.123410
	36.565000	-0.123410
	36.570000	0.070624
	36.575000	0.070624
	36.580000	-0.120122
	36.585000	-0.123410
	36.590000	0.077202
	36.595000	0.077202
	36.600000	-0.116833
	36.605000	-0.123410
	36.610000	0.077202
	36.615000	0.070624
	36.620000	-0.126699
	36.625000	-0.120122
	36.630000	0.077202
	36.635000	0.067335
	36.640000	-0.120122
	36.645000	-0.120122
	36.650000	0.077202
	36.655000	0.070624
	36.660000	-0.123410
	36.665000	-0.116833
	36.670000	0.080490
	36.675000	0.070624
	36.680000	-0.129988
	36.685000	-0.116833
	36.690000	0.073913
	36.695000	0.073913
	36.700000	-0.126699
	36.705000	-0.120122
	36.710000	0.077202
	36.715000	0.070624
	36.720000	-0.126699
	36.725000	-0.120122
	36.730000	0.070624
	36.735000	0.070624
	36.740000	-0.126699
	36.745000	-0.116833
	36.750000	0.077202
	36.755000	0.073913
	36.760000	-0.123410
	36.765000	-0.113544
	36.770000	0.077202
	36.775000	0.064047
	36.780000	-0.126699
	36.785000	-0.113544
	36.790000	0.083779
	36.795000	0.067335
	36.800000	-0.123410
	36.805000	-0.113544
	36.810000	0.077202
	36.815000	0.070624
	36.820000	-0.123410
	36.825000	-0.110256
	36.830000	0.077202
	36.835000	0.070624
	36.840000	-0.123410
	36.845000	-0.110256
	36.850000	0.090357
	36.855000	0.070624
	36.860000	-0.123410
	36.865000	-0.110256
	36.870000	0.083779
	36.875000	0.070624
	36.880000	-0.123410
	36.885000	-0.110256
	36.890000	0.083779
	36.895000	0.070624
	36.900000	-0.123410
	36.905000	-0.106967
	36.910000	0.083779
	36.915000	0.067335
