2024/7/10 	 19:25:24 
 This file comes from Vt only measurement 	 1.000000E-1 
 Voltage Sensitivity 	 0.000000E+0 
 Sampling rate 	 200 
 Number of samples per channel 	 -1 
 No filter from Labview 	 	 	 
 	 
 ***End_of_Header*** 
 	 Time 	  Voltage 	 Filtered Voltage 	 
	0.000000	-2.578436
	0.005000	-2.623563
	0.010000	-2.552650
	0.015000	-2.513969
	0.020000	-2.588106
	0.025000	-2.630010
	0.030000	-2.562320
	0.035000	-2.520416
	0.040000	-2.594553
	0.045000	-2.636457
	0.050000	-2.565543
	0.055000	-2.533309
	0.060000	-2.594553
	0.065000	-2.639680
	0.070000	-2.575213
	0.075000	-2.539756
	0.080000	-2.601000
	0.085000	-2.649350
	0.090000	-2.578436
	0.095000	-2.539756
	0.100000	-2.610670
	0.105000	-2.655797
	0.110000	-2.594553
	0.115000	-2.559096
	0.120000	-2.623563
	0.125000	-2.665467
	0.130000	-2.604223
	0.135000	-2.565543
	0.140000	-2.633233
	0.145000	-2.675137
	0.150000	-2.607447
	0.155000	-2.571990
	0.160000	-2.639680
	0.165000	-2.684807
	0.170000	-2.620340
	0.175000	-2.578436
	0.180000	-2.646127
	0.185000	-2.681584
	0.190000	-2.617117
	0.195000	-2.584883
	0.200000	-2.659020
	0.205000	-2.697701
	0.210000	-2.623563
	0.215000	-2.584883
	0.220000	-2.665467
	0.225000	-2.700924
	0.230000	-2.633233
	0.235000	-2.588106
	0.240000	-2.665467
	0.245000	-2.710594
	0.250000	-2.633233
	0.255000	-2.591330
	0.260000	-2.668690
	0.265000	-2.710594
	0.270000	-2.642904
	0.275000	-2.607447
	0.280000	-2.675137
	0.285000	-2.713817
	0.290000	-2.646127
	0.295000	-2.613893
	0.300000	-2.681584
	0.305000	-2.729934
	0.310000	-2.655797
	0.315000	-2.607447
	0.320000	-2.688031
	0.325000	-2.723488
	0.330000	-2.649350
	0.335000	-2.613893
	0.340000	-2.684807
	0.345000	-2.733158
	0.350000	-2.659020
	0.355000	-2.623563
	0.360000	-2.694477
	0.365000	-2.736381
	0.370000	-2.659020
	0.375000	-2.626787
	0.380000	-2.694477
	0.385000	-2.739604
	0.390000	-2.662244
	0.395000	-2.630010
	0.400000	-2.691254
	0.405000	-2.736381
	0.410000	-2.659020
	0.415000	-2.633233
	0.420000	-2.704147
	0.425000	-2.739604
	0.430000	-2.665467
	0.435000	-2.630010
	0.440000	-2.700924
	0.445000	-2.749274
	0.450000	-2.662244
	0.455000	-2.626787
	0.460000	-2.700924
	0.465000	-2.733158
	0.470000	-2.668690
	0.475000	-2.633233
	0.480000	-2.700924
	0.485000	-2.736381
	0.490000	-2.671914
	0.495000	-2.630010
	0.500000	-2.707371
	0.505000	-2.739604
	0.510000	-2.678361
	0.515000	-2.626787
	0.520000	-2.697701
	0.525000	-2.736381
	0.530000	-2.668690
	0.535000	-2.633233
	0.540000	-2.704147
	0.545000	-2.742828
	0.550000	-2.675137
	0.555000	-2.639680
	0.560000	-2.704147
	0.565000	-2.749274
	0.570000	-2.675137
	0.575000	-2.639680
	0.580000	-2.707371
	0.585000	-2.752498
	0.590000	-2.675137
	0.595000	-2.642904
	0.600000	-2.717041
	0.605000	-2.749274
	0.610000	-2.675137
	0.615000	-2.642904
	0.620000	-2.717041
	0.625000	-2.755721
	0.630000	-2.681584
	0.635000	-2.642904
	0.640000	-2.720264
	0.645000	-2.749274
	0.650000	-2.681584
	0.655000	-2.642904
	0.660000	-2.717041
	0.665000	-2.755721
	0.670000	-2.681584
	0.675000	-2.646127
	0.680000	-2.707371
	0.685000	-2.749274
	0.690000	-2.681584
	0.695000	-2.639680
	0.700000	-2.710594
	0.705000	-2.746051
	0.710000	-2.681584
	0.715000	-2.642904
	0.720000	-2.707371
	0.725000	-2.742828
	0.730000	-2.662244
	0.735000	-2.639680
	0.740000	-2.707371
	0.745000	-2.749274
	0.750000	-2.665467
	0.755000	-2.633233
	0.760000	-2.697701
	0.765000	-2.742828
	0.770000	-2.665467
	0.775000	-2.630010
	0.780000	-2.700924
	0.785000	-2.726711
	0.790000	-2.655797
	0.795000	-2.617117
	0.800000	-2.684807
	0.805000	-2.717041
	0.810000	-2.646127
	0.815000	-2.597777
	0.820000	-2.668690
	0.825000	-2.700924
	0.830000	-2.620340
	0.835000	-2.594553
	0.840000	-2.659020
	0.845000	-2.697701
	0.850000	-2.626787
	0.855000	-2.591330
	0.860000	-2.662244
	0.865000	-2.688031
	0.870000	-2.620340
	0.875000	-2.584883
	0.880000	-2.649350
	0.885000	-2.688031
	0.890000	-2.610670
	0.895000	-2.575213
	0.900000	-2.649350
	0.905000	-2.688031
	0.910000	-2.607447
	0.915000	-2.581660
	0.920000	-2.646127
	0.925000	-2.681584
	0.930000	-2.613893
	0.935000	-2.565543
	0.940000	-2.642904
	0.945000	-2.681584
	0.950000	-2.607447
	0.955000	-2.568766
	0.960000	-2.649350
	0.965000	-2.688031
	0.970000	-2.604223
	0.975000	-2.565543
	0.980000	-2.646127
	0.985000	-2.675137
	0.990000	-2.604223
	0.995000	-2.575213
	1.000000	-2.646127
	1.005000	-2.675137
	1.010000	-2.607447
	1.015000	-2.571990
	1.020000	-2.636457
	1.025000	-2.678361
	1.030000	-2.601000
	1.035000	-2.575213
	1.040000	-2.646127
	1.045000	-2.671914
	1.050000	-2.601000
	1.055000	-2.571990
	1.060000	-2.636457
	1.065000	-2.675137
	1.070000	-2.594553
	1.075000	-2.562320
	1.080000	-2.633233
	1.085000	-2.668690
	1.090000	-2.597777
	1.095000	-2.565543
	1.100000	-2.639680
	1.105000	-2.675137
	1.110000	-2.594553
	1.115000	-2.568766
	1.120000	-2.642904
	1.125000	-2.671914
	1.130000	-2.597777
	1.135000	-2.562320
	1.140000	-2.636457
	1.145000	-2.668690
	1.150000	-2.604223
	1.155000	-2.562320
	1.160000	-2.630010
	1.165000	-2.678361
	1.170000	-2.597777
	1.175000	-2.562320
	1.180000	-2.633233
	1.185000	-2.668690
	1.190000	-2.604223
	1.195000	-2.571990
	1.200000	-2.639680
	1.205000	-2.678361
	1.210000	-2.604223
	1.215000	-2.568766
	1.220000	-2.636457
	1.225000	-2.684807
	1.230000	-2.610670
	1.235000	-2.568766
	1.240000	-2.642904
	1.245000	-2.681584
	1.250000	-2.607447
	1.255000	-2.578436
	1.260000	-2.652574
	1.265000	-2.684807
	1.270000	-2.604223
	1.275000	-2.575213
	1.280000	-2.646127
	1.285000	-2.684807
	1.290000	-2.613893
	1.295000	-2.568766
	1.300000	-2.646127
	1.305000	-2.684807
	1.310000	-2.617117
	1.315000	-2.578436
	1.320000	-2.659020
	1.325000	-2.688031
	1.330000	-2.613893
	1.335000	-2.578436
	1.340000	-2.649350
	1.345000	-2.681584
	1.350000	-2.617117
	1.355000	-2.578436
	1.360000	-2.646127
	1.365000	-2.684807
	1.370000	-2.607447
	1.375000	-2.581660
	1.380000	-2.655797
	1.385000	-2.691254
	1.390000	-2.617117
	1.395000	-2.581660
	1.400000	-2.659020
	1.405000	-2.684807
	1.410000	-2.620340
	1.415000	-2.584883
	1.420000	-2.659020
	1.425000	-2.697701
	1.430000	-2.633233
	1.435000	-2.588106
	1.440000	-2.662244
	1.445000	-2.700924
	1.450000	-2.633233
	1.455000	-2.588106
	1.460000	-2.671914
	1.465000	-2.700924
	1.470000	-2.630010
	1.475000	-2.591330
	1.480000	-2.665467
	1.485000	-2.704147
	1.490000	-2.623563
	1.495000	-2.604223
	1.500000	-2.675137
	1.505000	-2.700924
	1.510000	-2.633233
	1.515000	-2.594553
	1.520000	-2.665467
	1.525000	-2.704147
	1.530000	-2.633233
	1.535000	-2.597777
	1.540000	-2.678361
	1.545000	-2.710594
	1.550000	-2.636457
	1.555000	-2.610670
	1.560000	-2.684807
	1.565000	-2.713817
	1.570000	-2.636457
	1.575000	-2.607447
	1.580000	-2.678361
	1.585000	-2.710594
	1.590000	-2.639680
	1.595000	-2.610670
	1.600000	-2.688031
	1.605000	-2.713817
	1.610000	-2.642904
	1.615000	-2.601000
	1.620000	-2.684807
	1.625000	-2.713817
	1.630000	-2.646127
	1.635000	-2.607447
	1.640000	-2.684807
	1.645000	-2.717041
	1.650000	-2.642904
	1.655000	-2.610670
	1.660000	-2.688031
	1.665000	-2.717041
	1.670000	-2.642904
	1.675000	-2.620340
	1.680000	-2.694477
	1.685000	-2.717041
	1.690000	-2.649350
	1.695000	-2.613893
	1.700000	-2.691254
	1.705000	-2.717041
	1.710000	-2.639680
	1.715000	-2.610670
	1.720000	-2.688031
	1.725000	-2.720264
	1.730000	-2.642904
	1.735000	-2.610670
	1.740000	-2.681584
	1.745000	-2.720264
	1.750000	-2.646127
	1.755000	-2.607447
	1.760000	-2.691254
	1.765000	-2.713817
	1.770000	-2.646127
	1.775000	-2.604223
	1.780000	-2.681584
	1.785000	-2.717041
	1.790000	-2.639680
	1.795000	-2.613893
	1.800000	-2.684807
	1.805000	-2.717041
	1.810000	-2.639680
	1.815000	-2.610670
	1.820000	-2.688031
	1.825000	-2.710594
	1.830000	-2.642904
	1.835000	-2.613893
	1.840000	-2.678361
	1.845000	-2.710594
	1.850000	-2.630010
	1.855000	-2.604223
	1.860000	-2.684807
	1.865000	-2.713817
	1.870000	-2.636457
	1.875000	-2.610670
	1.880000	-2.684807
	1.885000	-2.710594
	1.890000	-2.636457
	1.895000	-2.613893
	1.900000	-2.688031
	1.905000	-2.717041
	1.910000	-2.636457
	1.915000	-2.610670
	1.920000	-2.691254
	1.925000	-2.710594
	1.930000	-2.633233
	1.935000	-2.607447
	1.940000	-2.688031
	1.945000	-2.720264
	1.950000	-2.633233
	1.955000	-2.607447
	1.960000	-2.688031
	1.965000	-2.720264
	1.970000	-2.636457
	1.975000	-2.607447
	1.980000	-2.684807
	1.985000	-2.713817
	1.990000	-2.636457
	1.995000	-2.604223
	2.000000	-2.684807
	2.005000	-2.707371
	2.010000	-2.633233
	2.015000	-2.604223
	2.020000	-2.678361
	2.025000	-2.707371
	2.030000	-2.630010
	2.035000	-2.607447
	2.040000	-2.675137
	2.045000	-2.710594
	2.050000	-2.630010
	2.055000	-2.594553
	2.060000	-2.675137
	2.065000	-2.704147
	2.070000	-2.617117
	2.075000	-2.594553
	2.080000	-2.668690
	2.085000	-2.694477
	2.090000	-2.613893
	2.095000	-2.594553
	2.100000	-2.668690
	2.105000	-2.691254
	2.110000	-2.613893
	2.115000	-2.588106
	2.120000	-2.655797
	2.125000	-2.697701
	2.130000	-2.613893
	2.135000	-2.591330
	2.140000	-2.662244
	2.145000	-2.697701
	2.150000	-2.613893
	2.155000	-2.594553
	2.160000	-2.668690
	2.165000	-2.691254
	2.170000	-2.613893
	2.175000	-2.597777
	2.180000	-2.662244
	2.185000	-2.688031
	2.190000	-2.610670
	2.195000	-2.594553
	2.200000	-2.665467
	2.205000	-2.694477
	2.210000	-2.623563
	2.215000	-2.591330
	2.220000	-2.671914
	2.225000	-2.700924
	2.230000	-2.620340
	2.235000	-2.584883
	2.240000	-2.668690
	2.245000	-2.700924
	2.250000	-2.620340
	2.255000	-2.597777
	2.260000	-2.675137
	2.265000	-2.697701
	2.270000	-2.623563
	2.275000	-2.597777
	2.280000	-2.678361
	2.285000	-2.704147
	2.290000	-2.623563
	2.295000	-2.601000
	2.300000	-2.671914
	2.305000	-2.707371
	2.310000	-2.626787
	2.315000	-2.601000
	2.320000	-2.671914
	2.325000	-2.704147
	2.330000	-2.623563
	2.335000	-2.607447
	2.340000	-2.675137
	2.345000	-2.704147
	2.350000	-2.626787
	2.355000	-2.601000
	2.360000	-2.681584
	2.365000	-2.700924
	2.370000	-2.636457
	2.375000	-2.601000
	2.380000	-2.688031
	2.385000	-2.710594
	2.390000	-2.626787
	2.395000	-2.601000
	2.400000	-2.681584
	2.405000	-2.707371
	2.410000	-2.633233
	2.415000	-2.610670
	2.420000	-2.681584
	2.425000	-2.707371
	2.430000	-2.626787
	2.435000	-2.613893
	2.440000	-2.675137
	2.445000	-2.713817
	2.450000	-2.633233
	2.455000	-2.604223
	2.460000	-2.681584
	2.465000	-2.713817
	2.470000	-2.630010
	2.475000	-2.617117
	2.480000	-2.681584
	2.485000	-2.710594
	2.490000	-2.633233
	2.495000	-2.613893
	2.500000	-2.678361
	2.505000	-2.717041
	2.510000	-2.633233
	2.515000	-2.610670
	2.520000	-2.688031
	2.525000	-2.717041
	2.530000	-2.636457
	2.535000	-2.610670
	2.540000	-2.681584
	2.545000	-2.713817
	2.550000	-2.642904
	2.555000	-2.610670
	2.560000	-2.694477
	2.565000	-2.713817
	2.570000	-2.636457
	2.575000	-2.617117
	2.580000	-2.691254
	2.585000	-2.720264
	2.590000	-2.639680
	2.595000	-2.620340
	2.600000	-2.694477
	2.605000	-2.717041
	2.610000	-2.639680
	2.615000	-2.617117
	2.620000	-2.694477
	2.625000	-2.710594
	2.630000	-2.646127
	2.635000	-2.617117
	2.640000	-2.697701
	2.645000	-2.723488
	2.650000	-2.642904
	2.655000	-2.617117
	2.660000	-2.700924
	2.665000	-2.726711
	2.670000	-2.649350
	2.675000	-2.623563
	2.680000	-2.697701
	2.685000	-2.726711
	2.690000	-2.642904
	2.695000	-2.626787
	2.700000	-2.694477
	2.705000	-2.733158
	2.710000	-2.655797
	2.715000	-2.633233
	2.720000	-2.697701
	2.725000	-2.729934
	2.730000	-2.652574
	2.735000	-2.630010
	2.740000	-2.710594
	2.745000	-2.726711
	2.750000	-2.659020
	2.755000	-2.630010
	2.760000	-2.720264
	2.765000	-2.733158
	2.770000	-2.662244
	2.775000	-2.639680
	2.780000	-2.717041
	2.785000	-2.739604
	2.790000	-2.668690
	2.795000	-2.639680
	2.800000	-2.713817
	2.805000	-2.749274
	2.810000	-2.671914
	2.815000	-2.642904
	2.820000	-2.723488
	2.825000	-2.746051
	2.830000	-2.665467
	2.835000	-2.646127
	2.840000	-2.726711
	2.845000	-2.752498
	2.850000	-2.675137
	2.855000	-2.652574
	2.860000	-2.729934
	2.865000	-2.752498
	2.870000	-2.681584
	2.875000	-2.652574
	2.880000	-2.729934
	2.885000	-2.762168
	2.890000	-2.681584
	2.895000	-2.652574
	2.900000	-2.736381
	2.905000	-2.765391
	2.910000	-2.681584
	2.915000	-2.662244
	2.920000	-2.736381
	2.925000	-2.758944
	2.930000	-2.684807
	2.935000	-2.655797
	2.940000	-2.739604
	2.945000	-2.762168
	2.950000	-2.688031
	2.955000	-2.662244
	2.960000	-2.746051
	2.965000	-2.765391
	2.970000	-2.684807
	2.975000	-2.665467
	2.980000	-2.739604
	2.985000	-2.768615
	2.990000	-2.684807
	2.995000	-2.665467
	3.000000	-2.749274
	3.005000	-2.768615
	3.010000	-2.684807
	3.015000	-2.659020
	3.020000	-2.739604
	3.025000	-2.758944
	3.030000	-2.678361
	3.035000	-2.662244
	3.040000	-2.736381
	3.045000	-2.758944
	3.050000	-2.684807
	3.055000	-2.655797
	3.060000	-2.742828
	3.065000	-2.762168
	3.070000	-2.678361
	3.075000	-2.662244
	3.080000	-2.739604
	3.085000	-2.758944
	3.090000	-2.675137
	3.095000	-2.659020
	3.100000	-2.733158
	3.105000	-2.755721
	3.110000	-2.678361
	3.115000	-2.655797
	3.120000	-2.736381
	3.125000	-2.755721
	3.130000	-2.671914
	3.135000	-2.655797
	3.140000	-2.733158
	3.145000	-2.752498
	3.150000	-2.678361
	3.155000	-2.655797
	3.160000	-2.739604
	3.165000	-2.755721
	3.170000	-2.681584
	3.175000	-2.659020
	3.180000	-2.736381
	3.185000	-2.758944
	3.190000	-2.675137
	3.195000	-2.655797
	3.200000	-2.739604
	3.205000	-2.758944
	3.210000	-2.678361
	3.215000	-2.659020
	3.220000	-2.742828
	3.225000	-2.755721
	3.230000	-2.681584
	3.235000	-2.659020
	3.240000	-2.739604
	3.245000	-2.758944
	3.250000	-2.675137
	3.255000	-2.652574
	3.260000	-2.742828
	3.265000	-2.752498
	3.270000	-2.675137
	3.275000	-2.652574
	3.280000	-2.739604
	3.285000	-2.762168
	3.290000	-2.675137
	3.295000	-2.659020
	3.300000	-2.736381
	3.305000	-2.755721
	3.310000	-2.681584
	3.315000	-2.642904
	3.320000	-2.729934
	3.325000	-2.749274
	3.330000	-2.665467
	3.335000	-2.649350
	3.340000	-2.729934
	3.345000	-2.739604
	3.350000	-2.662244
	3.355000	-2.642904
	3.360000	-2.720264
	3.365000	-2.736381
	3.370000	-2.662244
	3.375000	-2.636457
	3.380000	-2.717041
	3.385000	-2.736381
	3.390000	-2.665467
	3.395000	-2.636457
	3.400000	-2.713817
	3.405000	-2.739604
	3.410000	-2.655797
	3.415000	-2.639680
	3.420000	-2.713817
	3.425000	-2.736381
	3.430000	-2.655797
	3.435000	-2.633233
	3.440000	-2.717041
	3.445000	-2.736381
	3.450000	-2.652574
	3.455000	-2.630010
	3.460000	-2.717041
	3.465000	-2.742828
	3.470000	-2.655797
	3.475000	-2.642904
	3.480000	-2.723488
	3.485000	-2.742828
	3.490000	-2.649350
	3.495000	-2.639680
	3.500000	-2.713817
	3.505000	-2.736381
	3.510000	-2.655797
	3.515000	-2.633233
	3.520000	-2.717041
	3.525000	-2.733158
	3.530000	-2.662244
	3.535000	-2.636457
	3.540000	-2.720264
	3.545000	-2.736381
	3.550000	-2.662244
	3.555000	-2.646127
	3.560000	-2.717041
	3.565000	-2.746051
	3.570000	-2.655797
	3.575000	-2.636457
	3.580000	-2.720264
	3.585000	-2.733158
	3.590000	-2.659020
	3.595000	-2.646127
	3.600000	-2.723488
	3.605000	-2.736381
	3.610000	-2.655797
	3.615000	-2.642904
	3.620000	-2.723488
	3.625000	-2.736381
	3.630000	-2.659020
	3.635000	-2.636457
	3.640000	-2.720264
	3.645000	-2.733158
	3.650000	-2.659020
	3.655000	-2.646127
	3.660000	-2.720264
	3.665000	-2.739604
	3.670000	-2.665467
	3.675000	-2.639680
	3.680000	-2.720264
	3.685000	-2.736381
	3.690000	-2.659020
	3.695000	-2.639680
	3.700000	-2.726711
	3.705000	-2.736381
	3.710000	-2.659020
	3.715000	-2.636457
	3.720000	-2.723488
	3.725000	-2.733158
	3.730000	-2.652574
	3.735000	-2.639680
	3.740000	-2.723488
	3.745000	-2.739604
	3.750000	-2.659020
	3.755000	-2.639680
	3.760000	-2.717041
	3.765000	-2.729934
	3.770000	-2.649350
	3.775000	-2.636457
	3.780000	-2.713817
	3.785000	-2.733158
	3.790000	-2.655797
	3.795000	-2.646127
	3.800000	-2.720264
	3.805000	-2.733158
	3.810000	-2.655797
	3.815000	-2.642904
	3.820000	-2.713817
	3.825000	-2.729934
	3.830000	-2.659020
	3.835000	-2.636457
	3.840000	-2.723488
	3.845000	-2.733158
	3.850000	-2.655797
	3.855000	-2.646127
	3.860000	-2.720264
	3.865000	-2.733158
	3.870000	-2.662244
	3.875000	-2.642904
	3.880000	-2.729934
	3.885000	-2.742828
	3.890000	-2.665467
	3.895000	-2.649350
	3.900000	-2.723488
	3.905000	-2.739604
	3.910000	-2.662244
	3.915000	-2.639680
	3.920000	-2.723488
	3.925000	-2.746051
	3.930000	-2.665467
	3.935000	-2.646127
	3.940000	-2.723488
	3.945000	-2.736381
	3.950000	-2.662244
	3.955000	-2.642904
	3.960000	-2.729934
	3.965000	-2.746051
	3.970000	-2.665467
	3.975000	-2.652574
	3.980000	-2.736381
	3.985000	-2.746051
	3.990000	-2.668690
	3.995000	-2.652574
	4.000000	-2.739604
	4.005000	-2.746051
	4.010000	-2.662244
	4.015000	-2.646127
	4.020000	-2.733158
	4.025000	-2.746051
	4.030000	-2.662244
	4.035000	-2.652574
	4.040000	-2.729934
	4.045000	-2.749274
	4.050000	-2.668690
	4.055000	-2.659020
	4.060000	-2.736381
	4.065000	-2.749274
	4.070000	-2.675137
	4.075000	-2.659020
	4.080000	-2.739604
	4.085000	-2.755721
	4.090000	-2.665467
	4.095000	-2.655797
	4.100000	-2.742828
	4.105000	-2.755721
	4.110000	-2.678361
	4.115000	-2.659020
	4.120000	-2.739604
	4.125000	-2.755721
	4.130000	-2.671914
	4.135000	-2.659020
	4.140000	-2.733158
	4.145000	-2.758944
	4.150000	-2.678361
	4.155000	-2.655797
	4.160000	-2.736381
	4.165000	-2.758944
	4.170000	-2.684807
	4.175000	-2.662244
	4.180000	-2.746051
	4.185000	-2.752498
	4.190000	-2.675137
	4.195000	-2.671914
	4.200000	-2.746051
	4.205000	-2.755721
	4.210000	-2.678361
	4.215000	-2.655797
	4.220000	-2.742828
	4.225000	-2.752498
	4.230000	-2.671914
	4.235000	-2.659020
	4.240000	-2.739604
	4.245000	-2.758944
	4.250000	-2.665467
	4.255000	-2.655797
	4.260000	-2.742828
	4.265000	-2.755721
	4.270000	-2.675137
	4.275000	-2.659020
	4.280000	-2.733158
	4.285000	-2.755721
	4.290000	-2.665467
	4.295000	-2.655797
	4.300000	-2.742828
	4.305000	-2.746051
	4.310000	-2.665467
	4.315000	-2.652574
	4.320000	-2.736381
	4.325000	-2.739604
	4.330000	-2.668690
	4.335000	-2.646127
	4.340000	-2.733158
	4.345000	-2.746051
	4.350000	-2.668690
	4.355000	-2.649350
	4.360000	-2.733158
	4.365000	-2.739604
	4.370000	-2.665467
	4.375000	-2.649350
	4.380000	-2.729934
	4.385000	-2.742828
	4.390000	-2.659020
	4.395000	-2.655797
	4.400000	-2.726711
	4.405000	-2.736381
	4.410000	-2.668690
	4.415000	-2.642904
	4.420000	-2.723488
	4.425000	-2.746051
	4.430000	-2.655797
	4.435000	-2.649350
	4.440000	-2.723488
	4.445000	-2.733158
	4.450000	-2.655797
	4.455000	-2.642904
	4.460000	-2.729934
	4.465000	-2.729934
	4.470000	-2.655797
	4.475000	-2.642904
	4.480000	-2.720264
	4.485000	-2.736381
	4.490000	-2.659020
	4.495000	-2.639680
	4.500000	-2.720264
	4.505000	-2.729934
	4.510000	-2.649350
	4.515000	-2.649350
	4.520000	-2.723488
	4.525000	-2.729934
	4.530000	-2.655797
	4.535000	-2.646127
	4.540000	-2.720264
	4.545000	-2.739604
	4.550000	-2.655797
	4.555000	-2.633233
	4.560000	-2.726711
	4.565000	-2.733158
	4.570000	-2.652574
	4.575000	-2.642904
	4.580000	-2.723488
	4.585000	-2.729934
	4.590000	-2.642904
	4.595000	-2.642904
	4.600000	-2.720264
	4.605000	-2.720264
	4.610000	-2.642904
	4.615000	-2.620340
	4.620000	-2.710594
	4.625000	-2.720264
	4.630000	-2.633233
	4.635000	-2.617117
	4.640000	-2.700924
	4.645000	-2.704147
	4.650000	-2.623563
	4.655000	-2.626787
	4.660000	-2.700924
	4.665000	-2.717041
	4.670000	-2.633233
	4.675000	-2.626787
	4.680000	-2.704147
	4.685000	-2.710594
	4.690000	-2.633233
	4.695000	-2.626787
	4.700000	-2.707371
	4.705000	-2.713817
	4.710000	-2.636457
	4.715000	-2.630010
	4.720000	-2.710594
	4.725000	-2.717041
	4.730000	-2.636457
	4.735000	-2.630010
	4.740000	-2.700924
	4.745000	-2.704147
	4.750000	-2.636457
	4.755000	-2.623563
	4.760000	-2.700924
	4.765000	-2.720264
	4.770000	-2.639680
	4.775000	-2.623563
	4.780000	-2.704147
	4.785000	-2.717041
	4.790000	-2.636457
	4.795000	-2.630010
	4.800000	-2.713817
	4.805000	-2.710594
	4.810000	-2.642904
	4.815000	-2.642904
	4.820000	-2.720264
	4.825000	-2.729934
	4.830000	-2.649350
	4.835000	-2.636457
	4.840000	-2.717041
	4.845000	-2.720264
	4.850000	-2.655797
	4.855000	-2.636457
	4.860000	-2.729934
	4.865000	-2.729934
	4.870000	-2.652574
	4.875000	-2.646127
	4.880000	-2.729934
	4.885000	-2.733158
	4.890000	-2.662244
	4.895000	-2.646127
	4.900000	-2.729934
	4.905000	-2.736381
	4.910000	-2.662244
	4.915000	-2.646127
	4.920000	-2.736381
	4.925000	-2.736381
	4.930000	-2.665467
	4.935000	-2.655797
	4.940000	-2.729934
	4.945000	-2.739604
	4.950000	-2.659020
	4.955000	-2.655797
	4.960000	-2.736381
	4.965000	-2.752498
	4.970000	-2.665467
	4.975000	-2.655797
	4.980000	-2.746051
	4.985000	-2.746051
	4.990000	-2.662244
	4.995000	-2.659020
	5.000000	-2.739604
	5.005000	-2.749274
	5.010000	-2.668690
	5.015000	-2.655797
	5.020000	-2.742828
	5.025000	-2.749274
	5.030000	-2.675137
	5.035000	-2.662244
	5.040000	-2.739604
	5.045000	-2.752498
	5.050000	-2.675137
	5.055000	-2.665467
	5.060000	-2.742828
	5.065000	-2.755721
	5.070000	-2.675137
	5.075000	-2.662244
	5.080000	-2.746051
	5.085000	-2.758944
	5.090000	-2.675137
	5.095000	-2.668690
	5.100000	-2.752498
	5.105000	-2.752498
	5.110000	-2.668690
	5.115000	-2.668690
	5.120000	-2.746051
	5.125000	-2.758944
	5.130000	-2.671914
	5.135000	-2.668690
	5.140000	-2.742828
	5.145000	-2.752498
	5.150000	-2.675137
	5.155000	-2.668690
	5.160000	-2.749274
	5.165000	-2.755721
	5.170000	-2.675137
	5.175000	-2.671914
	5.180000	-2.752498
	5.185000	-2.762168
	5.190000	-2.678361
	5.195000	-2.675137
	5.200000	-2.758944
	5.205000	-2.762168
	5.210000	-2.688031
	5.215000	-2.668690
	5.220000	-2.746051
	5.225000	-2.755721
	5.230000	-2.681584
	5.235000	-2.675137
	5.240000	-2.752498
	5.245000	-2.758944
	5.250000	-2.684807
	5.255000	-2.681584
	5.260000	-2.755721
	5.265000	-2.758944
	5.270000	-2.684807
	5.275000	-2.671914
	5.280000	-2.755721
	5.285000	-2.768615
	5.290000	-2.684807
	5.295000	-2.681584
	5.300000	-2.758944
	5.305000	-2.768615
	5.310000	-2.681584
	5.315000	-2.681584
	5.320000	-2.755721
	5.325000	-2.765391
	5.330000	-2.688031
	5.335000	-2.681584
	5.340000	-2.762168
	5.345000	-2.768615
	5.350000	-2.688031
	5.355000	-2.684807
	5.360000	-2.758944
	5.365000	-2.762168
	5.370000	-2.684807
	5.375000	-2.681584
	5.380000	-2.771838
	5.385000	-2.775061
	5.390000	-2.691254
	5.395000	-2.694477
	5.400000	-2.775061
	5.405000	-2.775061
	5.410000	-2.697701
	5.415000	-2.688031
	5.420000	-2.778285
	5.425000	-2.775061
	5.430000	-2.697701
	5.435000	-2.694477
	5.440000	-2.784731
	5.445000	-2.781508
	5.450000	-2.704147
	5.455000	-2.691254
	5.460000	-2.787955
	5.465000	-2.787955
	5.470000	-2.700924
	5.475000	-2.704147
	5.480000	-2.778285
	5.485000	-2.784731
	5.490000	-2.707371
	5.495000	-2.700924
	5.500000	-2.787955
	5.505000	-2.787955
	5.510000	-2.713817
	5.515000	-2.710594
	5.520000	-2.794401
	5.525000	-2.800848
	5.530000	-2.720264
	5.535000	-2.720264
	5.540000	-2.807295
	5.545000	-2.820188
	5.550000	-2.733158
	5.555000	-2.729934
	5.560000	-2.810518
	5.565000	-2.816965
	5.570000	-2.749274
	5.575000	-2.736381
	5.580000	-2.823412
	5.585000	-2.829858
	5.590000	-2.749274
	5.595000	-2.742828
	5.600000	-2.836305
	5.605000	-2.836305
	5.610000	-2.758944
	5.615000	-2.755721
	5.620000	-2.836305
	5.625000	-2.836305
	5.630000	-2.755721
	5.635000	-2.755721
	5.640000	-2.836305
	5.645000	-2.839528
	5.650000	-2.755721
	5.655000	-2.762168
	5.660000	-2.836305
	5.665000	-2.842752
	5.670000	-2.758944
	5.675000	-2.762168
	5.680000	-2.833082
	5.685000	-2.836305
	5.690000	-2.758944
	5.695000	-2.749274
	5.700000	-2.839528
	5.705000	-2.839528
	5.710000	-2.755721
	5.715000	-2.755721
	5.720000	-2.836305
	5.725000	-2.833082
	5.730000	-2.755721
	5.735000	-2.755721
	5.740000	-2.839528
	5.745000	-2.839528
	5.750000	-2.758944
	5.755000	-2.758944
	5.760000	-2.833082
	5.765000	-2.839528
	5.770000	-2.765391
	5.775000	-2.755721
	5.780000	-2.839528
	5.785000	-2.833082
	5.790000	-2.755721
	5.795000	-2.752498
	5.800000	-2.836305
	5.805000	-2.836305
	5.810000	-2.755721
	5.815000	-2.742828
	5.820000	-2.839528
	5.825000	-2.829858
	5.830000	-2.752498
	5.835000	-2.746051
	5.840000	-2.829858
	5.845000	-2.829858
	5.850000	-2.749274
	5.855000	-2.742828
	5.860000	-2.826635
	5.865000	-2.820188
	5.870000	-2.736381
	5.875000	-2.726711
	5.880000	-2.800848
	5.885000	-2.800848
	5.890000	-2.726711
	5.895000	-2.713817
	5.900000	-2.791178
	5.905000	-2.784731
	5.910000	-2.700924
	5.915000	-2.694477
	5.920000	-2.771838
	5.925000	-2.775061
	5.930000	-2.681584
	5.935000	-2.681584
	5.940000	-2.758944
	5.945000	-2.758944
	5.950000	-2.675137
	5.955000	-2.678361
	5.960000	-2.752498
	5.965000	-2.755721
	5.970000	-2.675137
	5.975000	-2.671914
	5.980000	-2.749274
	5.985000	-2.749274
	5.990000	-2.675137
	5.995000	-2.668690
	6.000000	-2.746051
	6.005000	-2.749274
	6.010000	-2.675137
	6.015000	-2.671914
	6.020000	-2.749274
	6.025000	-2.755721
	6.030000	-2.668690
	6.035000	-2.665467
	6.040000	-2.752498
	6.045000	-2.752498
	6.050000	-2.668690
	6.055000	-2.668690
	6.060000	-2.749274
	6.065000	-2.755721
	6.070000	-2.681584
	6.075000	-2.675137
	6.080000	-2.758944
	6.085000	-2.755721
	6.090000	-2.675137
	6.095000	-2.684807
	6.100000	-2.752498
	6.105000	-2.762168
	6.110000	-2.684807
	6.115000	-2.691254
	6.120000	-2.762168
	6.125000	-2.762168
	6.130000	-2.684807
	6.135000	-2.688031
	6.140000	-2.771838
	6.145000	-2.771838
	6.150000	-2.688031
	6.155000	-2.691254
	6.160000	-2.771838
	6.165000	-2.768615
	6.170000	-2.688031
	6.175000	-2.691254
	6.180000	-2.775061
	6.185000	-2.768615
	6.190000	-2.691254
	6.195000	-2.700924
	6.200000	-2.775061
	6.205000	-2.768615
	6.210000	-2.694477
	6.215000	-2.697701
	6.220000	-2.775061
	6.225000	-2.771838
	6.230000	-2.694477
	6.235000	-2.697701
	6.240000	-2.778285
	6.245000	-2.778285
	6.250000	-2.700924
	6.255000	-2.697701
	6.260000	-2.775061
	6.265000	-2.775061
	6.270000	-2.697701
	6.275000	-2.697701
	6.280000	-2.778285
	6.285000	-2.778285
	6.290000	-2.704147
	6.295000	-2.700924
	6.300000	-2.784731
	6.305000	-2.775061
	6.310000	-2.700924
	6.315000	-2.700924
	6.320000	-2.784731
	6.325000	-2.775061
	6.330000	-2.697701
	6.335000	-2.704147
	6.340000	-2.787955
	6.345000	-2.781508
	6.350000	-2.700924
	6.355000	-2.707371
	6.360000	-2.787955
	6.365000	-2.775061
	6.370000	-2.700924
	6.375000	-2.707371
	6.380000	-2.791178
	6.385000	-2.781508
	6.390000	-2.700924
	6.395000	-2.704147
	6.400000	-2.791178
	6.405000	-2.784731
	6.410000	-2.704147
	6.415000	-2.704147
	6.420000	-2.791178
	6.425000	-2.794401
	6.430000	-2.713817
	6.435000	-2.710594
	6.440000	-2.791178
	6.445000	-2.794401
	6.450000	-2.710594
	6.455000	-2.717041
	6.460000	-2.794401
	6.465000	-2.794401
	6.470000	-2.717041
	6.475000	-2.717041
	6.480000	-2.794401
	6.485000	-2.800848
	6.490000	-2.720264
	6.495000	-2.713817
	6.500000	-2.794401
	6.505000	-2.794401
	6.510000	-2.713817
	6.515000	-2.723488
	6.520000	-2.800848
	6.525000	-2.800848
	6.530000	-2.713817
	6.535000	-2.723488
	6.540000	-2.797625
	6.545000	-2.794401
	6.550000	-2.717041
	6.555000	-2.726711
	6.560000	-2.807295
	6.565000	-2.800848
	6.570000	-2.723488
	6.575000	-2.723488
	6.580000	-2.804072
	6.585000	-2.804072
	6.590000	-2.720264
	6.595000	-2.726711
	6.600000	-2.807295
	6.605000	-2.800848
	6.610000	-2.720264
	6.615000	-2.723488
	6.620000	-2.807295
	6.625000	-2.810518
	6.630000	-2.726711
	6.635000	-2.729934
	6.640000	-2.813742
	6.645000	-2.810518
	6.650000	-2.736381
	6.655000	-2.729934
	6.660000	-2.810518
	6.665000	-2.807295
	6.670000	-2.733158
	6.675000	-2.733158
	6.680000	-2.816965
	6.685000	-2.820188
	6.690000	-2.733158
	6.695000	-2.739604
	6.700000	-2.813742
	6.705000	-2.810518
	6.710000	-2.736381
	6.715000	-2.736381
	6.720000	-2.820188
	6.725000	-2.816965
	6.730000	-2.729934
	6.735000	-2.739604
	6.740000	-2.816965
	6.745000	-2.820188
	6.750000	-2.739604
	6.755000	-2.736381
	6.760000	-2.829858
	6.765000	-2.816965
	6.770000	-2.742828
	6.775000	-2.742828
	6.780000	-2.823412
	6.785000	-2.820188
	6.790000	-2.742828
	6.795000	-2.742828
	6.800000	-2.823412
	6.805000	-2.820188
	6.810000	-2.742828
	6.815000	-2.746051
	6.820000	-2.826635
	6.825000	-2.826635
	6.830000	-2.742828
	6.835000	-2.742828
	6.840000	-2.829858
	6.845000	-2.816965
	6.850000	-2.742828
	6.855000	-2.742828
	6.860000	-2.829858
	6.865000	-2.829858
	6.870000	-2.746051
	6.875000	-2.739604
	6.880000	-2.826635
	6.885000	-2.820188
	6.890000	-2.746051
	6.895000	-2.742828
	6.900000	-2.829858
	6.905000	-2.826635
	6.910000	-2.742828
	6.915000	-2.746051
	6.920000	-2.829858
	6.925000	-2.823412
	6.930000	-2.742828
	6.935000	-2.752498
	6.940000	-2.829858
	6.945000	-2.820188
	6.950000	-2.739604
	6.955000	-2.739604
	6.960000	-2.829858
	6.965000	-2.816965
	6.970000	-2.736381
	6.975000	-2.742828
	6.980000	-2.829858
	6.985000	-2.820188
	6.990000	-2.739604
	6.995000	-2.749274
	7.000000	-2.833082
	7.005000	-2.816965
	7.010000	-2.739604
	7.015000	-2.736381
	7.020000	-2.826635
	7.025000	-2.816965
	7.030000	-2.733158
	7.035000	-2.749274
	7.040000	-2.823412
	7.045000	-2.823412
	7.050000	-2.733158
	7.055000	-2.739604
	7.060000	-2.833082
	7.065000	-2.823412
	7.070000	-2.736381
	7.075000	-2.742828
	7.080000	-2.826635
	7.085000	-2.820188
	7.090000	-2.733158
	7.095000	-2.739604
	7.100000	-2.826635
	7.105000	-2.820188
	7.110000	-2.729934
	7.115000	-2.746051
	7.120000	-2.823412
	7.125000	-2.816965
	7.130000	-2.733158
	7.135000	-2.736381
	7.140000	-2.826635
	7.145000	-2.813742
	7.150000	-2.729934
	7.155000	-2.733158
	7.160000	-2.813742
	7.165000	-2.804072
	7.170000	-2.729934
	7.175000	-2.742828
	7.180000	-2.823412
	7.185000	-2.804072
	7.190000	-2.733158
	7.195000	-2.733158
	7.200000	-2.816965
	7.205000	-2.810518
	7.210000	-2.733158
	7.215000	-2.729934
	7.220000	-2.816965
	7.225000	-2.813742
	7.230000	-2.729934
	7.235000	-2.736381
	7.240000	-2.810518
	7.245000	-2.800848
	7.250000	-2.729934
	7.255000	-2.726711
	7.260000	-2.804072
	7.265000	-2.800848
	7.270000	-2.726711
	7.275000	-2.733158
	7.280000	-2.810518
	7.285000	-2.800848
	7.290000	-2.723488
	7.295000	-2.723488
	7.300000	-2.810518
	7.305000	-2.804072
	7.310000	-2.717041
	7.315000	-2.726711
	7.320000	-2.807295
	7.325000	-2.794401
	7.330000	-2.713817
	7.335000	-2.723488
	7.340000	-2.804072
	7.345000	-2.797625
	7.350000	-2.720264
	7.355000	-2.717041
	7.360000	-2.810518
	7.365000	-2.791178
	7.370000	-2.717041
	7.375000	-2.726711
	7.380000	-2.804072
	7.385000	-2.797625
	7.390000	-2.717041
	7.395000	-2.723488
	7.400000	-2.807295
	7.405000	-2.794401
	7.410000	-2.717041
	7.415000	-2.723488
	7.420000	-2.804072
	7.425000	-2.794401
	7.430000	-2.713817
	7.435000	-2.726711
	7.440000	-2.804072
	7.445000	-2.794401
	7.450000	-2.720264
	7.455000	-2.720264
	7.460000	-2.804072
	7.465000	-2.797625
	7.470000	-2.710594
	7.475000	-2.723488
	7.480000	-2.800848
	7.485000	-2.794401
	7.490000	-2.713817
	7.495000	-2.720264
	7.500000	-2.804072
	7.505000	-2.804072
	7.510000	-2.720264
	7.515000	-2.720264
	7.520000	-2.804072
	7.525000	-2.794401
	7.530000	-2.710594
	7.535000	-2.723488
	7.540000	-2.800848
	7.545000	-2.797625
	7.550000	-2.717041
	7.555000	-2.726711
	7.560000	-2.804072
	7.565000	-2.791178
	7.570000	-2.717041
	7.575000	-2.726711
	7.580000	-2.797625
	7.585000	-2.794401
	7.590000	-2.713817
	7.595000	-2.720264
	7.600000	-2.800848
	7.605000	-2.791178
	7.610000	-2.713817
	7.615000	-2.723488
	7.620000	-2.800848
	7.625000	-2.797625
	7.630000	-2.717041
	7.635000	-2.726711
	7.640000	-2.800848
	7.645000	-2.791178
	7.650000	-2.710594
	7.655000	-2.723488
	7.660000	-2.807295
	7.665000	-2.794401
	7.670000	-2.710594
	7.675000	-2.720264
	7.680000	-2.800848
	7.685000	-2.791178
	7.690000	-2.717041
	7.695000	-2.713817
	7.700000	-2.800848
	7.705000	-2.784731
	7.710000	-2.710594
	7.715000	-2.720264
	7.720000	-2.804072
	7.725000	-2.797625
	7.730000	-2.713817
	7.735000	-2.717041
	7.740000	-2.804072
	7.745000	-2.787955
	7.750000	-2.710594
	7.755000	-2.723488
	7.760000	-2.804072
	7.765000	-2.791178
	7.770000	-2.713817
	7.775000	-2.717041
	7.780000	-2.804072
	7.785000	-2.800848
	7.790000	-2.710594
	7.795000	-2.720264
	7.800000	-2.797625
	7.805000	-2.794401
	7.810000	-2.710594
	7.815000	-2.717041
	7.820000	-2.804072
	7.825000	-2.794401
	7.830000	-2.717041
	7.835000	-2.720264
	7.840000	-2.797625
	7.845000	-2.794401
	7.850000	-2.713817
	7.855000	-2.720264
	7.860000	-2.807295
	7.865000	-2.797625
	7.870000	-2.713817
	7.875000	-2.723488
	7.880000	-2.804072
	7.885000	-2.797625
	7.890000	-2.713817
	7.895000	-2.723488
	7.900000	-2.807295
	7.905000	-2.797625
	7.910000	-2.713817
	7.915000	-2.723488
	7.920000	-2.810518
	7.925000	-2.794401
	7.930000	-2.710594
	7.935000	-2.726711
	7.940000	-2.800848
	7.945000	-2.791178
	7.950000	-2.713817
	7.955000	-2.723488
	7.960000	-2.807295
	7.965000	-2.787955
	7.970000	-2.720264
	7.975000	-2.717041
	7.980000	-2.813742
	7.985000	-2.797625
	7.990000	-2.720264
	7.995000	-2.723488
	8.000000	-2.807295
	8.005000	-2.784731
	8.010000	-2.710594
	8.015000	-2.733158
	8.020000	-2.804072
	8.025000	-2.797625
	8.030000	-2.717041
	8.035000	-2.733158
	8.040000	-2.810518
	8.045000	-2.800848
	8.050000	-2.713817
	8.055000	-2.723488
	8.060000	-2.810518
	8.065000	-2.791178
	8.070000	-2.717041
	8.075000	-2.726711
	8.080000	-2.813742
	8.085000	-2.797625
	8.090000	-2.723488
	8.095000	-2.736381
	8.100000	-2.813742
	8.105000	-2.804072
	8.110000	-2.717041
	8.115000	-2.733158
	8.120000	-2.813742
	8.125000	-2.791178
	8.130000	-2.717041
	8.135000	-2.729934
	8.140000	-2.810518
	8.145000	-2.794401
	8.150000	-2.720264
	8.155000	-2.726711
	8.160000	-2.807295
	8.165000	-2.797625
	8.170000	-2.717041
	8.175000	-2.726711
	8.180000	-2.813742
	8.185000	-2.797625
	8.190000	-2.717041
	8.195000	-2.726711
	8.200000	-2.807295
	8.205000	-2.797625
	8.210000	-2.713817
	8.215000	-2.736381
	8.220000	-2.804072
	8.225000	-2.794401
	8.230000	-2.720264
	8.235000	-2.739604
	8.240000	-2.807295
	8.245000	-2.794401
	8.250000	-2.710594
	8.255000	-2.736381
	8.260000	-2.804072
	8.265000	-2.800848
	8.270000	-2.713817
	8.275000	-2.723488
	8.280000	-2.810518
	8.285000	-2.797625
	8.290000	-2.707371
	8.295000	-2.726711
	8.300000	-2.804072
	8.305000	-2.791178
	8.310000	-2.713817
	8.315000	-2.723488
	8.320000	-2.804072
	8.325000	-2.794401
	8.330000	-2.713817
	8.335000	-2.726711
	8.340000	-2.810518
	8.345000	-2.791178
	8.350000	-2.710594
	8.355000	-2.729934
	8.360000	-2.810518
	8.365000	-2.800848
	8.370000	-2.713817
	8.375000	-2.733158
	8.380000	-2.800848
	8.385000	-2.797625
	8.390000	-2.713817
	8.395000	-2.717041
	8.400000	-2.804072
	8.405000	-2.791178
	8.410000	-2.710594
	8.415000	-2.729934
	8.420000	-2.804072
	8.425000	-2.784731
	8.430000	-2.720264
	8.435000	-2.729934
	8.440000	-2.810518
	8.445000	-2.791178
	8.450000	-2.720264
	8.455000	-2.723488
	8.460000	-2.804072
	8.465000	-2.797625
	8.470000	-2.713817
	8.475000	-2.726711
	8.480000	-2.810518
	8.485000	-2.791178
	8.490000	-2.720264
	8.495000	-2.726711
	8.500000	-2.810518
	8.505000	-2.794401
	8.510000	-2.713817
	8.515000	-2.723488
	8.520000	-2.807295
	8.525000	-2.791178
	8.530000	-2.717041
	8.535000	-2.726711
	8.540000	-2.804072
	8.545000	-2.787955
	8.550000	-2.704147
	8.555000	-2.723488
	8.560000	-2.797625
	8.565000	-2.791178
	8.570000	-2.707371
	8.575000	-2.720264
	8.580000	-2.807295
	8.585000	-2.791178
	8.590000	-2.713817
	8.595000	-2.720264
	8.600000	-2.800848
	8.605000	-2.791178
	8.610000	-2.704147
	8.615000	-2.723488
	8.620000	-2.804072
	8.625000	-2.781508
	8.630000	-2.713817
	8.635000	-2.713817
	8.640000	-2.794401
	8.645000	-2.775061
	8.650000	-2.697701
	8.655000	-2.710594
	8.660000	-2.784731
	8.665000	-2.771838
	8.670000	-2.694477
	8.675000	-2.710594
	8.680000	-2.791178
	8.685000	-2.778285
	8.690000	-2.707371
	8.695000	-2.720264
	8.700000	-2.797625
	8.705000	-2.787955
	8.710000	-2.713817
	8.715000	-2.729934
	8.720000	-2.807295
	8.725000	-2.787955
	8.730000	-2.720264
	8.735000	-2.736381
	8.740000	-2.813742
	8.745000	-2.794401
	8.750000	-2.723488
	8.755000	-2.742828
	8.760000	-2.826635
	8.765000	-2.816965
	8.770000	-2.739604
	8.775000	-2.758944
	8.780000	-2.845975
	8.785000	-2.823412
	8.790000	-2.752498
	8.795000	-2.762168
	8.800000	-2.855645
	8.805000	-2.839528
	8.810000	-2.765391
	8.815000	-2.791178
	8.820000	-2.871762
	8.825000	-2.852422
	8.830000	-2.784731
	8.835000	-2.791178
	8.840000	-2.878209
	8.845000	-2.865315
	8.850000	-2.787955
	8.855000	-2.807295
	8.860000	-2.891102
	8.865000	-2.874985
	8.870000	-2.797625
	8.875000	-2.820188
	8.880000	-2.894326
	8.885000	-2.878209
	8.890000	-2.807295
	8.895000	-2.829858
	8.900000	-2.891102
	8.905000	-2.891102
	8.910000	-2.813742
	8.915000	-2.823412
	8.920000	-2.907219
	8.925000	-2.894326
	8.930000	-2.820188
	8.935000	-2.839528
	8.940000	-2.916889
	8.945000	-2.894326
	8.950000	-2.820188
	8.955000	-2.839528
	8.960000	-2.920112
	8.965000	-2.897549
	8.970000	-2.823412
	8.975000	-2.836305
	8.980000	-2.920112
	8.985000	-2.907219
	8.990000	-2.823412
	8.995000	-2.839528
	9.000000	-2.920112
	9.005000	-2.907219
	9.010000	-2.826635
	9.015000	-2.836305
	9.020000	-2.920112
	9.025000	-2.897549
	9.030000	-2.823412
	9.035000	-2.836305
	9.040000	-2.910442
	9.045000	-2.897549
	9.050000	-2.816965
	9.055000	-2.836305
	9.060000	-2.910442
	9.065000	-2.894326
	9.070000	-2.823412
	9.075000	-2.826635
	9.080000	-2.910442
	9.085000	-2.887879
	9.090000	-2.813742
	9.095000	-2.816965
	9.100000	-2.900772
	9.105000	-2.887879
	9.110000	-2.804072
	9.115000	-2.813742
	9.120000	-2.894326
	9.125000	-2.881432
	9.130000	-2.794401
	9.135000	-2.813742
	9.140000	-2.881432
	9.145000	-2.868539
	9.150000	-2.791178
	9.155000	-2.804072
	9.160000	-2.881432
	9.165000	-2.865315
	9.170000	-2.791178
	9.175000	-2.800848
	9.180000	-2.884655
	9.185000	-2.858869
	9.190000	-2.784731
	9.195000	-2.791178
	9.200000	-2.865315
	9.205000	-2.849199
	9.210000	-2.768615
	9.215000	-2.784731
	9.220000	-2.858869
	9.225000	-2.842752
	9.230000	-2.762168
	9.235000	-2.775061
	9.240000	-2.855645
	9.245000	-2.836305
	9.250000	-2.762168
	9.255000	-2.771838
	9.260000	-2.849199
	9.265000	-2.833082
	9.270000	-2.749274
	9.275000	-2.771838
	9.280000	-2.842752
	9.285000	-2.826635
	9.290000	-2.746051
	9.295000	-2.762168
	9.300000	-2.842752
	9.305000	-2.816965
	9.310000	-2.739604
	9.315000	-2.758944
	9.320000	-2.836305
	9.325000	-2.823412
	9.330000	-2.736381
	9.335000	-2.752498
	9.340000	-2.836305
	9.345000	-2.816965
	9.350000	-2.733158
	9.355000	-2.755721
	9.360000	-2.833082
	9.365000	-2.823412
	9.370000	-2.736381
	9.375000	-2.752498
	9.380000	-2.836305
	9.385000	-2.813742
	9.390000	-2.729934
	9.395000	-2.755721
	9.400000	-2.833082
	9.405000	-2.813742
	9.410000	-2.733158
	9.415000	-2.752498
	9.420000	-2.833082
	9.425000	-2.810518
	9.430000	-2.733158
	9.435000	-2.746051
	9.440000	-2.829858
	9.445000	-2.804072
	9.450000	-2.726711
	9.455000	-2.742828
	9.460000	-2.829858
	9.465000	-2.810518
	9.470000	-2.729934
	9.475000	-2.746051
	9.480000	-2.820188
	9.485000	-2.800848
	9.490000	-2.726711
	9.495000	-2.742828
	9.500000	-2.816965
	9.505000	-2.804072
	9.510000	-2.720264
	9.515000	-2.739604
	9.520000	-2.823412
	9.525000	-2.797625
	9.530000	-2.720264
	9.535000	-2.739604
	9.540000	-2.823412
	9.545000	-2.791178
	9.550000	-2.720264
	9.555000	-2.733158
	9.560000	-2.820188
	9.565000	-2.797625
	9.570000	-2.717041
	9.575000	-2.729934
	9.580000	-2.816965
	9.585000	-2.791178
	9.590000	-2.713817
	9.595000	-2.733158
	9.600000	-2.813742
	9.605000	-2.804072
	9.610000	-2.710594
	9.615000	-2.733158
	9.620000	-2.810518
	9.625000	-2.787955
	9.630000	-2.707371
	9.635000	-2.723488
	9.640000	-2.810518
	9.645000	-2.791178
	9.650000	-2.710594
	9.655000	-2.729934
	9.660000	-2.800848
	9.665000	-2.787955
	9.670000	-2.707371
	9.675000	-2.720264
	9.680000	-2.804072
	9.685000	-2.794401
	9.690000	-2.710594
	9.695000	-2.723488
	9.700000	-2.807295
	9.705000	-2.787955
	9.710000	-2.710594
	9.715000	-2.713817
	9.720000	-2.800848
	9.725000	-2.791178
	9.730000	-2.710594
	9.735000	-2.720264
	9.740000	-2.810518
	9.745000	-2.787955
	9.750000	-2.713817
	9.755000	-2.717041
	9.760000	-2.804072
	9.765000	-2.787955
	9.770000	-2.710594
	9.775000	-2.733158
	9.780000	-2.804072
	9.785000	-2.784731
	9.790000	-2.707371
	9.795000	-2.720264
	9.800000	-2.810518
	9.805000	-2.784731
	9.810000	-2.713817
	9.815000	-2.726711
	9.820000	-2.804072
	9.825000	-2.787955
	9.830000	-2.710594
	9.835000	-2.726711
	9.840000	-2.804072
	9.845000	-2.787955
	9.850000	-2.710594
	9.855000	-2.733158
	9.860000	-2.807295
	9.865000	-2.791178
	9.870000	-2.707371
	9.875000	-2.723488
	9.880000	-2.810518
	9.885000	-2.787955
	9.890000	-2.713817
	9.895000	-2.726711
	9.900000	-2.804072
	9.905000	-2.778285
	9.910000	-2.700924
	9.915000	-2.726711
	9.920000	-2.807295
	9.925000	-2.784731
	9.930000	-2.707371
	9.935000	-2.720264
	9.940000	-2.804072
	9.945000	-2.784731
	9.950000	-2.704147
	9.955000	-2.723488
	9.960000	-2.797625
	9.965000	-2.784731
	9.970000	-2.704147
	9.975000	-2.723488
	9.980000	-2.800848
	9.985000	-2.775061
	9.990000	-2.707371
	9.995000	-2.726711
	10.000000	-2.800848
	10.005000	-2.784731
	10.010000	-2.704147
	10.015000	-2.717041
	10.020000	-2.797625
	10.025000	-2.781508
	10.030000	-2.704147
	10.035000	-2.717041
	10.040000	-2.800848
	10.045000	-2.775061
	10.050000	-2.700924
	10.055000	-2.713817
	10.060000	-2.787955
	10.065000	-2.762168
	10.070000	-2.678361
	10.075000	-2.697701
	10.080000	-2.778285
	10.085000	-2.758944
	10.090000	-2.678361
	10.095000	-2.700924
	10.100000	-2.781508
	10.105000	-2.755721
	10.110000	-2.678361
	10.115000	-2.691254
	10.120000	-2.768615
	10.125000	-2.749274
	10.130000	-2.665467
	10.135000	-2.697701
	10.140000	-2.771838
	10.145000	-2.749274
	10.150000	-2.668690
	10.155000	-2.684807
	10.160000	-2.765391
	10.165000	-2.742828
	10.170000	-2.659020
	10.175000	-2.684807
	10.180000	-2.765391
	10.185000	-2.742828
	10.190000	-2.655797
	10.195000	-2.678361
	10.200000	-2.755721
	10.205000	-2.739604
	10.210000	-2.665467
	10.215000	-2.684807
	10.220000	-2.762168
	10.225000	-2.736381
	10.230000	-2.662244
	10.235000	-2.681584
	10.240000	-2.762168
	10.245000	-2.739604
	10.250000	-2.659020
	10.255000	-2.681584
	10.260000	-2.758944
	10.265000	-2.733158
	10.270000	-2.665467
	10.275000	-2.684807
	10.280000	-2.765391
	10.285000	-2.739604
	10.290000	-2.659020
	10.295000	-2.691254
	10.300000	-2.765391
	10.305000	-2.742828
	10.310000	-2.668690
	10.315000	-2.688031
	10.320000	-2.758944
	10.325000	-2.739604
	10.330000	-2.665467
	10.335000	-2.691254
	10.340000	-2.762168
	10.345000	-2.749274
	10.350000	-2.668690
	10.355000	-2.684807
	10.360000	-2.765391
	10.365000	-2.746051
	10.370000	-2.668690
	10.375000	-2.691254
	10.380000	-2.762168
	10.385000	-2.749274
	10.390000	-2.668690
	10.395000	-2.688031
	10.400000	-2.771838
	10.405000	-2.742828
	10.410000	-2.665467
	10.415000	-2.684807
	10.420000	-2.765391
	10.425000	-2.742828
	10.430000	-2.665467
	10.435000	-2.688031
	10.440000	-2.762168
	10.445000	-2.742828
	10.450000	-2.671914
	10.455000	-2.684807
	10.460000	-2.762168
	10.465000	-2.739604
	10.470000	-2.668690
	10.475000	-2.681584
	10.480000	-2.762168
	10.485000	-2.749274
	10.490000	-2.668690
	10.495000	-2.681584
	10.500000	-2.768615
	10.505000	-2.746051
	10.510000	-2.665467
	10.515000	-2.684807
	10.520000	-2.768615
	10.525000	-2.742828
	10.530000	-2.665467
	10.535000	-2.688031
	10.540000	-2.771838
	10.545000	-2.749274
	10.550000	-2.668690
	10.555000	-2.704147
	10.560000	-2.768615
	10.565000	-2.749274
	10.570000	-2.681584
	10.575000	-2.697701
	10.580000	-2.775061
	10.585000	-2.749274
	10.590000	-2.688031
	10.595000	-2.700924
	10.600000	-2.784731
	10.605000	-2.755721
	10.610000	-2.678361
	10.615000	-2.707371
	10.620000	-2.787955
	10.625000	-2.762168
	10.630000	-2.688031
	10.635000	-2.707371
	10.640000	-2.787955
	10.645000	-2.768615
	10.650000	-2.691254
	10.655000	-2.713817
	10.660000	-2.791178
	10.665000	-2.768615
	10.670000	-2.694477
	10.675000	-2.713817
	10.680000	-2.791178
	10.685000	-2.771838
	10.690000	-2.684807
	10.695000	-2.707371
	10.700000	-2.784731
	10.705000	-2.768615
	10.710000	-2.691254
	10.715000	-2.710594
	10.720000	-2.794401
	10.725000	-2.771838
	10.730000	-2.688031
	10.735000	-2.710594
	10.740000	-2.784731
	10.745000	-2.768615
	10.750000	-2.694477
	10.755000	-2.707371
	10.760000	-2.791178
	10.765000	-2.762168
	10.770000	-2.691254
	10.775000	-2.713817
	10.780000	-2.787955
	10.785000	-2.758944
	10.790000	-2.691254
	10.795000	-2.717041
	10.800000	-2.797625
	10.805000	-2.778285
	10.810000	-2.691254
	10.815000	-2.713817
	10.820000	-2.787955
	10.825000	-2.768615
	10.830000	-2.700924
	10.835000	-2.720264
	10.840000	-2.797625
	10.845000	-2.778285
	10.850000	-2.697701
	10.855000	-2.723488
	10.860000	-2.807295
	10.865000	-2.781508
	10.870000	-2.707371
	10.875000	-2.726711
	10.880000	-2.804072
	10.885000	-2.784731
	10.890000	-2.710594
	10.895000	-2.726711
	10.900000	-2.807295
	10.905000	-2.791178
	10.910000	-2.717041
	10.915000	-2.733158
	10.920000	-2.807295
	10.925000	-2.794401
	10.930000	-2.707371
	10.935000	-2.739604
	10.940000	-2.810518
	10.945000	-2.791178
	10.950000	-2.713817
	10.955000	-2.729934
	10.960000	-2.807295
	10.965000	-2.787955
	10.970000	-2.713817
	10.975000	-2.736381
	10.980000	-2.826635
	10.985000	-2.791178
	10.990000	-2.720264
	10.995000	-2.739604
	11.000000	-2.816965
	11.005000	-2.797625
	11.010000	-2.720264
	11.015000	-2.733158
	11.020000	-2.816965
	11.025000	-2.791178
	11.030000	-2.720264
	11.035000	-2.736381
	11.040000	-2.816965
	11.045000	-2.794401
	11.050000	-2.717041
	11.055000	-2.736381
	11.060000	-2.816965
	11.065000	-2.797625
	11.070000	-2.713817
	11.075000	-2.736381
	11.080000	-2.820188
	11.085000	-2.794401
	11.090000	-2.707371
	11.095000	-2.739604
	11.100000	-2.816965
	11.105000	-2.797625
	11.110000	-2.713817
	11.115000	-2.739604
	11.120000	-2.813742
	11.125000	-2.800848
	11.130000	-2.713817
	11.135000	-2.739604
	11.140000	-2.820188
	11.145000	-2.784731
	11.150000	-2.717041
	11.155000	-2.739604
	11.160000	-2.813742
	11.165000	-2.794401
	11.170000	-2.710594
	11.175000	-2.746051
	11.180000	-2.816965
	11.185000	-2.797625
	11.190000	-2.720264
	11.195000	-2.736381
	11.200000	-2.820188
	11.205000	-2.797625
	11.210000	-2.723488
	11.215000	-2.742828
	11.220000	-2.816965
	11.225000	-2.791178
	11.230000	-2.717041
	11.235000	-2.736381
	11.240000	-2.826635
	11.245000	-2.794401
	11.250000	-2.720264
	11.255000	-2.739604
	11.260000	-2.820188
	11.265000	-2.797625
	11.270000	-2.717041
	11.275000	-2.739604
	11.280000	-2.810518
	11.285000	-2.794401
	11.290000	-2.713817
	11.295000	-2.736381
	11.300000	-2.813742
	11.305000	-2.787955
	11.310000	-2.710594
	11.315000	-2.739604
	11.320000	-2.810518
	11.325000	-2.784731
	11.330000	-2.710594
	11.335000	-2.729934
	11.340000	-2.813742
	11.345000	-2.794401
	11.350000	-2.713817
	11.355000	-2.733158
	11.360000	-2.816965
	11.365000	-2.787955
	11.370000	-2.713817
	11.375000	-2.729934
	11.380000	-2.813742
	11.385000	-2.787955
	11.390000	-2.707371
	11.395000	-2.736381
	11.400000	-2.816965
	11.405000	-2.778285
	11.410000	-2.720264
	11.415000	-2.736381
	11.420000	-2.810518
	11.425000	-2.784731
	11.430000	-2.707371
	11.435000	-2.726711
	11.440000	-2.807295
	11.445000	-2.784731
	11.450000	-2.704147
	11.455000	-2.729934
	11.460000	-2.813742
	11.465000	-2.775061
	11.470000	-2.700924
	11.475000	-2.723488
	11.480000	-2.797625
	11.485000	-2.768615
	11.490000	-2.697701
	11.495000	-2.713817
	11.500000	-2.794401
	11.505000	-2.765391
	11.510000	-2.691254
	11.515000	-2.710594
	11.520000	-2.778285
	11.525000	-2.758944
	11.530000	-2.681584
	11.535000	-2.707371
	11.540000	-2.784731
	11.545000	-2.762168
	11.550000	-2.681584
	11.555000	-2.707371
	11.560000	-2.781508
	11.565000	-2.758944
	11.570000	-2.681584
	11.575000	-2.700924
	11.580000	-2.781508
	11.585000	-2.749274
	11.590000	-2.671914
	11.595000	-2.700924
	11.600000	-2.778285
	11.605000	-2.758944
	11.610000	-2.684807
	11.615000	-2.704147
	11.620000	-2.784731
	11.625000	-2.749274
	11.630000	-2.684807
	11.635000	-2.704147
	11.640000	-2.784731
	11.645000	-2.758944
	11.650000	-2.684807
	11.655000	-2.710594
	11.660000	-2.791178
	11.665000	-2.762168
	11.670000	-2.688031
	11.675000	-2.717041
	11.680000	-2.797625
	11.685000	-2.768615
	11.690000	-2.684807
	11.695000	-2.720264
	11.700000	-2.794401
	11.705000	-2.775061
	11.710000	-2.697701
	11.715000	-2.717041
	11.720000	-2.794401
	11.725000	-2.768615
	11.730000	-2.707371
	11.735000	-2.720264
	11.740000	-2.800848
	11.745000	-2.778285
	11.750000	-2.707371
	11.755000	-2.720264
	11.760000	-2.800848
	11.765000	-2.781508
	11.770000	-2.700924
	11.775000	-2.723488
	11.780000	-2.810518
	11.785000	-2.778285
	11.790000	-2.704147
	11.795000	-2.733158
	11.800000	-2.804072
	11.805000	-2.784731
	11.810000	-2.707371
	11.815000	-2.739604
	11.820000	-2.807295
	11.825000	-2.784731
	11.830000	-2.710594
	11.835000	-2.736381
	11.840000	-2.816965
	11.845000	-2.784731
	11.850000	-2.713817
	11.855000	-2.739604
	11.860000	-2.813742
	11.865000	-2.784731
	11.870000	-2.707371
	11.875000	-2.739604
	11.880000	-2.813742
	11.885000	-2.791178
	11.890000	-2.707371
	11.895000	-2.739604
	11.900000	-2.813742
	11.905000	-2.784731
	11.910000	-2.710594
	11.915000	-2.733158
	11.920000	-2.816965
	11.925000	-2.787955
	11.930000	-2.710594
	11.935000	-2.739604
	11.940000	-2.813742
	11.945000	-2.787955
	11.950000	-2.717041
	11.955000	-2.739604
	11.960000	-2.807295
	11.965000	-2.787955
	11.970000	-2.713817
	11.975000	-2.739604
	11.980000	-2.813742
	11.985000	-2.784731
	11.990000	-2.710594
	11.995000	-2.736381
	12.000000	-2.813742
	12.005000	-2.784731
	12.010000	-2.704147
	12.015000	-2.733158
	12.020000	-2.810518
	12.025000	-2.784731
	12.030000	-2.710594
	12.035000	-2.742828
	12.040000	-2.804072
	12.045000	-2.778285
	12.050000	-2.707371
	12.055000	-2.729934
	12.060000	-2.816965
	12.065000	-2.781508
	12.070000	-2.704147
	12.075000	-2.739604
	12.080000	-2.807295
	12.085000	-2.787955
	12.090000	-2.710594
	12.095000	-2.733158
	12.100000	-2.804072
	12.105000	-2.781508
	12.110000	-2.707371
	12.115000	-2.736381
	12.120000	-2.807295
	12.125000	-2.781508
	12.130000	-2.704147
	12.135000	-2.729934
	12.140000	-2.807295
	12.145000	-2.784731
	12.150000	-2.710594
	12.155000	-2.729934
	12.160000	-2.816965
	12.165000	-2.784731
	12.170000	-2.707371
	12.175000	-2.736381
	12.180000	-2.813742
	12.185000	-2.787955
	12.190000	-2.707371
	12.195000	-2.739604
	12.200000	-2.810518
	12.205000	-2.784731
	12.210000	-2.707371
	12.215000	-2.739604
	12.220000	-2.810518
	12.225000	-2.784731
	12.230000	-2.710594
	12.235000	-2.736381
	12.240000	-2.813742
	12.245000	-2.781508
	12.250000	-2.723488
	12.255000	-2.739604
	12.260000	-2.816965
	12.265000	-2.787955
	12.270000	-2.713817
	12.275000	-2.742828
	12.280000	-2.813742
	12.285000	-2.791178
	12.290000	-2.704147
	12.295000	-2.739604
	12.300000	-2.816965
	12.305000	-2.791178
	12.310000	-2.710594
	12.315000	-2.739604
	12.320000	-2.816965
	12.325000	-2.787955
	12.330000	-2.713817
	12.335000	-2.736381
	12.340000	-2.820188
	12.345000	-2.784731
	12.350000	-2.713817
	12.355000	-2.739604
	12.360000	-2.823412
	12.365000	-2.787955
	12.370000	-2.710594
	12.375000	-2.736381
	12.380000	-2.816965
	12.385000	-2.787955
	12.390000	-2.717041
	12.395000	-2.736381
	12.400000	-2.816965
	12.405000	-2.784731
	12.410000	-2.707371
	12.415000	-2.736381
	12.420000	-2.820188
	12.425000	-2.784731
	12.430000	-2.710594
	12.435000	-2.736381
	12.440000	-2.820188
	12.445000	-2.781508
	12.450000	-2.710594
	12.455000	-2.742828
	12.460000	-2.810518
	12.465000	-2.781508
	12.470000	-2.710594
	12.475000	-2.729934
	12.480000	-2.820188
	12.485000	-2.778285
	12.490000	-2.707371
	12.495000	-2.733158
	12.500000	-2.816965
	12.505000	-2.787955
	12.510000	-2.713817
	12.515000	-2.736381
	12.520000	-2.813742
	12.525000	-2.787955
	12.530000	-2.710594
	12.535000	-2.736381
	12.540000	-2.810518
	12.545000	-2.784731
	12.550000	-2.710594
	12.555000	-2.739604
	12.560000	-2.816965
	12.565000	-2.784731
	12.570000	-2.707371
	12.575000	-2.742828
	12.580000	-2.813742
	12.585000	-2.784731
	12.590000	-2.720264
	12.595000	-2.739604
	12.600000	-2.826635
	12.605000	-2.791178
	12.610000	-2.707371
	12.615000	-2.746051
	12.620000	-2.813742
	12.625000	-2.784731
	12.630000	-2.717041
	12.635000	-2.749274
	12.640000	-2.816965
	12.645000	-2.787955
	12.650000	-2.710594
	12.655000	-2.746051
	12.660000	-2.820188
	12.665000	-2.784731
	12.670000	-2.713817
	12.675000	-2.742828
	12.680000	-2.820188
	12.685000	-2.784731
	12.690000	-2.720264
	12.695000	-2.746051
	12.700000	-2.813742
	12.705000	-2.794401
	12.710000	-2.713817
	12.715000	-2.746051
	12.720000	-2.816965
	12.725000	-2.791178
	12.730000	-2.726711
	12.735000	-2.742828
	12.740000	-2.823412
	12.745000	-2.791178
	12.750000	-2.710594
	12.755000	-2.739604
	12.760000	-2.813742
	12.765000	-2.787955
	12.770000	-2.717041
	12.775000	-2.749274
	12.780000	-2.820188
	12.785000	-2.778285
	12.790000	-2.707371
	12.795000	-2.742828
	12.800000	-2.810518
	12.805000	-2.784731
	12.810000	-2.710594
	12.815000	-2.729934
	12.820000	-2.807295
	12.825000	-2.778285
	12.830000	-2.704147
	12.835000	-2.726711
	12.840000	-2.810518
	12.845000	-2.778285
	12.850000	-2.707371
	12.855000	-2.736381
	12.860000	-2.810518
	12.865000	-2.781508
	12.870000	-2.704147
	12.875000	-2.726711
	12.880000	-2.807295
	12.885000	-2.771838
	12.890000	-2.700924
	12.895000	-2.726711
	12.900000	-2.804072
	12.905000	-2.771838
	12.910000	-2.700924
	12.915000	-2.726711
	12.920000	-2.804072
	12.925000	-2.768615
	12.930000	-2.700924
	12.935000	-2.726711
	12.940000	-2.804072
	12.945000	-2.765391
	12.950000	-2.697701
	12.955000	-2.729934
	12.960000	-2.804072
	12.965000	-2.771838
	12.970000	-2.691254
	12.975000	-2.726711
	12.980000	-2.807295
	12.985000	-2.768615
	12.990000	-2.694477
	12.995000	-2.720264
	13.000000	-2.807295
	13.005000	-2.771838
	13.010000	-2.697701
	13.015000	-2.729934
	13.020000	-2.800848
	13.025000	-2.778285
	13.030000	-2.704147
	13.035000	-2.723488
	13.040000	-2.804072
	13.045000	-2.775061
	13.050000	-2.704147
	13.055000	-2.729934
	13.060000	-2.810518
	13.065000	-2.778285
	13.070000	-2.707371
	13.075000	-2.736381
	13.080000	-2.813742
	13.085000	-2.787955
	13.090000	-2.707371
	13.095000	-2.742828
	13.100000	-2.807295
	13.105000	-2.791178
	13.110000	-2.710594
	13.115000	-2.733158
	13.120000	-2.816965
	13.125000	-2.791178
	13.130000	-2.707371
	13.135000	-2.739604
	13.140000	-2.810518
	13.145000	-2.794401
	13.150000	-2.717041
	13.155000	-2.746051
	13.160000	-2.816965
	13.165000	-2.787955
	13.170000	-2.713817
	13.175000	-2.739604
	13.180000	-2.823412
	13.185000	-2.784731
	13.190000	-2.713817
	13.195000	-2.746051
	13.200000	-2.826635
	13.205000	-2.784731
	13.210000	-2.717041
	13.215000	-2.746051
	13.220000	-2.816965
	13.225000	-2.797625
	13.230000	-2.720264
	13.235000	-2.746051
	13.240000	-2.833082
	13.245000	-2.797625
	13.250000	-2.720264
	13.255000	-2.749274
	13.260000	-2.823412
	13.265000	-2.804072
	13.270000	-2.723488
	13.275000	-2.749274
	13.280000	-2.826635
	13.285000	-2.797625
	13.290000	-2.729934
	13.295000	-2.752498
	13.300000	-2.839528
	13.305000	-2.794401
	13.310000	-2.720264
	13.315000	-2.755721
	13.320000	-2.829858
	13.325000	-2.794401
	13.330000	-2.723488
	13.335000	-2.755721
	13.340000	-2.829858
	13.345000	-2.797625
	13.350000	-2.723488
	13.355000	-2.755721
	13.360000	-2.833082
	13.365000	-2.804072
	13.370000	-2.729934
	13.375000	-2.762168
	13.380000	-2.826635
	13.385000	-2.810518
	13.390000	-2.723488
	13.395000	-2.755721
	13.400000	-2.829858
	13.405000	-2.800848
	13.410000	-2.729934
	13.415000	-2.755721
	13.420000	-2.836305
	13.425000	-2.807295
	13.430000	-2.726711
	13.435000	-2.762168
	13.440000	-2.836305
	13.445000	-2.804072
	13.450000	-2.733158
	13.455000	-2.765391
	13.460000	-2.836305
	13.465000	-2.804072
	13.470000	-2.729934
	13.475000	-2.762168
	13.480000	-2.836305
	13.485000	-2.804072
	13.490000	-2.733158
	13.495000	-2.768615
	13.500000	-2.833082
	13.505000	-2.800848
	13.510000	-2.723488
	13.515000	-2.768615
	13.520000	-2.829858
	13.525000	-2.800848
	13.530000	-2.729934
	13.535000	-2.755721
	13.540000	-2.829858
	13.545000	-2.804072
	13.550000	-2.729934
	13.555000	-2.752498
	13.560000	-2.836305
	13.565000	-2.797625
	13.570000	-2.723488
	13.575000	-2.755721
	13.580000	-2.823412
	13.585000	-2.791178
	13.590000	-2.723488
	13.595000	-2.758944
	13.600000	-2.833082
	13.605000	-2.804072
	13.610000	-2.723488
	13.615000	-2.755721
	13.620000	-2.829858
	13.625000	-2.797625
	13.630000	-2.720264
	13.635000	-2.755721
	13.640000	-2.829858
	13.645000	-2.797625
	13.650000	-2.723488
	13.655000	-2.758944
	13.660000	-2.826635
	13.665000	-2.791178
	13.670000	-2.713817
	13.675000	-2.746051
	13.680000	-2.829858
	13.685000	-2.797625
	13.690000	-2.726711
	13.695000	-2.755721
	13.700000	-2.829858
	13.705000	-2.794401
	13.710000	-2.729934
	13.715000	-2.755721
	13.720000	-2.826635
	13.725000	-2.794401
	13.730000	-2.726711
	13.735000	-2.752498
	13.740000	-2.826635
	13.745000	-2.797625
	13.750000	-2.723488
	13.755000	-2.762168
	13.760000	-2.826635
	13.765000	-2.804072
	13.770000	-2.720264
	13.775000	-2.758944
	13.780000	-2.826635
	13.785000	-2.800848
	13.790000	-2.723488
	13.795000	-2.755721
	13.800000	-2.833082
	13.805000	-2.797625
	13.810000	-2.720264
	13.815000	-2.752498
	13.820000	-2.823412
	13.825000	-2.797625
	13.830000	-2.723488
	13.835000	-2.755721
	13.840000	-2.829858
	13.845000	-2.804072
	13.850000	-2.726711
	13.855000	-2.755721
	13.860000	-2.829858
	13.865000	-2.791178
	13.870000	-2.726711
	13.875000	-2.752498
	13.880000	-2.823412
	13.885000	-2.791178
	13.890000	-2.726711
	13.895000	-2.755721
	13.900000	-2.829858
	13.905000	-2.794401
	13.910000	-2.720264
	13.915000	-2.742828
	13.920000	-2.823412
	13.925000	-2.787955
	13.930000	-2.713817
	13.935000	-2.749274
	13.940000	-2.829858
	13.945000	-2.794401
	13.950000	-2.713817
	13.955000	-2.749274
	13.960000	-2.816965
	13.965000	-2.787955
	13.970000	-2.717041
	13.975000	-2.742828
	13.980000	-2.813742
	13.985000	-2.781508
	13.990000	-2.710594
	13.995000	-2.739604
	14.000000	-2.813742
	14.005000	-2.781508
	14.010000	-2.707371
	14.015000	-2.749274
	14.020000	-2.820188
	14.025000	-2.784731
	14.030000	-2.713817
	14.035000	-2.746051
	14.040000	-2.820188
	14.045000	-2.781508
	14.050000	-2.710594
	14.055000	-2.746051
	14.060000	-2.816965
	14.065000	-2.784731
	14.070000	-2.700924
	14.075000	-2.746051
	14.080000	-2.816965
	14.085000	-2.781508
	14.090000	-2.713817
	14.095000	-2.739604
	14.100000	-2.813742
	14.105000	-2.781508
	14.110000	-2.710594
	14.115000	-2.752498
	14.120000	-2.816965
	14.125000	-2.787955
	14.130000	-2.707371
	14.135000	-2.746051
	14.140000	-2.820188
	14.145000	-2.778285
	14.150000	-2.717041
	14.155000	-2.742828
	14.160000	-2.820188
	14.165000	-2.791178
	14.170000	-2.713817
	14.175000	-2.749274
	14.180000	-2.820188
	14.185000	-2.791178
	14.190000	-2.720264
	14.195000	-2.736381
	14.200000	-2.820188
	14.205000	-2.778285
	14.210000	-2.710594
	14.215000	-2.736381
	14.220000	-2.820188
	14.225000	-2.778285
	14.230000	-2.707371
	14.235000	-2.742828
	14.240000	-2.804072
	14.245000	-2.775061
	14.250000	-2.704147
	14.255000	-2.726711
	14.260000	-2.800848
	14.265000	-2.768615
	14.270000	-2.697701
	14.275000	-2.723488
	14.280000	-2.800848
	14.285000	-2.749274
	14.290000	-2.688031
	14.295000	-2.713817
	14.300000	-2.787955
	14.305000	-2.762168
	14.310000	-2.681584
	14.315000	-2.713817
	14.320000	-2.787955
	14.325000	-2.758944
	14.330000	-2.681584
	14.335000	-2.707371
	14.340000	-2.784731
	14.345000	-2.755721
	14.350000	-2.681584
	14.355000	-2.713817
	14.360000	-2.784731
	14.365000	-2.752498
	14.370000	-2.681584
	14.375000	-2.707371
	14.380000	-2.784731
	14.385000	-2.749274
	14.390000	-2.681584
	14.395000	-2.713817
	14.400000	-2.794401
	14.405000	-2.752498
	14.410000	-2.688031
	14.415000	-2.713817
	14.420000	-2.791178
	14.425000	-2.762168
	14.430000	-2.688031
	14.435000	-2.726711
	14.440000	-2.794401
	14.445000	-2.765391
	14.450000	-2.697701
	14.455000	-2.736381
	14.460000	-2.807295
	14.465000	-2.768615
	14.470000	-2.700924
	14.475000	-2.736381
	14.480000	-2.804072
	14.485000	-2.781508
	14.490000	-2.710594
	14.495000	-2.746051
	14.500000	-2.810518
	14.505000	-2.791178
	14.510000	-2.707371
	14.515000	-2.746051
	14.520000	-2.826635
	14.525000	-2.787955
	14.530000	-2.723488
	14.535000	-2.752498
	14.540000	-2.823412
	14.545000	-2.791178
	14.550000	-2.717041
	14.555000	-2.752498
	14.560000	-2.829858
	14.565000	-2.794401
	14.570000	-2.720264
	14.575000	-2.755721
	14.580000	-2.829858
	14.585000	-2.791178
	14.590000	-2.723488
	14.595000	-2.752498
	14.600000	-2.833082
	14.605000	-2.791178
	14.610000	-2.723488
	14.615000	-2.758944
	14.620000	-2.826635
	14.625000	-2.797625
	14.630000	-2.723488
	14.635000	-2.755721
	14.640000	-2.836305
	14.645000	-2.794401
	14.650000	-2.733158
	14.655000	-2.765391
	14.660000	-2.839528
	14.665000	-2.804072
	14.670000	-2.723488
	14.675000	-2.768615
	14.680000	-2.839528
	14.685000	-2.794401
	14.690000	-2.726711
	14.695000	-2.762168
	14.700000	-2.836305
	14.705000	-2.800848
	14.710000	-2.736381
	14.715000	-2.765391
	14.720000	-2.839528
	14.725000	-2.800848
	14.730000	-2.733158
	14.735000	-2.765391
	14.740000	-2.839528
	14.745000	-2.807295
	14.750000	-2.729934
	14.755000	-2.771838
	14.760000	-2.836305
	14.765000	-2.807295
	14.770000	-2.733158
	14.775000	-2.768615
	14.780000	-2.839528
	14.785000	-2.804072
	14.790000	-2.733158
	14.795000	-2.762168
	14.800000	-2.833082
	14.805000	-2.804072
	14.810000	-2.733158
	14.815000	-2.762168
	14.820000	-2.836305
	14.825000	-2.800848
	14.830000	-2.733158
	14.835000	-2.765391
	14.840000	-2.845975
	14.845000	-2.804072
	14.850000	-2.736381
	14.855000	-2.768615
	14.860000	-2.842752
	14.865000	-2.807295
	14.870000	-2.733158
	14.875000	-2.768615
	14.880000	-2.849199
	14.885000	-2.810518
	14.890000	-2.736381
	14.895000	-2.771838
	14.900000	-2.849199
	14.905000	-2.807295
	14.910000	-2.736381
	14.915000	-2.771838
	14.920000	-2.845975
	14.925000	-2.810518
	14.930000	-2.739604
	14.935000	-2.771838
	14.940000	-2.839528
	14.945000	-2.807295
	14.950000	-2.739604
	14.955000	-2.771838
	14.960000	-2.839528
	14.965000	-2.816965
	14.970000	-2.739604
	14.975000	-2.778285
	14.980000	-2.849199
	14.985000	-2.816965
	14.990000	-2.736381
	14.995000	-2.778285
	15.000000	-2.842752
	15.005000	-2.816965
	15.010000	-2.739604
	15.015000	-2.781508
	15.020000	-2.858869
	15.025000	-2.813742
	15.030000	-2.742828
	15.035000	-2.778285
	15.040000	-2.849199
	15.045000	-2.816965
	15.050000	-2.746051
	15.055000	-2.791178
	15.060000	-2.858869
	15.065000	-2.813742
	15.070000	-2.746051
	15.075000	-2.784731
	15.080000	-2.849199
	15.085000	-2.813742
	15.090000	-2.746051
	15.095000	-2.784731
	15.100000	-2.862092
	15.105000	-2.813742
	15.110000	-2.749274
	15.115000	-2.784731
	15.120000	-2.858869
	15.125000	-2.820188
	15.130000	-2.749274
	15.135000	-2.784731
	15.140000	-2.855645
	15.145000	-2.829858
	15.150000	-2.749274
	15.155000	-2.784731
	15.160000	-2.862092
	15.165000	-2.823412
	15.170000	-2.746051
	15.175000	-2.784731
	15.180000	-2.852422
	15.185000	-2.823412
	15.190000	-2.752498
	15.195000	-2.787955
	15.200000	-2.862092
	15.205000	-2.820188
	15.210000	-2.755721
	15.215000	-2.787955
	15.220000	-2.858869
	15.225000	-2.823412
	15.230000	-2.749274
	15.235000	-2.781508
	15.240000	-2.855645
	15.245000	-2.820188
	15.250000	-2.749274
	15.255000	-2.784731
	15.260000	-2.852422
	15.265000	-2.820188
	15.270000	-2.746051
	15.275000	-2.784731
	15.280000	-2.855645
	15.285000	-2.820188
	15.290000	-2.746051
	15.295000	-2.784731
	15.300000	-2.855645
	15.305000	-2.820188
	15.310000	-2.749274
	15.315000	-2.781508
	15.320000	-2.855645
	15.325000	-2.816965
	15.330000	-2.739604
	15.335000	-2.781508
	15.340000	-2.855645
	15.345000	-2.820188
	15.350000	-2.749274
	15.355000	-2.781508
	15.360000	-2.852422
	15.365000	-2.820188
	15.370000	-2.749274
	15.375000	-2.781508
	15.380000	-2.852422
	15.385000	-2.820188
	15.390000	-2.746051
	15.395000	-2.787955
	15.400000	-2.855645
	15.405000	-2.816965
	15.410000	-2.746051
	15.415000	-2.781508
	15.420000	-2.845975
	15.425000	-2.810518
	15.430000	-2.742828
	15.435000	-2.784731
	15.440000	-2.849199
	15.445000	-2.826635
	15.450000	-2.746051
	15.455000	-2.775061
	15.460000	-2.845975
	15.465000	-2.810518
	15.470000	-2.736381
	15.475000	-2.778285
	15.480000	-2.845975
	15.485000	-2.813742
	15.490000	-2.739604
	15.495000	-2.781508
	15.500000	-2.842752
	15.505000	-2.807295
	15.510000	-2.736381
	15.515000	-2.771838
	15.520000	-2.849199
	15.525000	-2.807295
	15.530000	-2.733158
	15.535000	-2.775061
	15.540000	-2.836305
	15.545000	-2.800848
	15.550000	-2.726711
	15.555000	-2.758944
	15.560000	-2.833082
	15.565000	-2.784731
	15.570000	-2.713817
	15.575000	-2.749274
	15.580000	-2.826635
	15.585000	-2.787955
	15.590000	-2.710594
	15.595000	-2.755721
	15.600000	-2.823412
	15.605000	-2.778285
	15.610000	-2.707371
	15.615000	-2.739604
	15.620000	-2.810518
	15.625000	-2.781508
	15.630000	-2.713817
	15.635000	-2.749274
	15.640000	-2.816965
	15.645000	-2.778285
	15.650000	-2.704147
	15.655000	-2.749274
	15.660000	-2.816965
	15.665000	-2.778285
	15.670000	-2.707371
	15.675000	-2.746051
	15.680000	-2.810518
	15.685000	-2.775061
	15.690000	-2.704147
	15.695000	-2.746051
	15.700000	-2.820188
	15.705000	-2.778285
	15.710000	-2.707371
	15.715000	-2.742828
	15.720000	-2.820188
	15.725000	-2.778285
	15.730000	-2.713817
	15.735000	-2.749274
	15.740000	-2.829858
	15.745000	-2.784731
	15.750000	-2.710594
	15.755000	-2.755721
	15.760000	-2.823412
	15.765000	-2.784731
	15.770000	-2.720264
	15.775000	-2.752498
	15.780000	-2.826635
	15.785000	-2.791178
	15.790000	-2.726711
	15.795000	-2.762168
	15.800000	-2.833082
	15.805000	-2.787955
	15.810000	-2.729934
	15.815000	-2.765391
	15.820000	-2.833082
	15.825000	-2.804072
	15.830000	-2.723488
	15.835000	-2.768615
	15.840000	-2.836305
	15.845000	-2.800848
	15.850000	-2.726711
	15.855000	-2.775061
	15.860000	-2.842752
	15.865000	-2.800848
	15.870000	-2.736381
	15.875000	-2.768615
	15.880000	-2.842752
	15.885000	-2.800848
	15.890000	-2.736381
	15.895000	-2.765391
	15.900000	-2.842752
	15.905000	-2.810518
	15.910000	-2.733158
	15.915000	-2.775061
	15.920000	-2.839528
	15.925000	-2.797625
	15.930000	-2.729934
	15.935000	-2.771838
	15.940000	-2.839528
	15.945000	-2.800848
	15.950000	-2.729934
	15.955000	-2.768615
	15.960000	-2.845975
	15.965000	-2.804072
	15.970000	-2.736381
	15.975000	-2.778285
	15.980000	-2.839528
	15.985000	-2.810518
	15.990000	-2.733158
	15.995000	-2.768615
	16.000000	-2.845975
	16.005000	-2.807295
	16.010000	-2.729934
	16.015000	-2.771838
	16.020000	-2.839528
	16.025000	-2.807295
	16.030000	-2.726711
	16.035000	-2.765391
	16.040000	-2.839528
	16.045000	-2.807295
	16.050000	-2.733158
	16.055000	-2.771838
	16.060000	-2.845975
	16.065000	-2.797625
	16.070000	-2.729934
	16.075000	-2.771838
	16.080000	-2.839528
	16.085000	-2.800848
	16.090000	-2.729934
	16.095000	-2.765391
	16.100000	-2.836305
	16.105000	-2.794401
	16.110000	-2.729934
	16.115000	-2.762168
	16.120000	-2.833082
	16.125000	-2.791178
	16.130000	-2.720264
	16.135000	-2.746051
	16.140000	-2.826635
	16.145000	-2.784731
	16.150000	-2.713817
	16.155000	-2.752498
	16.160000	-2.820188
	16.165000	-2.784731
	16.170000	-2.713817
	16.175000	-2.742828
	16.180000	-2.816965
	16.185000	-2.775061
	16.190000	-2.710594
	16.195000	-2.739604
	16.200000	-2.807295
	16.205000	-2.775061
	16.210000	-2.710594
	16.215000	-2.742828
	16.220000	-2.813742
	16.225000	-2.775061
	16.230000	-2.700924
	16.235000	-2.736381
	16.240000	-2.804072
	16.245000	-2.768615
	16.250000	-2.704147
	16.255000	-2.746051
	16.260000	-2.813742
	16.265000	-2.771838
	16.270000	-2.704147
	16.275000	-2.746051
	16.280000	-2.810518
	16.285000	-2.768615
	16.290000	-2.710594
	16.295000	-2.752498
	16.300000	-2.823412
	16.305000	-2.781508
	16.310000	-2.713817
	16.315000	-2.746051
	16.320000	-2.823412
	16.325000	-2.778285
	16.330000	-2.720264
	16.335000	-2.758944
	16.340000	-2.826635
	16.345000	-2.787955
	16.350000	-2.723488
	16.355000	-2.758944
	16.360000	-2.836305
	16.365000	-2.807295
	16.370000	-2.726711
	16.375000	-2.768615
	16.380000	-2.842752
	16.385000	-2.804072
	16.390000	-2.736381
	16.395000	-2.771838
	16.400000	-2.839528
	16.405000	-2.810518
	16.410000	-2.742828
	16.415000	-2.771838
	16.420000	-2.852422
	16.425000	-2.810518
	16.430000	-2.733158
	16.435000	-2.781508
	16.440000	-2.849199
	16.445000	-2.810518
	16.450000	-2.746051
	16.455000	-2.787955
	16.460000	-2.855645
	16.465000	-2.813742
	16.470000	-2.746051
	16.475000	-2.784731
	16.480000	-2.858869
	16.485000	-2.816965
	16.490000	-2.752498
	16.495000	-2.784731
	16.500000	-2.855645
	16.505000	-2.820188
	16.510000	-2.749274
	16.515000	-2.797625
	16.520000	-2.855645
	16.525000	-2.820188
	16.530000	-2.746051
	16.535000	-2.791178
	16.540000	-2.862092
	16.545000	-2.826635
	16.550000	-2.752498
	16.555000	-2.794401
	16.560000	-2.868539
	16.565000	-2.823412
	16.570000	-2.752498
	16.575000	-2.794401
	16.580000	-2.865315
	16.585000	-2.823412
	16.590000	-2.749274
	16.595000	-2.797625
	16.600000	-2.865315
	16.605000	-2.826635
	16.610000	-2.752498
	16.615000	-2.794401
	16.620000	-2.865315
	16.625000	-2.820188
	16.630000	-2.749274
	16.635000	-2.797625
	16.640000	-2.868539
	16.645000	-2.826635
	16.650000	-2.752498
	16.655000	-2.787955
	16.660000	-2.862092
	16.665000	-2.820188
	16.670000	-2.749274
	16.675000	-2.791178
	16.680000	-2.865315
	16.685000	-2.823412
	16.690000	-2.752498
	16.695000	-2.791178
	16.700000	-2.858869
	16.705000	-2.816965
	16.710000	-2.749274
	16.715000	-2.791178
	16.720000	-2.862092
	16.725000	-2.820188
	16.730000	-2.746051
	16.735000	-2.787955
	16.740000	-2.862092
	16.745000	-2.816965
	16.750000	-2.752498
	16.755000	-2.794401
	16.760000	-2.865315
	16.765000	-2.823412
	16.770000	-2.746051
	16.775000	-2.791178
	16.780000	-2.855645
	16.785000	-2.823412
	16.790000	-2.752498
	16.795000	-2.787955
	16.800000	-2.852422
	16.805000	-2.820188
	16.810000	-2.746051
	16.815000	-2.787955
	16.820000	-2.862092
	16.825000	-2.816965
	16.830000	-2.746051
	16.835000	-2.787955
	16.840000	-2.849199
	16.845000	-2.816965
	16.850000	-2.739604
	16.855000	-2.784731
	16.860000	-2.845975
	16.865000	-2.813742
	16.870000	-2.739604
	16.875000	-2.784731
	16.880000	-2.849199
	16.885000	-2.816965
	16.890000	-2.742828
	16.895000	-2.781508
	16.900000	-2.849199
	16.905000	-2.813742
	16.910000	-2.742828
	16.915000	-2.778285
	16.920000	-2.849199
	16.925000	-2.807295
	16.930000	-2.742828
	16.935000	-2.781508
	16.940000	-2.845975
	16.945000	-2.813742
	16.950000	-2.736381
	16.955000	-2.768615
	16.960000	-2.842752
	16.965000	-2.794401
	16.970000	-2.729934
	16.975000	-2.762168
	16.980000	-2.842752
	16.985000	-2.797625
	16.990000	-2.729934
	16.995000	-2.762168
	17.000000	-2.836305
	17.005000	-2.791178
	17.010000	-2.720264
	17.015000	-2.758944
	17.020000	-2.826635
	17.025000	-2.781508
	17.030000	-2.710594
	17.035000	-2.752498
	17.040000	-2.820188
	17.045000	-2.775061
	17.050000	-2.704147
	17.055000	-2.752498
	17.060000	-2.820188
	17.065000	-2.775061
	17.070000	-2.707371
	17.075000	-2.746051
	17.080000	-2.813742
	17.085000	-2.778285
	17.090000	-2.700924
	17.095000	-2.742828
	17.100000	-2.813742
	17.105000	-2.768615
	17.110000	-2.704147
	17.115000	-2.739604
	17.120000	-2.807295
	17.125000	-2.768615
	17.130000	-2.700924
	17.135000	-2.742828
	17.140000	-2.820188
	17.145000	-2.771838
	17.150000	-2.707371
	17.155000	-2.742828
	17.160000	-2.816965
	17.165000	-2.768615
	17.170000	-2.707371
	17.175000	-2.746051
	17.180000	-2.820188
	17.185000	-2.765391
	17.190000	-2.710594
	17.195000	-2.752498
	17.200000	-2.813742
	17.205000	-2.771838
	17.210000	-2.707371
	17.215000	-2.755721
	17.220000	-2.826635
	17.225000	-2.784731
	17.230000	-2.707371
	17.235000	-2.758944
	17.240000	-2.829858
	17.245000	-2.784731
	17.250000	-2.707371
	17.255000	-2.752498
	17.260000	-2.823412
	17.265000	-2.784731
	17.270000	-2.717041
	17.275000	-2.755721
	17.280000	-2.829858
	17.285000	-2.784731
	17.290000	-2.723488
	17.295000	-2.768615
	17.300000	-2.836305
	17.305000	-2.787955
	17.310000	-2.726711
	17.315000	-2.758944
	17.320000	-2.836305
	17.325000	-2.787955
	17.330000	-2.726711
	17.335000	-2.762168
	17.340000	-2.836305
	17.345000	-2.791178
	17.350000	-2.723488
	17.355000	-2.762168
	17.360000	-2.836305
	17.365000	-2.794401
	17.370000	-2.726711
	17.375000	-2.762168
	17.380000	-2.839528
	17.385000	-2.800848
	17.390000	-2.729934
	17.395000	-2.765391
	17.400000	-2.845975
	17.405000	-2.797625
	17.410000	-2.733158
	17.415000	-2.771838
	17.420000	-2.842752
	17.425000	-2.797625
	17.430000	-2.739604
	17.435000	-2.778285
	17.440000	-2.842752
	17.445000	-2.807295
	17.450000	-2.739604
	17.455000	-2.778285
	17.460000	-2.845975
	17.465000	-2.804072
	17.470000	-2.739604
	17.475000	-2.781508
	17.480000	-2.849199
	17.485000	-2.804072
	17.490000	-2.733158
	17.495000	-2.775061
	17.500000	-2.855645
	17.505000	-2.810518
	17.510000	-2.739604
	17.515000	-2.787955
	17.520000	-2.845975
	17.525000	-2.800848
	17.530000	-2.746051
	17.535000	-2.784731
	17.540000	-2.849199
	17.545000	-2.804072
	17.550000	-2.736381
	17.555000	-2.781508
	17.560000	-2.852422
	17.565000	-2.807295
	17.570000	-2.742828
	17.575000	-2.778285
	17.580000	-2.849199
	17.585000	-2.810518
	17.590000	-2.742828
	17.595000	-2.778285
	17.600000	-2.845975
	17.605000	-2.813742
	17.610000	-2.746051
	17.615000	-2.781508
	17.620000	-2.858869
	17.625000	-2.813742
	17.630000	-2.742828
	17.635000	-2.787955
	17.640000	-2.855645
	17.645000	-2.810518
	17.650000	-2.739604
	17.655000	-2.784731
	17.660000	-2.849199
	17.665000	-2.804072
	17.670000	-2.742828
	17.675000	-2.787955
	17.680000	-2.852422
	17.685000	-2.813742
	17.690000	-2.742828
	17.695000	-2.787955
	17.700000	-2.852422
	17.705000	-2.813742
	17.710000	-2.742828
	17.715000	-2.791178
	17.720000	-2.858869
	17.725000	-2.816965
	17.730000	-2.749274
	17.735000	-2.787955
	17.740000	-2.862092
	17.745000	-2.807295
	17.750000	-2.746051
	17.755000	-2.797625
	17.760000	-2.858869
	17.765000	-2.820188
	17.770000	-2.746051
	17.775000	-2.784731
	17.780000	-2.852422
	17.785000	-2.820188
	17.790000	-2.749274
	17.795000	-2.794401
	17.800000	-2.862092
	17.805000	-2.820188
	17.810000	-2.746051
	17.815000	-2.794401
	17.820000	-2.871762
	17.825000	-2.810518
	17.830000	-2.749274
	17.835000	-2.791178
	17.840000	-2.865315
	17.845000	-2.823412
	17.850000	-2.746051
	17.855000	-2.791178
	17.860000	-2.858869
	17.865000	-2.820188
	17.870000	-2.755721
	17.875000	-2.791178
	17.880000	-2.868539
	17.885000	-2.813742
	17.890000	-2.746051
	17.895000	-2.797625
	17.900000	-2.862092
	17.905000	-2.820188
	17.910000	-2.749274
	17.915000	-2.784731
	17.920000	-2.865315
	17.925000	-2.823412
	17.930000	-2.752498
	17.935000	-2.797625
	17.940000	-2.862092
	17.945000	-2.820188
	17.950000	-2.746051
	17.955000	-2.800848
	17.960000	-2.865315
	17.965000	-2.823412
	17.970000	-2.746051
	17.975000	-2.794401
	17.980000	-2.865315
	17.985000	-2.820188
	17.990000	-2.752498
	17.995000	-2.791178
	18.000000	-2.862092
	18.005000	-2.820188
	18.010000	-2.758944
	18.015000	-2.800848
	18.020000	-2.858869
	18.025000	-2.816965
	18.030000	-2.749274
	18.035000	-2.800848
	18.040000	-2.858869
	18.045000	-2.823412
	18.050000	-2.752498
	18.055000	-2.791178
	18.060000	-2.862092
	18.065000	-2.820188
	18.070000	-2.749274
	18.075000	-2.800848
	18.080000	-2.855645
	18.085000	-2.823412
	18.090000	-2.752498
	18.095000	-2.787955
	18.100000	-2.858869
	18.105000	-2.816965
	18.110000	-2.742828
	18.115000	-2.794401
	18.120000	-2.865315
	18.125000	-2.810518
	18.130000	-2.749274
	18.135000	-2.791178
	18.140000	-2.858869
	18.145000	-2.816965
	18.150000	-2.746051
	18.155000	-2.791178
	18.160000	-2.855645
	18.165000	-2.813742
	18.170000	-2.742828
	18.175000	-2.784731
	18.180000	-2.855645
	18.185000	-2.807295
	18.190000	-2.746051
	18.195000	-2.781508
	18.200000	-2.858869
	18.205000	-2.813742
	18.210000	-2.742828
	18.215000	-2.781508
	18.220000	-2.855645
	18.225000	-2.813742
	18.230000	-2.739604
	18.235000	-2.778285
	18.240000	-2.852422
	18.245000	-2.804072
	18.250000	-2.739604
	18.255000	-2.784731
	18.260000	-2.845975
	18.265000	-2.810518
	18.270000	-2.736381
	18.275000	-2.791178
	18.280000	-2.845975
	18.285000	-2.800848
	18.290000	-2.742828
	18.295000	-2.778285
	18.300000	-2.849199
	18.305000	-2.810518
	18.310000	-2.733158
	18.315000	-2.784731
	18.320000	-2.845975
	18.325000	-2.804072
	18.330000	-2.746051
	18.335000	-2.778285
	18.340000	-2.849199
	18.345000	-2.804072
	18.350000	-2.736381
	18.355000	-2.778285
	18.360000	-2.842752
	18.365000	-2.800848
	18.370000	-2.726711
	18.375000	-2.768615
	18.380000	-2.839528
	18.385000	-2.791178
	18.390000	-2.717041
	18.395000	-2.768615
	18.400000	-2.833082
	18.405000	-2.791178
	18.410000	-2.717041
	18.415000	-2.755721
	18.420000	-2.826635
	18.425000	-2.784731
	18.430000	-2.717041
	18.435000	-2.768615
	18.440000	-2.833082
	18.445000	-2.781508
	18.450000	-2.710594
	18.455000	-2.755721
	18.460000	-2.829858
	18.465000	-2.771838
	18.470000	-2.707371
	18.475000	-2.758944
	18.480000	-2.823412
	18.485000	-2.781508
	18.490000	-2.713817
	18.495000	-2.752498
	18.500000	-2.813742
	18.505000	-2.771838
	18.510000	-2.710594
	18.515000	-2.758944
	18.520000	-2.820188
	18.525000	-2.775061
	18.530000	-2.713817
	18.535000	-2.758944
	18.540000	-2.826635
	18.545000	-2.784731
	18.550000	-2.713817
	18.555000	-2.762168
	18.560000	-2.833082
	18.565000	-2.791178
	18.570000	-2.723488
	18.575000	-2.768615
	18.580000	-2.829858
	18.585000	-2.784731
	18.590000	-2.720264
	18.595000	-2.768615
	18.600000	-2.833082
	18.605000	-2.797625
	18.610000	-2.729934
	18.615000	-2.771838
	18.620000	-2.842752
	18.625000	-2.794401
	18.630000	-2.736381
	18.635000	-2.771838
	18.640000	-2.836305
	18.645000	-2.791178
	18.650000	-2.733158
	18.655000	-2.778285
	18.660000	-2.839528
	18.665000	-2.797625
	18.670000	-2.733158
	18.675000	-2.778285
	18.680000	-2.839528
	18.685000	-2.797625
	18.690000	-2.733158
	18.695000	-2.775061
	18.700000	-2.839528
	18.705000	-2.804072
	18.710000	-2.726711
	18.715000	-2.781508
	18.720000	-2.842752
	18.725000	-2.794401
	18.730000	-2.729934
	18.735000	-2.775061
	18.740000	-2.849199
	18.745000	-2.797625
	18.750000	-2.733158
	18.755000	-2.778285
	18.760000	-2.849199
	18.765000	-2.794401
	18.770000	-2.729934
	18.775000	-2.778285
	18.780000	-2.839528
	18.785000	-2.794401
	18.790000	-2.733158
	18.795000	-2.778285
	18.800000	-2.836305
	18.805000	-2.797625
	18.810000	-2.733158
	18.815000	-2.771838
	18.820000	-2.839528
	18.825000	-2.804072
	18.830000	-2.729934
	18.835000	-2.771838
	18.840000	-2.842752
	18.845000	-2.797625
	18.850000	-2.733158
	18.855000	-2.771838
	18.860000	-2.842752
	18.865000	-2.804072
	18.870000	-2.729934
	18.875000	-2.778285
	18.880000	-2.839528
	18.885000	-2.797625
	18.890000	-2.729934
	18.895000	-2.768615
	18.900000	-2.839528
	18.905000	-2.791178
	18.910000	-2.739604
	18.915000	-2.771838
	18.920000	-2.839528
	18.925000	-2.804072
	18.930000	-2.739604
	18.935000	-2.778285
	18.940000	-2.845975
	18.945000	-2.804072
	18.950000	-2.736381
	18.955000	-2.778285
	18.960000	-2.845975
	18.965000	-2.797625
	18.970000	-2.733158
	18.975000	-2.771838
	18.980000	-2.845975
	18.985000	-2.810518
	18.990000	-2.736381
	18.995000	-2.775061
	19.000000	-2.845975
	19.005000	-2.797625
	19.010000	-2.739604
	19.015000	-2.787955
	19.020000	-2.849199
	19.025000	-2.804072
	19.030000	-2.729934
	19.035000	-2.787955
	19.040000	-2.842752
	19.045000	-2.804072
	19.050000	-2.736381
	19.055000	-2.787955
	19.060000	-2.845975
	19.065000	-2.807295
	19.070000	-2.736381
	19.075000	-2.781508
	19.080000	-2.849199
	19.085000	-2.800848
	19.090000	-2.733158
	19.095000	-2.784731
	19.100000	-2.849199
	19.105000	-2.804072
	19.110000	-2.739604
	19.115000	-2.781508
	19.120000	-2.845975
	19.125000	-2.813742
	19.130000	-2.742828
	19.135000	-2.781508
	19.140000	-2.842752
	19.145000	-2.794401
	19.150000	-2.729934
	19.155000	-2.778285
	19.160000	-2.839528
	19.165000	-2.791178
	19.170000	-2.733158
	19.175000	-2.768615
	19.180000	-2.833082
	19.185000	-2.787955
	19.190000	-2.720264
	19.195000	-2.771838
	19.200000	-2.842752
	19.205000	-2.787955
	19.210000	-2.726711
	19.215000	-2.765391
	19.220000	-2.836305
	19.225000	-2.784731
	19.230000	-2.723488
	19.235000	-2.771838
	19.240000	-2.829858
	19.245000	-2.791178
	19.250000	-2.723488
	19.255000	-2.768615
	19.260000	-2.836305
	19.265000	-2.787955
	19.270000	-2.720264
	19.275000	-2.765391
	19.280000	-2.836305
	19.285000	-2.781508
	19.290000	-2.717041
	19.295000	-2.765391
	19.300000	-2.826635
	19.305000	-2.781508
	19.310000	-2.713817
	19.315000	-2.755721
	19.320000	-2.833082
	19.325000	-2.778285
	19.330000	-2.713817
	19.335000	-2.762168
	19.340000	-2.833082
	19.345000	-2.787955
	19.350000	-2.717041
	19.355000	-2.765391
	19.360000	-2.826635
	19.365000	-2.778285
	19.370000	-2.713817
	19.375000	-2.762168
	19.380000	-2.836305
	19.385000	-2.784731
	19.390000	-2.713817
	19.395000	-2.765391
	19.400000	-2.833082
	19.405000	-2.784731
	19.410000	-2.720264
	19.415000	-2.775061
	19.420000	-2.826635
	19.425000	-2.781508
	19.430000	-2.717041
	19.435000	-2.768615
	19.440000	-2.836305
	19.445000	-2.778285
	19.450000	-2.713817
	19.455000	-2.765391
	19.460000	-2.833082
	19.465000	-2.791178
	19.470000	-2.717041
	19.475000	-2.765391
	19.480000	-2.833082
	19.485000	-2.787955
	19.490000	-2.726711
	19.495000	-2.771838
	19.500000	-2.836305
	19.505000	-2.794401
	19.510000	-2.729934
	19.515000	-2.768615
	19.520000	-2.842752
	19.525000	-2.794401
	19.530000	-2.733158
	19.535000	-2.778285
	19.540000	-2.836305
	19.545000	-2.794401
	19.550000	-2.726711
	19.555000	-2.778285
	19.560000	-2.836305
	19.565000	-2.794401
	19.570000	-2.729934
	19.575000	-2.771838
	19.580000	-2.849199
	19.585000	-2.794401
	19.590000	-2.733158
	19.595000	-2.778285
	19.600000	-2.842752
	19.605000	-2.791178
	19.610000	-2.729934
	19.615000	-2.778285
	19.620000	-2.842752
	19.625000	-2.794401
	19.630000	-2.729934
	19.635000	-2.778285
	19.640000	-2.839528
	19.645000	-2.804072
	19.650000	-2.726711
	19.655000	-2.781508
	19.660000	-2.839528
	19.665000	-2.794401
	19.670000	-2.729934
	19.675000	-2.775061
	19.680000	-2.836305
	19.685000	-2.794401
	19.690000	-2.729934
	19.695000	-2.771838
	19.700000	-2.839528
	19.705000	-2.800848
	19.710000	-2.726711
	19.715000	-2.768615
	19.720000	-2.836305
	19.725000	-2.791178
	19.730000	-2.723488
	19.735000	-2.771838
	19.740000	-2.829858
	19.745000	-2.784731
	19.750000	-2.726711
	19.755000	-2.775061
	19.760000	-2.842752
	19.765000	-2.787955
	19.770000	-2.729934
	19.775000	-2.771838
	19.780000	-2.839528
	19.785000	-2.791178
	19.790000	-2.729934
	19.795000	-2.775061
	19.800000	-2.839528
	19.805000	-2.781508
	19.810000	-2.726711
	19.815000	-2.768615
	19.820000	-2.836305
	19.825000	-2.787955
	19.830000	-2.729934
	19.835000	-2.771838
	19.840000	-2.836305
	19.845000	-2.784731
	19.850000	-2.723488
	19.855000	-2.768615
	19.860000	-2.842752
	19.865000	-2.791178
	19.870000	-2.723488
	19.875000	-2.765391
	19.880000	-2.836305
	19.885000	-2.791178
	19.890000	-2.723488
	19.895000	-2.765391
	19.900000	-2.839528
	19.905000	-2.787955
	19.910000	-2.726711
	19.915000	-2.778285
	19.920000	-2.836305
	19.925000	-2.791178
	19.930000	-2.726711
	19.935000	-2.775061
	19.940000	-2.849199
	19.945000	-2.794401
	19.950000	-2.726711
	19.955000	-2.778285
	19.960000	-2.842752
	19.965000	-2.807295
	19.970000	-2.742828
	19.975000	-2.784731
	19.980000	-2.858869
	19.985000	-2.807295
	19.990000	-2.746051
	19.995000	-2.791178
	20.000000	-2.862092
	20.005000	-2.810518
	20.010000	-2.749274
	20.015000	-2.791178
	20.020000	-2.862092
	20.025000	-2.810518
	20.030000	-2.749274
	20.035000	-2.797625
	20.040000	-2.858869
	20.045000	-2.816965
	20.050000	-2.758944
	20.055000	-2.787955
	20.060000	-2.868539
	20.065000	-2.816965
	20.070000	-2.749274
	20.075000	-2.797625
	20.080000	-2.862092
	20.085000	-2.820188
	20.090000	-2.749274
	20.095000	-2.804072
	20.100000	-2.862092
	20.105000	-2.820188
	20.110000	-2.755721
	20.115000	-2.807295
	20.120000	-2.862092
	20.125000	-2.820188
	20.130000	-2.749274
	20.135000	-2.800848
	20.140000	-2.862092
	20.145000	-2.813742
	20.150000	-2.752498
	20.155000	-2.804072
	20.160000	-2.865315
	20.165000	-2.823412
	20.170000	-2.752498
	20.175000	-2.800848
	20.180000	-2.865315
	20.185000	-2.820188
	20.190000	-2.755721
	20.195000	-2.800848
	20.200000	-2.868539
	20.205000	-2.810518
	20.210000	-2.758944
	20.215000	-2.800848
	20.220000	-2.862092
	20.225000	-2.820188
	20.230000	-2.752498
	20.235000	-2.797625
	20.240000	-2.865315
	20.245000	-2.810518
	20.250000	-2.755721
	20.255000	-2.800848
	20.260000	-2.868539
	20.265000	-2.813742
	20.270000	-2.755721
	20.275000	-2.800848
	20.280000	-2.862092
	20.285000	-2.816965
	20.290000	-2.752498
	20.295000	-2.804072
	20.300000	-2.871762
	20.305000	-2.816965
	20.310000	-2.749274
	20.315000	-2.804072
	20.320000	-2.862092
	20.325000	-2.816965
	20.330000	-2.752498
	20.335000	-2.800848
	20.340000	-2.868539
	20.345000	-2.810518
	20.350000	-2.758944
	20.355000	-2.800848
	20.360000	-2.862092
	20.365000	-2.816965
	20.370000	-2.752498
	20.375000	-2.800848
	20.380000	-2.868539
	20.385000	-2.810518
	20.390000	-2.749274
	20.395000	-2.797625
	20.400000	-2.862092
	20.405000	-2.820188
	20.410000	-2.755721
	20.415000	-2.800848
	20.420000	-2.862092
	20.425000	-2.816965
	20.430000	-2.755721
	20.435000	-2.804072
	20.440000	-2.862092
	20.445000	-2.820188
	20.450000	-2.749274
	20.455000	-2.797625
	20.460000	-2.868539
	20.465000	-2.813742
	20.470000	-2.758944
	20.475000	-2.804072
	20.480000	-2.862092
	20.485000	-2.813742
	20.490000	-2.755721
	20.495000	-2.807295
	20.500000	-2.862092
	20.505000	-2.823412
	20.510000	-2.755721
	20.515000	-2.804072
	20.520000	-2.868539
	20.525000	-2.823412
	20.530000	-2.758944
	20.535000	-2.804072
	20.540000	-2.871762
	20.545000	-2.820188
	20.550000	-2.762168
	20.555000	-2.804072
	20.560000	-2.871762
	20.565000	-2.813742
	20.570000	-2.762168
	20.575000	-2.807295
	20.580000	-2.868539
	20.585000	-2.823412
	20.590000	-2.752498
	20.595000	-2.807295
	20.600000	-2.868539
	20.605000	-2.820188
	20.610000	-2.755721
	20.615000	-2.807295
	20.620000	-2.865315
	20.625000	-2.813742
	20.630000	-2.752498
	20.635000	-2.797625
	20.640000	-2.862092
	20.645000	-2.813742
	20.650000	-2.752498
	20.655000	-2.800848
	20.660000	-2.862092
	20.665000	-2.816965
	20.670000	-2.752498
	20.675000	-2.800848
	20.680000	-2.865315
	20.685000	-2.810518
	20.690000	-2.752498
	20.695000	-2.794401
	20.700000	-2.858869
	20.705000	-2.810518
	20.710000	-2.752498
	20.715000	-2.804072
	20.720000	-2.868539
	20.725000	-2.813742
	20.730000	-2.749274
	20.735000	-2.800848
	20.740000	-2.862092
	20.745000	-2.816965
	20.750000	-2.749274
	20.755000	-2.797625
	20.760000	-2.862092
	20.765000	-2.807295
	20.770000	-2.755721
	20.775000	-2.800848
	20.780000	-2.862092
	20.785000	-2.810518
	20.790000	-2.749274
	20.795000	-2.804072
	20.800000	-2.865315
	20.805000	-2.813742
	20.810000	-2.749274
	20.815000	-2.797625
	20.820000	-2.865315
	20.825000	-2.813742
	20.830000	-2.749274
	20.835000	-2.797625
	20.840000	-2.862092
	20.845000	-2.810518
	20.850000	-2.746051
	20.855000	-2.797625
	20.860000	-2.862092
	20.865000	-2.816965
	20.870000	-2.752498
	20.875000	-2.791178
	20.880000	-2.858869
	20.885000	-2.816965
	20.890000	-2.749274
	20.895000	-2.794401
	20.900000	-2.862092
	20.905000	-2.810518
	20.910000	-2.742828
	20.915000	-2.787955
	20.920000	-2.858869
	20.925000	-2.804072
	20.930000	-2.746051
	20.935000	-2.787955
	20.940000	-2.852422
	20.945000	-2.804072
	20.950000	-2.739604
	20.955000	-2.797625
	20.960000	-2.852422
	20.965000	-2.807295
	20.970000	-2.739604
	20.975000	-2.781508
	20.980000	-2.855645
	20.985000	-2.804072
	20.990000	-2.739604
	20.995000	-2.784731
	21.000000	-2.852422
	21.005000	-2.800848
	21.010000	-2.736381
	21.015000	-2.784731
	21.020000	-2.855645
	21.025000	-2.804072
	21.030000	-2.739604
	21.035000	-2.784731
	21.040000	-2.858869
	21.045000	-2.797625
	21.050000	-2.733158
	21.055000	-2.791178
	21.060000	-2.845975
	21.065000	-2.804072
	21.070000	-2.733158
	21.075000	-2.791178
	21.080000	-2.852422
	21.085000	-2.794401
	21.090000	-2.739604
	21.095000	-2.781508
	21.100000	-2.845975
	21.105000	-2.797625
	21.110000	-2.726711
	21.115000	-2.784731
	21.120000	-2.845975
	21.125000	-2.800848
	21.130000	-2.736381
	21.135000	-2.781508
	21.140000	-2.842752
	21.145000	-2.791178
	21.150000	-2.729934
	21.155000	-2.775061
	21.160000	-2.839528
	21.165000	-2.784731
	21.170000	-2.717041
	21.175000	-2.768615
	21.180000	-2.829858
	21.185000	-2.768615
	21.190000	-2.710594
	21.195000	-2.752498
	21.200000	-2.807295
	21.205000	-2.749274
	21.210000	-2.691254
	21.215000	-2.733158
	21.220000	-2.794401
	21.225000	-2.739604
	21.230000	-2.681584
	21.235000	-2.713817
	21.240000	-2.784731
	21.245000	-2.729934
	21.250000	-2.665467
	21.255000	-2.710594
	21.260000	-2.775061
	21.265000	-2.720264
	21.270000	-2.655797
	21.275000	-2.700924
	21.280000	-2.765391
	21.285000	-2.710594
	21.290000	-2.652574
	21.295000	-2.700924
	21.300000	-2.765391
	21.305000	-2.717041
	21.310000	-2.655797
	21.315000	-2.704147
	21.320000	-2.771838
	21.325000	-2.720264
	21.330000	-2.662244
	21.335000	-2.710594
	21.340000	-2.778285
	21.345000	-2.729934
	21.350000	-2.662244
	21.355000	-2.723488
	21.360000	-2.787955
	21.365000	-2.733158
	21.370000	-2.678361
	21.375000	-2.723488
	21.380000	-2.787955
	21.385000	-2.746051
	21.390000	-2.691254
	21.395000	-2.739604
	21.400000	-2.807295
	21.405000	-2.755721
	21.410000	-2.694477
	21.415000	-2.749274
	21.420000	-2.813742
	21.425000	-2.768615
	21.430000	-2.707371
	21.435000	-2.758944
	21.440000	-2.823412
	21.445000	-2.775061
	21.450000	-2.710594
	21.455000	-2.765391
	21.460000	-2.823412
	21.465000	-2.784731
	21.470000	-2.720264
	21.475000	-2.771838
	21.480000	-2.836305
	21.485000	-2.784731
	21.490000	-2.717041
	21.495000	-2.775061
	21.500000	-2.836305
	21.505000	-2.787955
	21.510000	-2.726711
	21.515000	-2.775061
	21.520000	-2.836305
	21.525000	-2.787955
	21.530000	-2.729934
	21.535000	-2.778285
	21.540000	-2.836305
	21.545000	-2.781508
	21.550000	-2.729934
	21.555000	-2.775061
	21.560000	-2.836305
	21.565000	-2.781508
	21.570000	-2.729934
	21.575000	-2.781508
	21.580000	-2.842752
	21.585000	-2.791178
	21.590000	-2.733158
	21.595000	-2.778285
	21.600000	-2.836305
	21.605000	-2.791178
	21.610000	-2.729934
	21.615000	-2.781508
	21.620000	-2.839528
	21.625000	-2.797625
	21.630000	-2.729934
	21.635000	-2.778285
	21.640000	-2.839528
	21.645000	-2.791178
	21.650000	-2.736381
	21.655000	-2.784731
	21.660000	-2.842752
	21.665000	-2.791178
	21.670000	-2.729934
	21.675000	-2.778285
	21.680000	-2.849199
	21.685000	-2.794401
	21.690000	-2.733158
	21.695000	-2.781508
	21.700000	-2.842752
	21.705000	-2.804072
	21.710000	-2.736381
	21.715000	-2.787955
	21.720000	-2.845975
	21.725000	-2.794401
	21.730000	-2.736381
	21.735000	-2.784731
	21.740000	-2.849199
	21.745000	-2.794401
	21.750000	-2.736381
	21.755000	-2.787955
	21.760000	-2.852422
	21.765000	-2.797625
	21.770000	-2.736381
	21.775000	-2.794401
	21.780000	-2.849199
	21.785000	-2.800848
	21.790000	-2.742828
	21.795000	-2.797625
	21.800000	-2.852422
	21.805000	-2.810518
	21.810000	-2.746051
	21.815000	-2.791178
	21.820000	-2.868539
	21.825000	-2.820188
	21.830000	-2.749274
	21.835000	-2.794401
	21.840000	-2.855645
	21.845000	-2.807295
	21.850000	-2.746051
	21.855000	-2.800848
	21.860000	-2.865315
	21.865000	-2.810518
	21.870000	-2.752498
	21.875000	-2.800848
	21.880000	-2.858869
	21.885000	-2.810518
	21.890000	-2.752498
	21.895000	-2.807295
	21.900000	-2.862092
	21.905000	-2.816965
	21.910000	-2.755721
	21.915000	-2.804072
	21.920000	-2.868539
	21.925000	-2.813742
	21.930000	-2.755721
	21.935000	-2.807295
	21.940000	-2.868539
	21.945000	-2.823412
	21.950000	-2.758944
	21.955000	-2.807295
	21.960000	-2.871762
	21.965000	-2.807295
	21.970000	-2.749274
	21.975000	-2.810518
	21.980000	-2.865315
	21.985000	-2.820188
	21.990000	-2.755721
	21.995000	-2.800848
	22.000000	-2.865315
	22.005000	-2.820188
	22.010000	-2.755721
	22.015000	-2.804072
	22.020000	-2.865315
	22.025000	-2.816965
	22.030000	-2.752498
	22.035000	-2.804072
	22.040000	-2.868539
	22.045000	-2.820188
	22.050000	-2.752498
	22.055000	-2.797625
	22.060000	-2.871762
	22.065000	-2.816965
	22.070000	-2.758944
	22.075000	-2.807295
	22.080000	-2.862092
	22.085000	-2.820188
	22.090000	-2.755721
	22.095000	-2.810518
	22.100000	-2.865315
	22.105000	-2.816965
	22.110000	-2.765391
	22.115000	-2.807295
	22.120000	-2.878209
	22.125000	-2.816965
	22.130000	-2.755721
	22.135000	-2.810518
	22.140000	-2.874985
	22.145000	-2.823412
	22.150000	-2.758944
	22.155000	-2.810518
	22.160000	-2.868539
	22.165000	-2.816965
	22.170000	-2.755721
	22.175000	-2.807295
	22.180000	-2.874985
	22.185000	-2.816965
	22.190000	-2.752498
	22.195000	-2.800848
	22.200000	-2.871762
	22.205000	-2.816965
	22.210000	-2.758944
	22.215000	-2.804072
	22.220000	-2.868539
	22.225000	-2.820188
	22.230000	-2.755721
	22.235000	-2.804072
	22.240000	-2.868539
	22.245000	-2.820188
	22.250000	-2.752498
	22.255000	-2.810518
	22.260000	-2.871762
	22.265000	-2.813742
	22.270000	-2.752498
	22.275000	-2.804072
	22.280000	-2.871762
	22.285000	-2.820188
	22.290000	-2.755721
	22.295000	-2.810518
	22.300000	-2.865315
	22.305000	-2.816965
	22.310000	-2.755721
	22.315000	-2.810518
	22.320000	-2.865315
	22.325000	-2.823412
	22.330000	-2.755721
	22.335000	-2.800848
	22.340000	-2.868539
	22.345000	-2.820188
	22.350000	-2.755721
	22.355000	-2.804072
	22.360000	-2.871762
	22.365000	-2.826635
	22.370000	-2.758944
	22.375000	-2.807295
	22.380000	-2.868539
	22.385000	-2.816965
	22.390000	-2.755721
	22.395000	-2.810518
	22.400000	-2.871762
	22.405000	-2.813742
	22.410000	-2.749274
	22.415000	-2.804072
	22.420000	-2.868539
	22.425000	-2.813742
	22.430000	-2.752498
	22.435000	-2.810518
	22.440000	-2.868539
	22.445000	-2.816965
	22.450000	-2.758944
	22.455000	-2.804072
	22.460000	-2.868539
	22.465000	-2.813742
	22.470000	-2.752498
	22.475000	-2.804072
	22.480000	-2.871762
	22.485000	-2.820188
	22.490000	-2.758944
	22.495000	-2.807295
	22.500000	-2.871762
	22.505000	-2.813742
	22.510000	-2.752498
	22.515000	-2.807295
	22.520000	-2.868539
	22.525000	-2.816965
	22.530000	-2.755721
	22.535000	-2.804072
	22.540000	-2.862092
	22.545000	-2.813742
	22.550000	-2.758944
	22.555000	-2.807295
	22.560000	-2.871762
	22.565000	-2.813742
	22.570000	-2.758944
	22.575000	-2.804072
	22.580000	-2.871762
	22.585000	-2.816965
	22.590000	-2.752498
	22.595000	-2.810518
	22.600000	-2.862092
	22.605000	-2.810518
	22.610000	-2.755721
	22.615000	-2.800848
	22.620000	-2.865315
	22.625000	-2.807295
	22.630000	-2.746051
	22.635000	-2.791178
	22.640000	-2.862092
	22.645000	-2.797625
	22.650000	-2.736381
	22.655000	-2.778285
	22.660000	-2.842752
	22.665000	-2.775061
	22.670000	-2.707371
	22.675000	-2.758944
	22.680000	-2.826635
	22.685000	-2.758944
	22.690000	-2.697701
	22.695000	-2.739604
	22.700000	-2.800848
	22.705000	-2.742828
	22.710000	-2.678361
	22.715000	-2.733158
	22.720000	-2.784731
	22.725000	-2.739604
	22.730000	-2.675137
	22.735000	-2.720264
	22.740000	-2.784731
	22.745000	-2.729934
	22.750000	-2.671914
	22.755000	-2.720264
	22.760000	-2.771838
	22.765000	-2.723488
	22.770000	-2.665467
	22.775000	-2.713817
	22.780000	-2.768615
	22.785000	-2.717041
	22.790000	-2.662244
	22.795000	-2.710594
	22.800000	-2.758944
	22.805000	-2.713817
	22.810000	-2.652574
	22.815000	-2.700924
	22.820000	-2.768615
	22.825000	-2.717041
	22.830000	-2.655797
	22.835000	-2.707371
	22.840000	-2.775061
	22.845000	-2.720264
	22.850000	-2.659020
	22.855000	-2.707371
	22.860000	-2.778285
	22.865000	-2.729934
	22.870000	-2.665467
	22.875000	-2.723488
	22.880000	-2.784731
	22.885000	-2.729934
	22.890000	-2.681584
	22.895000	-2.733158
	22.900000	-2.791178
	22.905000	-2.742828
	22.910000	-2.688031
	22.915000	-2.749274
	22.920000	-2.810518
	22.925000	-2.758944
	22.930000	-2.704147
	22.935000	-2.755721
	22.940000	-2.820188
	22.945000	-2.768615
	22.950000	-2.713817
	22.955000	-2.775061
	22.960000	-2.836305
	22.965000	-2.787955
	22.970000	-2.733158
	22.975000	-2.775061
	22.980000	-2.842752
	22.985000	-2.804072
	22.990000	-2.736381
	22.995000	-2.794401
	23.000000	-2.855645
	23.005000	-2.797625
	23.010000	-2.739604
	23.015000	-2.797625
	23.020000	-2.858869
	23.025000	-2.807295
	23.030000	-2.742828
	23.035000	-2.800848
	23.040000	-2.849199
	23.045000	-2.800848
	23.050000	-2.752498
	23.055000	-2.800848
	23.060000	-2.858869
	23.065000	-2.810518
	23.070000	-2.752498
	23.075000	-2.804072
	23.080000	-2.862092
	23.085000	-2.810518
	23.090000	-2.749274
	23.095000	-2.804072
	23.100000	-2.862092
	23.105000	-2.810518
	23.110000	-2.746051
	23.115000	-2.807295
	23.120000	-2.865315
	23.125000	-2.816965
	23.130000	-2.749274
	23.135000	-2.804072
	23.140000	-2.865315
	23.145000	-2.810518
	23.150000	-2.762168
	23.155000	-2.804072
	23.160000	-2.865315
	23.165000	-2.813742
	23.170000	-2.758944
	23.175000	-2.804072
	23.180000	-2.874985
	23.185000	-2.820188
	23.190000	-2.758944
	23.195000	-2.804072
	23.200000	-2.868539
	23.205000	-2.804072
	23.210000	-2.752498
	23.215000	-2.800848
	23.220000	-2.865315
	23.225000	-2.807295
	23.230000	-2.749274
	23.235000	-2.804072
	23.240000	-2.862092
	23.245000	-2.816965
	23.250000	-2.752498
	23.255000	-2.800848
	23.260000	-2.868539
	23.265000	-2.816965
	23.270000	-2.755721
	23.275000	-2.800848
	23.280000	-2.871762
	23.285000	-2.816965
	23.290000	-2.755721
	23.295000	-2.797625
	23.300000	-2.868539
	23.305000	-2.813742
	23.310000	-2.749274
	23.315000	-2.813742
	23.320000	-2.865315
	23.325000	-2.823412
	23.330000	-2.758944
	23.335000	-2.804072
	23.340000	-2.871762
	23.345000	-2.813742
	23.350000	-2.752498
	23.355000	-2.807295
	23.360000	-2.871762
	23.365000	-2.823412
	23.370000	-2.765391
	23.375000	-2.816965
	23.380000	-2.874985
	23.385000	-2.826635
	23.390000	-2.762168
	23.395000	-2.813742
	23.400000	-2.881432
	23.405000	-2.826635
	23.410000	-2.765391
	23.415000	-2.823412
	23.420000	-2.881432
	23.425000	-2.823412
	23.430000	-2.762168
	23.435000	-2.823412
	23.440000	-2.874985
	23.445000	-2.826635
	23.450000	-2.762168
	23.455000	-2.816965
	23.460000	-2.884655
	23.465000	-2.833082
	23.470000	-2.765391
	23.475000	-2.820188
	23.480000	-2.878209
	23.485000	-2.826635
	23.490000	-2.765391
	23.495000	-2.820188
	23.500000	-2.878209
	23.505000	-2.823412
	23.510000	-2.765391
	23.515000	-2.813742
	23.520000	-2.874985
	23.525000	-2.823412
	23.530000	-2.765391
	23.535000	-2.810518
	23.540000	-2.868539
	23.545000	-2.826635
	23.550000	-2.765391
	23.555000	-2.813742
	23.560000	-2.871762
	23.565000	-2.823412
	23.570000	-2.758944
	23.575000	-2.813742
	23.580000	-2.878209
	23.585000	-2.820188
	23.590000	-2.765391
	23.595000	-2.810518
	23.600000	-2.871762
	23.605000	-2.829858
	23.610000	-2.765391
	23.615000	-2.813742
	23.620000	-2.878209
	23.625000	-2.823412
	23.630000	-2.765391
	23.635000	-2.820188
	23.640000	-2.878209
	23.645000	-2.829858
	23.650000	-2.768615
	23.655000	-2.816965
	23.660000	-2.874985
	23.665000	-2.833082
	23.670000	-2.765391
	23.675000	-2.820188
	23.680000	-2.881432
	23.685000	-2.833082
	23.690000	-2.762168
	23.695000	-2.823412
	23.700000	-2.874985
	23.705000	-2.836305
	23.710000	-2.771838
	23.715000	-2.816965
	23.720000	-2.878209
	23.725000	-2.833082
	23.730000	-2.775061
	23.735000	-2.820188
	23.740000	-2.887879
	23.745000	-2.829858
	23.750000	-2.768615
	23.755000	-2.820188
	23.760000	-2.874985
	23.765000	-2.823412
	23.770000	-2.765391
	23.775000	-2.820188
	23.780000	-2.878209
	23.785000	-2.829858
	23.790000	-2.768615
	23.795000	-2.823412
	23.800000	-2.881432
	23.805000	-2.833082
	23.810000	-2.765391
	23.815000	-2.826635
	23.820000	-2.874985
	23.825000	-2.836305
	23.830000	-2.768615
	23.835000	-2.823412
	23.840000	-2.884655
	23.845000	-2.833082
	23.850000	-2.768615
	23.855000	-2.816965
	23.860000	-2.881432
	23.865000	-2.829858
	23.870000	-2.771838
	23.875000	-2.823412
	23.880000	-2.881432
	23.885000	-2.826635
	23.890000	-2.765391
	23.895000	-2.820188
	23.900000	-2.881432
	23.905000	-2.826635
	23.910000	-2.768615
	23.915000	-2.820188
	23.920000	-2.881432
	23.925000	-2.833082
	23.930000	-2.765391
	23.935000	-2.829858
	23.940000	-2.874985
	23.945000	-2.826635
	23.950000	-2.762168
	23.955000	-2.816965
	23.960000	-2.874985
	23.965000	-2.820188
	23.970000	-2.765391
	23.975000	-2.816965
	23.980000	-2.874985
	23.985000	-2.820188
	23.990000	-2.755721
	23.995000	-2.810518
	24.000000	-2.878209
	24.005000	-2.820188
	24.010000	-2.752498
	24.015000	-2.810518
	24.020000	-2.862092
	24.025000	-2.810518
	24.030000	-2.749274
	24.035000	-2.807295
	24.040000	-2.858869
	24.045000	-2.797625
	24.050000	-2.746051
	24.055000	-2.791178
	24.060000	-2.852422
	24.065000	-2.797625
	24.070000	-2.726711
	24.075000	-2.771838
	24.080000	-2.839528
	24.085000	-2.775061
	24.090000	-2.713817
	24.095000	-2.765391
	24.100000	-2.820188
	24.105000	-2.762168
	24.110000	-2.704147
	24.115000	-2.752498
	24.120000	-2.813742
	24.125000	-2.752498
	24.130000	-2.700924
	24.135000	-2.742828
	24.140000	-2.804072
	24.145000	-2.742828
	24.150000	-2.688031
	24.155000	-2.736381
	24.160000	-2.794401
	24.165000	-2.752498
	24.170000	-2.684807
	24.175000	-2.746051
	24.180000	-2.791178
	24.185000	-2.739604
	24.190000	-2.681584
	24.195000	-2.729934
	24.200000	-2.804072
	24.205000	-2.746051
	24.210000	-2.688031
	24.215000	-2.746051
	24.220000	-2.807295
	24.225000	-2.752498
	24.230000	-2.694477
	24.235000	-2.742828
	24.240000	-2.807295
	24.245000	-2.762168
	24.250000	-2.704147
	24.255000	-2.752498
	24.260000	-2.823412
	24.265000	-2.771838
	24.270000	-2.704147
	24.275000	-2.768615
	24.280000	-2.829858
	24.285000	-2.781508
	24.290000	-2.717041
	24.295000	-2.778285
	24.300000	-2.836305
	24.305000	-2.781508
	24.310000	-2.733158
	24.315000	-2.781508
	24.320000	-2.842752
	24.325000	-2.800848
	24.330000	-2.739604
	24.335000	-2.791178
	24.340000	-2.845975
	24.345000	-2.807295
	24.350000	-2.739604
	24.355000	-2.804072
	24.360000	-2.862092
	24.365000	-2.807295
	24.370000	-2.749274
	24.375000	-2.807295
	24.380000	-2.862092
	24.385000	-2.816965
	24.390000	-2.758944
	24.395000	-2.804072
	24.400000	-2.868539
	24.405000	-2.820188
	24.410000	-2.758944
	24.415000	-2.810518
	24.420000	-2.865315
	24.425000	-2.813742
	24.430000	-2.758944
	24.435000	-2.813742
	24.440000	-2.868539
	24.445000	-2.823412
	24.450000	-2.762168
	24.455000	-2.813742
	24.460000	-2.868539
	24.465000	-2.816965
	24.470000	-2.758944
	24.475000	-2.804072
	24.480000	-2.865315
	24.485000	-2.820188
	24.490000	-2.758944
	24.495000	-2.807295
	24.500000	-2.874985
	24.505000	-2.820188
	24.510000	-2.762168
	24.515000	-2.816965
	24.520000	-2.868539
	24.525000	-2.813742
	24.530000	-2.758944
	24.535000	-2.810518
	24.540000	-2.871762
	24.545000	-2.826635
	24.550000	-2.755721
	24.555000	-2.810518
	24.560000	-2.874985
	24.565000	-2.816965
	24.570000	-2.752498
	24.575000	-2.807295
	24.580000	-2.868539
	24.585000	-2.820188
	24.590000	-2.752498
	24.595000	-2.810518
	24.600000	-2.871762
	24.605000	-2.820188
	24.610000	-2.758944
	24.615000	-2.813742
	24.620000	-2.868539
	24.625000	-2.816965
	24.630000	-2.758944
	24.635000	-2.810518
	24.640000	-2.874985
	24.645000	-2.823412
	24.650000	-2.762168
	24.655000	-2.813742
	24.660000	-2.868539
	24.665000	-2.823412
	24.670000	-2.762168
	24.675000	-2.816965
	24.680000	-2.871762
	24.685000	-2.823412
	24.690000	-2.752498
	24.695000	-2.813742
	24.700000	-2.868539
	24.705000	-2.810518
	24.710000	-2.765391
	24.715000	-2.813742
	24.720000	-2.871762
	24.725000	-2.820188
	24.730000	-2.758944
	24.735000	-2.810518
	24.740000	-2.868539
	24.745000	-2.820188
	24.750000	-2.762168
	24.755000	-2.816965
	24.760000	-2.874985
	24.765000	-2.823412
	24.770000	-2.755721
	24.775000	-2.820188
	24.780000	-2.881432
	24.785000	-2.826635
	24.790000	-2.762168
	24.795000	-2.816965
	24.800000	-2.881432
	24.805000	-2.826635
	24.810000	-2.758944
	24.815000	-2.816965
	24.820000	-2.878209
	24.825000	-2.826635
	24.830000	-2.765391
	24.835000	-2.820188
	24.840000	-2.874985
	24.845000	-2.829858
	24.850000	-2.765391
	24.855000	-2.816965
	24.860000	-2.878209
	24.865000	-2.829858
	24.870000	-2.768615
	24.875000	-2.820188
	24.880000	-2.881432
	24.885000	-2.826635
	24.890000	-2.765391
	24.895000	-2.826635
	24.900000	-2.881432
	24.905000	-2.833082
	24.910000	-2.768615
	24.915000	-2.820188
	24.920000	-2.884655
	24.925000	-2.826635
	24.930000	-2.768615
	24.935000	-2.816965
	24.940000	-2.871762
	24.945000	-2.833082
	24.950000	-2.765391
	24.955000	-2.820188
	24.960000	-2.881432
	24.965000	-2.826635
	24.970000	-2.768615
	24.975000	-2.813742
	24.980000	-2.881432
	24.985000	-2.833082
	24.990000	-2.768615
	24.995000	-2.823412
	25.000000	-2.878209
	25.005000	-2.829858
	25.010000	-2.768615
	25.015000	-2.820188
	25.020000	-2.881432
	25.025000	-2.836305
	25.030000	-2.778285
	25.035000	-2.820188
	25.040000	-2.887879
	25.045000	-2.829858
	25.050000	-2.771838
	25.055000	-2.816965
	25.060000	-2.891102
	25.065000	-2.833082
	25.070000	-2.768615
	25.075000	-2.823412
	25.080000	-2.887879
	25.085000	-2.836305
	25.090000	-2.771838
	25.095000	-2.820188
	25.100000	-2.887879
	25.105000	-2.836305
	25.110000	-2.771838
	25.115000	-2.823412
	25.120000	-2.887879
	25.125000	-2.836305
	25.130000	-2.775061
	25.135000	-2.829858
	25.140000	-2.894326
	25.145000	-2.836305
	25.150000	-2.778285
	25.155000	-2.826635
	25.160000	-2.884655
	25.165000	-2.833082
	25.170000	-2.778285
	25.175000	-2.820188
	25.180000	-2.884655
	25.185000	-2.829858
	25.190000	-2.771838
	25.195000	-2.823412
	25.200000	-2.878209
	25.205000	-2.833082
	25.210000	-2.771838
	25.215000	-2.820188
	25.220000	-2.891102
	25.225000	-2.836305
	25.230000	-2.771838
	25.235000	-2.826635
	25.240000	-2.884655
	25.245000	-2.829858
	25.250000	-2.771838
	25.255000	-2.820188
	25.260000	-2.881432
	25.265000	-2.833082
	25.270000	-2.768615
	25.275000	-2.826635
	25.280000	-2.884655
	25.285000	-2.823412
	25.290000	-2.768615
	25.295000	-2.816965
	25.300000	-2.878209
	25.305000	-2.833082
	25.310000	-2.765391
	25.315000	-2.820188
	25.320000	-2.881432
	25.325000	-2.829858
	25.330000	-2.765391
	25.335000	-2.820188
	25.340000	-2.887879
	25.345000	-2.823412
	25.350000	-2.768615
	25.355000	-2.820188
	25.360000	-2.884655
	25.365000	-2.829858
	25.370000	-2.765391
	25.375000	-2.813742
	25.380000	-2.871762
	25.385000	-2.816965
	25.390000	-2.758944
	25.395000	-2.820188
	25.400000	-2.871762
	25.405000	-2.823412
	25.410000	-2.762168
	25.415000	-2.820188
	25.420000	-2.871762
	25.425000	-2.823412
	25.430000	-2.762168
	25.435000	-2.810518
	25.440000	-2.874985
	25.445000	-2.826635
	25.450000	-2.768615
	25.455000	-2.807295
	25.460000	-2.868539
	25.465000	-2.826635
	25.470000	-2.762168
	25.475000	-2.813742
	25.480000	-2.871762
	25.485000	-2.823412
	25.490000	-2.758944
	25.495000	-2.800848
	25.500000	-2.862092
	25.505000	-2.816965
	25.510000	-2.752498
	25.515000	-2.804072
	25.520000	-2.849199
	25.525000	-2.797625
	25.530000	-2.736381
	25.535000	-2.778285
	25.540000	-2.836305
	25.545000	-2.778285
	25.550000	-2.710594
	25.555000	-2.755721
	25.560000	-2.816965
	25.565000	-2.755721
	25.570000	-2.691254
	25.575000	-2.739604
	25.580000	-2.797625
	25.585000	-2.742828
	25.590000	-2.681584
	25.595000	-2.726711
	25.600000	-2.778285
	25.605000	-2.729934
	25.610000	-2.671914
	25.615000	-2.717041
	25.620000	-2.771838
	25.625000	-2.723488
	25.630000	-2.665467
	25.635000	-2.710594
	25.640000	-2.771838
	25.645000	-2.713817
	25.650000	-2.652574
	25.655000	-2.717041
	25.660000	-2.762168
	25.665000	-2.717041
	25.670000	-2.659020
	25.675000	-2.704147
	25.680000	-2.778285
	25.685000	-2.720264
	25.690000	-2.668690
	25.695000	-2.720264
	25.700000	-2.781508
	25.705000	-2.742828
	25.710000	-2.675137
	25.715000	-2.726711
	25.720000	-2.794401
	25.725000	-2.736381
	25.730000	-2.681584
	25.735000	-2.736381
	25.740000	-2.800848
	25.745000	-2.755721
	25.750000	-2.700924
	25.755000	-2.749274
	25.760000	-2.810518
	25.765000	-2.762168
	25.770000	-2.713817
	25.775000	-2.758944
	25.780000	-2.823412
	25.785000	-2.778285
	25.790000	-2.707371
	25.795000	-2.765391
	25.800000	-2.829858
	25.805000	-2.781508
	25.810000	-2.729934
	25.815000	-2.768615
	25.820000	-2.839528
	25.825000	-2.787955
	25.830000	-2.736381
	25.835000	-2.781508
	25.840000	-2.845975
	25.845000	-2.797625
	25.850000	-2.733158
	25.855000	-2.791178
	25.860000	-2.845975
	25.865000	-2.794401
	25.870000	-2.739604
	25.875000	-2.787955
	25.880000	-2.849199
	25.885000	-2.800848
	25.890000	-2.746051
	25.895000	-2.787955
	25.900000	-2.852422
	25.905000	-2.800848
	25.910000	-2.739604
	25.915000	-2.791178
	25.920000	-2.855645
	25.925000	-2.807295
	25.930000	-2.746051
	25.935000	-2.804072
	25.940000	-2.852422
	25.945000	-2.807295
	25.950000	-2.742828
	25.955000	-2.794401
	25.960000	-2.858869
	25.965000	-2.804072
	25.970000	-2.742828
	25.975000	-2.797625
	25.980000	-2.862092
	25.985000	-2.813742
	25.990000	-2.752498
	25.995000	-2.797625
	26.000000	-2.855645
	26.005000	-2.804072
	26.010000	-2.758944
	26.015000	-2.800848
	26.020000	-2.862092
	26.025000	-2.813742
	26.030000	-2.758944
	26.035000	-2.797625
	26.040000	-2.858869
	26.045000	-2.820188
	26.050000	-2.755721
	26.055000	-2.804072
	26.060000	-2.865315
	26.065000	-2.807295
	26.070000	-2.755721
	26.075000	-2.810518
	26.080000	-2.871762
	26.085000	-2.816965
	26.090000	-2.765391
	26.095000	-2.810518
	26.100000	-2.874985
	26.105000	-2.813742
	26.110000	-2.768615
	26.115000	-2.816965
	26.120000	-2.881432
	26.125000	-2.823412
	26.130000	-2.765391
	26.135000	-2.807295
	26.140000	-2.871762
	26.145000	-2.820188
	26.150000	-2.768615
	26.155000	-2.813742
	26.160000	-2.878209
	26.165000	-2.826635
	26.170000	-2.765391
	26.175000	-2.823412
	26.180000	-2.878209
	26.185000	-2.816965
	26.190000	-2.762168
	26.195000	-2.813742
	26.200000	-2.871762
	26.205000	-2.826635
	26.210000	-2.768615
	26.215000	-2.823412
	26.220000	-2.874985
	26.225000	-2.826635
	26.230000	-2.768615
	26.235000	-2.810518
	26.240000	-2.878209
	26.245000	-2.823412
	26.250000	-2.768615
	26.255000	-2.816965
	26.260000	-2.871762
	26.265000	-2.833082
	26.270000	-2.762168
	26.275000	-2.823412
	26.280000	-2.874985
	26.285000	-2.826635
	26.290000	-2.771838
	26.295000	-2.816965
	26.300000	-2.884655
	26.305000	-2.836305
	26.310000	-2.778285
	26.315000	-2.823412
	26.320000	-2.887879
	26.325000	-2.836305
	26.330000	-2.775061
	26.335000	-2.826635
	26.340000	-2.891102
	26.345000	-2.839528
	26.350000	-2.778285
	26.355000	-2.829858
	26.360000	-2.897549
	26.365000	-2.836305
	26.370000	-2.778285
	26.375000	-2.833082
	26.380000	-2.891102
	26.385000	-2.842752
	26.390000	-2.781508
	26.395000	-2.829858
	26.400000	-2.891102
	26.405000	-2.842752
	26.410000	-2.781508
	26.415000	-2.833082
	26.420000	-2.894326
	26.425000	-2.842752
	26.430000	-2.781508
	26.435000	-2.829858
	26.440000	-2.894326
	26.445000	-2.839528
	26.450000	-2.775061
	26.455000	-2.829858
	26.460000	-2.894326
	26.465000	-2.842752
	26.470000	-2.778285
	26.475000	-2.839528
	26.480000	-2.894326
	26.485000	-2.836305
	26.490000	-2.778285
	26.495000	-2.829858
	26.500000	-2.891102
	26.505000	-2.833082
	26.510000	-2.781508
	26.515000	-2.829858
	26.520000	-2.891102
	26.525000	-2.842752
	26.530000	-2.778285
	26.535000	-2.826635
	26.540000	-2.891102
	26.545000	-2.836305
	26.550000	-2.775061
	26.555000	-2.826635
	26.560000	-2.887879
	26.565000	-2.839528
	26.570000	-2.775061
	26.575000	-2.839528
	26.580000	-2.891102
	26.585000	-2.839528
	26.590000	-2.775061
	26.595000	-2.826635
	26.600000	-2.894326
	26.605000	-2.836305
	26.610000	-2.781508
	26.615000	-2.823412
	26.620000	-2.894326
	26.625000	-2.836305
	26.630000	-2.781508
	26.635000	-2.826635
	26.640000	-2.891102
	26.645000	-2.839528
	26.650000	-2.778285
	26.655000	-2.823412
	26.660000	-2.891102
	26.665000	-2.836305
	26.670000	-2.784731
	26.675000	-2.823412
	26.680000	-2.894326
	26.685000	-2.839528
	26.690000	-2.771838
	26.695000	-2.826635
	26.700000	-2.891102
	26.705000	-2.839528
	26.710000	-2.775061
	26.715000	-2.820188
	26.720000	-2.887879
	26.725000	-2.829858
	26.730000	-2.768615
	26.735000	-2.826635
	26.740000	-2.881432
	26.745000	-2.836305
	26.750000	-2.768615
	26.755000	-2.829858
	26.760000	-2.884655
	26.765000	-2.833082
	26.770000	-2.781508
	26.775000	-2.829858
	26.780000	-2.884655
	26.785000	-2.833082
	26.790000	-2.771838
	26.795000	-2.826635
	26.800000	-2.887879
	26.805000	-2.839528
	26.810000	-2.778285
	26.815000	-2.829858
	26.820000	-2.884655
	26.825000	-2.836305
	26.830000	-2.775061
	26.835000	-2.823412
	26.840000	-2.884655
	26.845000	-2.842752
	26.850000	-2.775061
	26.855000	-2.836305
	26.860000	-2.894326
	26.865000	-2.839528
	26.870000	-2.775061
	26.875000	-2.829858
	26.880000	-2.884655
	26.885000	-2.836305
	26.890000	-2.771838
	26.895000	-2.829858
	26.900000	-2.884655
	26.905000	-2.836305
	26.910000	-2.781508
	26.915000	-2.823412
	26.920000	-2.884655
	26.925000	-2.836305
	26.930000	-2.771838
	26.935000	-2.820188
	26.940000	-2.881432
	26.945000	-2.836305
	26.950000	-2.771838
	26.955000	-2.816965
	26.960000	-2.881432
	26.965000	-2.826635
	26.970000	-2.762168
	26.975000	-2.816965
	26.980000	-2.858869
	26.985000	-2.820188
	26.990000	-2.746051
	26.995000	-2.800848
	27.000000	-2.849199
	27.005000	-2.797625
	27.010000	-2.720264
	27.015000	-2.768615
	27.020000	-2.823412
	27.025000	-2.762168
	27.030000	-2.704147
	27.035000	-2.736381
	27.040000	-2.797625
	27.045000	-2.733158
	27.050000	-2.668690
	27.055000	-2.710594
	27.060000	-2.755721
	27.065000	-2.700924
	27.070000	-2.620340
	27.075000	-2.662244
	27.080000	-2.710594
	27.085000	-2.649350
	27.090000	-2.578436
	27.095000	-2.620340
	27.100000	-2.662244
	27.105000	-2.604223
	27.110000	-2.546203
	27.115000	-2.591330
	27.120000	-2.639680
	27.125000	-2.597777
	27.130000	-2.533309
	27.135000	-2.575213
	27.140000	-2.633233
	27.145000	-2.584883
	27.150000	-2.530086
	27.155000	-2.568766
	27.160000	-2.633233
	27.165000	-2.588106
	27.170000	-2.530086
	27.175000	-2.578436
	27.180000	-2.649350
	27.185000	-2.604223
	27.190000	-2.552650
	27.195000	-2.613893
	27.200000	-2.675137
	27.205000	-2.630010
	27.210000	-2.588106
	27.215000	-2.630010
	27.220000	-2.707371
	27.225000	-2.659020
	27.230000	-2.613893
	27.235000	-2.665467
	27.240000	-2.733158
	27.245000	-2.684807
	27.250000	-2.633233
	27.255000	-2.691254
	27.260000	-2.755721
	27.265000	-2.713817
	27.270000	-2.662244
	27.275000	-2.713817
	27.280000	-2.778285
	27.285000	-2.726711
	27.290000	-2.678361
	27.295000	-2.726711
	27.300000	-2.794401
	27.305000	-2.746051
	27.310000	-2.691254
	27.315000	-2.746051
	27.320000	-2.804072
	27.325000	-2.765391
	27.330000	-2.700924
	27.335000	-2.749274
	27.340000	-2.823412
	27.345000	-2.768615
	27.350000	-2.713817
	27.355000	-2.755721
	27.360000	-2.816965
	27.365000	-2.771838
	27.370000	-2.720264
	27.375000	-2.762168
	27.380000	-2.826635
	27.385000	-2.778285
	27.390000	-2.723488
	27.395000	-2.775061
	27.400000	-2.836305
	27.405000	-2.784731
	27.410000	-2.729934
	27.415000	-2.781508
	27.420000	-2.842752
	27.425000	-2.791178
	27.430000	-2.733158
	27.435000	-2.781508
	27.440000	-2.833082
	27.445000	-2.787955
	27.450000	-2.733158
	27.455000	-2.778285
	27.460000	-2.842752
	27.465000	-2.794401
	27.470000	-2.733158
	27.475000	-2.787955
	27.480000	-2.842752
	27.485000	-2.800848
	27.490000	-2.736381
	27.495000	-2.787955
	27.500000	-2.845975
	27.505000	-2.794401
	27.510000	-2.742828
	27.515000	-2.784731
	27.520000	-2.855645
	27.525000	-2.804072
	27.530000	-2.742828
	27.535000	-2.794401
	27.540000	-2.852422
	27.545000	-2.810518
	27.550000	-2.746051
	27.555000	-2.797625
	27.560000	-2.855645
	27.565000	-2.810518
	27.570000	-2.746051
	27.575000	-2.804072
	27.580000	-2.855645
	27.585000	-2.810518
	27.590000	-2.752498
	27.595000	-2.797625
	27.600000	-2.868539
	27.605000	-2.813742
	27.610000	-2.752498
	27.615000	-2.807295
	27.620000	-2.858869
	27.625000	-2.813742
	27.630000	-2.755721
	27.635000	-2.797625
	27.640000	-2.865315
	27.645000	-2.813742
	27.650000	-2.752498
	27.655000	-2.807295
	27.660000	-2.862092
	27.665000	-2.813742
	27.670000	-2.758944
	27.675000	-2.810518
	27.680000	-2.868539
	27.685000	-2.816965
	27.690000	-2.762168
	27.695000	-2.810518
	27.700000	-2.865315
	27.705000	-2.820188
	27.710000	-2.755721
	27.715000	-2.800848
	27.720000	-2.868539
	27.725000	-2.826635
	27.730000	-2.762168
	27.735000	-2.807295
	27.740000	-2.868539
	27.745000	-2.829858
	27.750000	-2.765391
	27.755000	-2.823412
	27.760000	-2.878209
	27.765000	-2.823412
	27.770000	-2.755721
	27.775000	-2.816965
	27.780000	-2.881432
	27.785000	-2.826635
	27.790000	-2.768615
	27.795000	-2.813742
	27.800000	-2.881432
	27.805000	-2.829858
	27.810000	-2.768615
	27.815000	-2.829858
	27.820000	-2.884655
	27.825000	-2.829858
	27.830000	-2.771838
	27.835000	-2.823412
	27.840000	-2.881432
	27.845000	-2.829858
	27.850000	-2.771838
	27.855000	-2.826635
	27.860000	-2.884655
	27.865000	-2.833082
	27.870000	-2.771838
	27.875000	-2.823412
	27.880000	-2.878209
	27.885000	-2.829858
	27.890000	-2.765391
	27.895000	-2.816965
	27.900000	-2.874985
	27.905000	-2.823412
	27.910000	-2.755721
	27.915000	-2.813742
	27.920000	-2.868539
	27.925000	-2.829858
	27.930000	-2.768615
	27.935000	-2.813742
	27.940000	-2.865315
	27.945000	-2.823412
	27.950000	-2.762168
	27.955000	-2.816965
	27.960000	-2.871762
	27.965000	-2.823412
	27.970000	-2.758944
	27.975000	-2.810518
	27.980000	-2.865315
	27.985000	-2.820188
	27.990000	-2.762168
	27.995000	-2.804072
	28.000000	-2.871762
	28.005000	-2.823412
	28.010000	-2.758944
	28.015000	-2.810518
	28.020000	-2.868539
	28.025000	-2.826635
	28.030000	-2.755721
	28.035000	-2.807295
	28.040000	-2.871762
	28.045000	-2.820188
	28.050000	-2.762168
	28.055000	-2.810518
	28.060000	-2.874985
	28.065000	-2.823412
	28.070000	-2.758944
	28.075000	-2.810518
	28.080000	-2.874985
	28.085000	-2.826635
	28.090000	-2.758944
	28.095000	-2.813742
	28.100000	-2.881432
	28.105000	-2.820188
	28.110000	-2.762168
	28.115000	-2.816965
	28.120000	-2.881432
	28.125000	-2.829858
	28.130000	-2.768615
	28.135000	-2.816965
	28.140000	-2.874985
	28.145000	-2.826635
	28.150000	-2.768615
	28.155000	-2.820188
	28.160000	-2.884655
	28.165000	-2.836305
	28.170000	-2.775061
	28.175000	-2.823412
	28.180000	-2.887879
	28.185000	-2.829858
	28.190000	-2.771838
	28.195000	-2.820188
	28.200000	-2.891102
	28.205000	-2.836305
	28.210000	-2.775061
	28.215000	-2.823412
	28.220000	-2.887879
	28.225000	-2.826635
	28.230000	-2.775061
	28.235000	-2.823412
	28.240000	-2.887879
	28.245000	-2.833082
	28.250000	-2.771838
	28.255000	-2.820188
	28.260000	-2.884655
	28.265000	-2.836305
	28.270000	-2.778285
	28.275000	-2.823412
	28.280000	-2.884655
	28.285000	-2.836305
	28.290000	-2.768615
	28.295000	-2.816965
	28.300000	-2.878209
	28.305000	-2.829858
	28.310000	-2.768615
	28.315000	-2.816965
	28.320000	-2.881432
	28.325000	-2.829858
	28.330000	-2.771838
	28.335000	-2.816965
	28.340000	-2.878209
	28.345000	-2.823412
	28.350000	-2.762168
	28.355000	-2.804072
	28.360000	-2.871762
	28.365000	-2.823412
	28.370000	-2.758944
	28.375000	-2.804072
	28.380000	-2.865315
	28.385000	-2.820188
	28.390000	-2.749274
	28.395000	-2.791178
	28.400000	-2.855645
	28.405000	-2.800848
	28.410000	-2.729934
	28.415000	-2.778285
	28.420000	-2.833082
	28.425000	-2.781508
	28.430000	-2.723488
	28.435000	-2.758944
	28.440000	-2.823412
	28.445000	-2.775061
	28.450000	-2.704147
	28.455000	-2.749274
	28.460000	-2.807295
	28.465000	-2.752498
	28.470000	-2.688031
	28.475000	-2.739604
	28.480000	-2.791178
	28.485000	-2.739604
	28.490000	-2.678361
	28.495000	-2.726711
	28.500000	-2.791178
	28.505000	-2.736381
	28.510000	-2.681584
	28.515000	-2.726711
	28.520000	-2.787955
	28.525000	-2.739604
	28.530000	-2.688031
	28.535000	-2.736381
	28.540000	-2.797625
	28.545000	-2.749274
	28.550000	-2.688031
	28.555000	-2.736381
	28.560000	-2.807295
	28.565000	-2.758944
	28.570000	-2.700924
	28.575000	-2.755721
	28.580000	-2.816965
	28.585000	-2.775061
	28.590000	-2.720264
	28.595000	-2.765391
	28.600000	-2.839528
	28.605000	-2.791178
	28.610000	-2.729934
	28.615000	-2.771838
	28.620000	-2.845975
	28.625000	-2.807295
	28.630000	-2.746051
	28.635000	-2.791178
	28.640000	-2.858869
	28.645000	-2.810518
	28.650000	-2.749274
	28.655000	-2.800848
	28.660000	-2.865315
	28.665000	-2.810518
	28.670000	-2.758944
	28.675000	-2.797625
	28.680000	-2.855645
	28.685000	-2.813742
	28.690000	-2.749274
	28.695000	-2.794401
	28.700000	-2.839528
	28.705000	-2.791178
	28.710000	-2.717041
	28.715000	-2.762168
	28.720000	-2.823412
	28.725000	-2.765391
	28.730000	-2.697701
	28.735000	-2.742828
	28.740000	-2.791178
	28.745000	-2.739604
	28.750000	-2.671914
	28.755000	-2.710594
	28.760000	-2.768615
	28.765000	-2.710594
	28.770000	-2.646127
	28.775000	-2.684807
	28.780000	-2.742828
	28.785000	-2.691254
	28.790000	-2.623563
	28.795000	-2.671914
	28.800000	-2.726711
	28.805000	-2.668690
	28.810000	-2.607447
	28.815000	-2.646127
	28.820000	-2.704147
	28.825000	-2.652574
	28.830000	-2.584883
	28.835000	-2.630010
	28.840000	-2.688031
	28.845000	-2.626787
	28.850000	-2.562320
	28.855000	-2.610670
	28.860000	-2.665467
	28.865000	-2.607447
	28.870000	-2.549426
	28.875000	-2.591330
	28.880000	-2.639680
	28.885000	-2.591330
	28.890000	-2.539756
	28.895000	-2.575213
	28.900000	-2.623563
	28.905000	-2.575213
	28.910000	-2.513969
	28.915000	-2.552650
	28.920000	-2.613893
	28.925000	-2.562320
	28.930000	-2.504299
	28.935000	-2.546203
	28.940000	-2.597777
	28.945000	-2.552650
	28.950000	-2.491406
	28.955000	-2.526863
	28.960000	-2.581660
	28.965000	-2.536533
	28.970000	-2.478512
	28.975000	-2.520416
	28.980000	-2.584883
	28.985000	-2.533309
	28.990000	-2.472066
	28.995000	-2.513969
	29.000000	-2.565543
	29.005000	-2.523639
	29.010000	-2.465619
	29.015000	-2.507522
	29.020000	-2.565543
	29.025000	-2.513969
	29.030000	-2.452725
	29.035000	-2.494629
	29.040000	-2.559096
	29.045000	-2.510746
	29.050000	-2.449502
	29.055000	-2.491406
	29.060000	-2.549426
	29.065000	-2.507522
	29.070000	-2.443055
	29.075000	-2.488182
	29.080000	-2.546203
	29.085000	-2.497852
	29.090000	-2.439832
	29.095000	-2.481736
	29.100000	-2.539756
	29.105000	-2.488182
	29.110000	-2.439832
	29.115000	-2.478512
	29.120000	-2.533309
	29.125000	-2.488182
	29.130000	-2.436609
	29.135000	-2.475289
	29.140000	-2.530086
	29.145000	-2.484959
	29.150000	-2.430162
	29.155000	-2.472066
	29.160000	-2.523639
	29.165000	-2.484959
	29.170000	-2.426939
	29.175000	-2.472066
	29.180000	-2.523639
	29.185000	-2.478512
	29.190000	-2.430162
	29.195000	-2.462395
	29.200000	-2.526863
	29.205000	-2.481736
	29.210000	-2.430162
	29.215000	-2.462395
	29.220000	-2.520416
	29.225000	-2.488182
	29.230000	-2.423715
	29.235000	-2.475289
	29.240000	-2.523639
	29.245000	-2.488182
	29.250000	-2.433385
	29.255000	-2.468842
	29.260000	-2.520416
	29.265000	-2.484959
	29.270000	-2.430162
	29.275000	-2.472066
	29.280000	-2.536533
	29.285000	-2.488182
	29.290000	-2.439832
	29.295000	-2.475289
	29.300000	-2.526863
	29.305000	-2.497852
	29.310000	-2.449502
	29.315000	-2.488182
	29.320000	-2.539756
	29.325000	-2.494629
	29.330000	-2.449502
	29.335000	-2.481736
	29.340000	-2.542979
	29.345000	-2.497852
	29.350000	-2.449502
	29.355000	-2.484959
	29.360000	-2.546203
	29.365000	-2.504299
	29.370000	-2.459172
	29.375000	-2.491406
	29.380000	-2.542979
	29.385000	-2.510746
	29.390000	-2.459172
	29.395000	-2.501076
	29.400000	-2.562320
	29.405000	-2.517193
	29.410000	-2.465619
	29.415000	-2.507522
	29.420000	-2.565543
	29.425000	-2.523639
	29.430000	-2.465619
	29.435000	-2.507522
	29.440000	-2.565543
	29.445000	-2.530086
	29.450000	-2.478512
	29.455000	-2.513969
	29.460000	-2.568766
	29.465000	-2.523639
	29.470000	-2.481736
	29.475000	-2.523639
	29.480000	-2.578436
	29.485000	-2.530086
	29.490000	-2.491406
	29.495000	-2.526863
	29.500000	-2.581660
	29.505000	-2.542979
	29.510000	-2.491406
	29.515000	-2.530086
	29.520000	-2.588106
	29.525000	-2.552650
	29.530000	-2.510746
	29.535000	-2.549426
	29.540000	-2.620340
	29.545000	-2.578436
	29.550000	-2.536533
	29.555000	-2.578436
	29.560000	-2.639680
	29.565000	-2.601000
	29.570000	-2.559096
	29.575000	-2.604223
	29.580000	-2.668690
	29.585000	-2.626787
	29.590000	-2.588106
	29.595000	-2.636457
	29.600000	-2.694477
	29.605000	-2.652574
	29.610000	-2.604223
	29.615000	-2.639680
	29.620000	-2.707371
	29.625000	-2.668690
	29.630000	-2.620340
	29.635000	-2.662244
	29.640000	-2.720264
	29.645000	-2.688031
	29.650000	-2.636457
	29.655000	-2.678361
	29.660000	-2.742828
	29.665000	-2.704147
	29.670000	-2.649350
	29.675000	-2.694477
	29.680000	-2.752498
	29.685000	-2.713817
	29.690000	-2.665467
	29.695000	-2.717041
	29.700000	-2.778285
	29.705000	-2.729934
	29.710000	-2.688031
	29.715000	-2.726711
	29.720000	-2.791178
	29.725000	-2.746051
	29.730000	-2.691254
	29.735000	-2.733158
	29.740000	-2.797625
	29.745000	-2.765391
	29.750000	-2.704147
	29.755000	-2.758944
	29.760000	-2.813742
	29.765000	-2.771838
	29.770000	-2.720264
	29.775000	-2.765391
	29.780000	-2.823412
	29.785000	-2.787955
	29.790000	-2.736381
	29.795000	-2.778285
	29.800000	-2.829858
	29.805000	-2.797625
	29.810000	-2.739604
	29.815000	-2.784731
	29.820000	-2.842752
	29.825000	-2.804072
	29.830000	-2.749274
	29.835000	-2.791178
	29.840000	-2.852422
	29.845000	-2.813742
	29.850000	-2.752498
	29.855000	-2.797625
	29.860000	-2.862092
	29.865000	-2.816965
	29.870000	-2.765391
	29.875000	-2.807295
	29.880000	-2.865315
	29.885000	-2.820188
	29.890000	-2.765391
	29.895000	-2.807295
	29.900000	-2.868539
	29.905000	-2.826635
	29.910000	-2.765391
	29.915000	-2.810518
	29.920000	-2.871762
	29.925000	-2.826635
	29.930000	-2.768615
	29.935000	-2.810518
	29.940000	-2.874985
	29.945000	-2.833082
	29.950000	-2.778285
	29.955000	-2.829858
	29.960000	-2.887879
	29.965000	-2.849199
	29.970000	-2.787955
	29.975000	-2.829858
	29.980000	-2.891102
	29.985000	-2.852422
	29.990000	-2.800848
	29.995000	-2.836305
	30.000000	-2.903996
	30.005000	-2.858869
	30.010000	-2.800848
	30.015000	-2.849199
	30.020000	-2.910442
	30.025000	-2.865315
	30.030000	-2.816965
	30.035000	-2.855645
	30.040000	-2.923336
	30.045000	-2.871762
	30.050000	-2.820188
	30.055000	-2.858869
	30.060000	-2.926559
	30.065000	-2.884655
	30.070000	-2.823412
	30.075000	-2.862092
	30.080000	-2.929783
	30.085000	-2.884655
	30.090000	-2.826635
	30.095000	-2.871762
	30.100000	-2.936229
	30.105000	-2.887879
	30.110000	-2.833082
	30.115000	-2.878209
	30.120000	-2.942676
	30.125000	-2.894326
	30.130000	-2.833082
	30.135000	-2.881432
	30.140000	-2.939453
	30.145000	-2.894326
	30.150000	-2.836305
	30.155000	-2.887879
	30.160000	-2.936229
	30.165000	-2.903996
	30.170000	-2.839528
	30.175000	-2.884655
	30.180000	-2.942676
	30.185000	-2.910442
	30.190000	-2.842752
	30.195000	-2.884655
	30.200000	-2.949123
	30.205000	-2.903996
	30.210000	-2.842752
	30.215000	-2.891102
	30.220000	-2.955569
	30.225000	-2.907219
	30.230000	-2.845975
	30.235000	-2.891102
	30.240000	-2.958793
	30.245000	-2.907219
	30.250000	-2.849199
	30.255000	-2.891102
	30.260000	-2.958793
	30.265000	-2.913666
	30.270000	-2.852422
	30.275000	-2.894326
	30.280000	-2.958793
	30.285000	-2.910442
	30.290000	-2.855645
	30.295000	-2.897549
	30.300000	-2.965239
	30.305000	-2.910442
	30.310000	-2.852422
	30.315000	-2.900772
	30.320000	-2.955569
