2024/6/30 	 21:46:05 
 This file comes from Vt only measurement 	 1.000000E-1 
 Voltage Sensitivity 	 0.000000E+0 
 Sampling rate 	 500 
 Number of samples per channel 	 -1 
 No filter from Labview 	 	 	 
 	 
 ***End_of_Header*** 
 	 Time 	  Voltage 	 Filtered Voltage 	 
	0.000000	1.160660
	0.002000	1.244467
	0.004000	1.296041
	0.006000	1.305711
	0.008000	1.270254
	0.010000	1.192894
	0.012000	1.102640
	0.014000	1.051066
	0.016000	1.047842
	0.018000	1.086523
	0.020000	1.167107
	0.022000	1.254137
	0.024000	1.308934
	0.026000	1.328275
	0.028000	1.289594
	0.030000	1.199340
	0.032000	1.115533
	0.034000	1.067183
	0.036000	1.054289
	0.038000	1.096193
	0.040000	1.183223
	0.042000	1.267031
	0.044000	1.321828
	0.046000	1.334721
	0.048000	1.292818
	0.050000	1.205787
	0.052000	1.121980
	0.054000	1.067183
	0.056000	1.067183
	0.058000	1.105863
	0.060000	1.189670
	0.062000	1.273478
	0.064000	1.328275
	0.066000	1.337945
	0.068000	1.305711
	0.070000	1.218680
	0.072000	1.134873
	0.074000	1.076853
	0.076000	1.073629
	0.078000	1.115533
	0.080000	1.202564
	0.082000	1.286371
	0.084000	1.337945
	0.086000	1.347615
	0.088000	1.308934
	0.090000	1.228351
	0.092000	1.147767
	0.094000	1.092969
	0.096000	1.083299
	0.098000	1.128426
	0.100000	1.215457
	0.102000	1.299264
	0.104000	1.357285
	0.106000	1.363732
	0.108000	1.328275
	0.110000	1.241244
	0.112000	1.160660
	0.114000	1.102640
	0.116000	1.092969
	0.118000	1.141320
	0.120000	1.231574
	0.122000	1.312158
	0.124000	1.363732
	0.126000	1.366955
	0.128000	1.331498
	0.130000	1.244467
	0.132000	1.163883
	0.134000	1.112310
	0.136000	1.102640
	0.138000	1.147767
	0.140000	1.234797
	0.142000	1.315381
	0.144000	1.376625
	0.146000	1.376625
	0.148000	1.344391
	0.150000	1.263807
	0.152000	1.183223
	0.154000	1.134873
	0.156000	1.121980
	0.158000	1.170330
	0.160000	1.254137
	0.162000	1.334721
	0.164000	1.389518
	0.166000	1.395965
	0.168000	1.363732
	0.170000	1.279924
	0.172000	1.192894
	0.174000	1.134873
	0.176000	1.134873
	0.178000	1.176777
	0.180000	1.270254
	0.182000	1.350838
	0.184000	1.405635
	0.186000	1.418529
	0.188000	1.373402
	0.190000	1.289594
	0.192000	1.205787
	0.194000	1.160660
	0.196000	1.144543
	0.198000	1.189670
	0.200000	1.279924
	0.202000	1.366955
	0.204000	1.415305
	0.206000	1.418529
	0.208000	1.379848
	0.210000	1.296041
	0.212000	1.218680
	0.214000	1.160660
	0.216000	1.163883
	0.218000	1.205787
	0.220000	1.289594
	0.222000	1.376625
	0.224000	1.434645
	0.226000	1.434645
	0.228000	1.392742
	0.230000	1.308934
	0.232000	1.231574
	0.234000	1.183223
	0.236000	1.176777
	0.238000	1.221904
	0.240000	1.312158
	0.242000	1.389518
	0.244000	1.447539
	0.246000	1.450762
	0.248000	1.405635
	0.250000	1.318605
	0.252000	1.247691
	0.254000	1.189670
	0.256000	1.192894
	0.258000	1.231574
	0.260000	1.318605
	0.262000	1.405635
	0.264000	1.450762
	0.266000	1.453986
	0.268000	1.415305
	0.270000	1.331498
	0.272000	1.254137
	0.274000	1.196117
	0.276000	1.196117
	0.278000	1.241244
	0.280000	1.328275
	0.282000	1.405635
	0.284000	1.460432
	0.286000	1.466879
	0.288000	1.418529
	0.290000	1.341168
	0.292000	1.254137
	0.294000	1.205787
	0.296000	1.205787
	0.298000	1.244467
	0.300000	1.334721
	0.302000	1.418529
	0.304000	1.470102
	0.306000	1.473326
	0.308000	1.431422
	0.310000	1.344391
	0.312000	1.267031
	0.314000	1.215457
	0.316000	1.215457
	0.318000	1.257361
	0.320000	1.350838
	0.322000	1.428199
	0.324000	1.482996
	0.326000	1.489443
	0.328000	1.434645
	0.330000	1.354062
	0.332000	1.270254
	0.334000	1.221904
	0.336000	1.225127
	0.338000	1.267031
	0.340000	1.347615
	0.342000	1.434645
	0.344000	1.489443
	0.346000	1.489443
	0.348000	1.441092
	0.350000	1.357285
	0.352000	1.276701
	0.354000	1.231574
	0.356000	1.221904
	0.358000	1.270254
	0.360000	1.360508
	0.362000	1.441092
	0.364000	1.502336
	0.366000	1.495889
	0.368000	1.460432
	0.370000	1.363732
	0.372000	1.286371
	0.374000	1.238021
	0.376000	1.228351
	0.378000	1.279924
	0.380000	1.363732
	0.382000	1.447539
	0.384000	1.499113
	0.386000	1.512006
	0.388000	1.460432
	0.390000	1.379848
	0.392000	1.292818
	0.394000	1.241244
	0.396000	1.244467
	0.398000	1.296041
	0.400000	1.383072
	0.402000	1.463656
	0.404000	1.515229
	0.406000	1.524900
	0.408000	1.476549
	0.410000	1.386295
	0.412000	1.305711
	0.414000	1.260584
	0.416000	1.254137
	0.418000	1.305711
	0.420000	1.395965
	0.422000	1.476549
	0.424000	1.528123
	0.426000	1.531346
	0.428000	1.486219
	0.430000	1.399189
	0.432000	1.321828
	0.434000	1.263807
	0.436000	1.270254
	0.438000	1.315381
	0.440000	1.408859
	0.442000	1.482996
	0.444000	1.541016
	0.446000	1.534570
	0.448000	1.492666
	0.450000	1.408859
	0.452000	1.325051
	0.454000	1.279924
	0.456000	1.286371
	0.458000	1.334721
	0.460000	1.421752
	0.462000	1.512006
	0.464000	1.557133
	0.466000	1.557133
	0.468000	1.512006
	0.470000	1.428199
	0.472000	1.341168
	0.474000	1.302488
	0.476000	1.296041
	0.478000	1.350838
	0.480000	1.434645
	0.482000	1.515229
	0.484000	1.566803
	0.486000	1.563580
	0.488000	1.518453
	0.490000	1.441092
	0.492000	1.360508
	0.494000	1.312158
	0.496000	1.312158
	0.498000	1.363732
	0.500000	1.441092
	0.502000	1.528123
	0.504000	1.570027
	0.506000	1.582920
	0.508000	1.528123
	0.510000	1.444316
	0.512000	1.366955
	0.514000	1.315381
	0.516000	1.318605
	0.518000	1.366955
	0.520000	1.453986
	0.522000	1.531346
	0.524000	1.579697
	0.526000	1.582920
	0.528000	1.534570
	0.530000	1.450762
	0.532000	1.373402
	0.534000	1.325051
	0.536000	1.325051
	0.538000	1.376625
	0.540000	1.457209
	0.542000	1.537793
	0.544000	1.592590
	0.546000	1.586143
	0.548000	1.541016
	0.550000	1.460432
	0.552000	1.376625
	0.554000	1.331498
	0.556000	1.328275
	0.558000	1.379848
	0.560000	1.463656
	0.562000	1.541016
	0.564000	1.595813
	0.566000	1.595813
	0.568000	1.544240
	0.570000	1.463656
	0.572000	1.379848
	0.574000	1.331498
	0.576000	1.334721
	0.578000	1.383072
	0.580000	1.466879
	0.582000	1.550686
	0.584000	1.605484
	0.586000	1.602260
	0.588000	1.553910
	0.590000	1.466879
	0.592000	1.389518
	0.594000	1.337945
	0.596000	1.344391
	0.598000	1.389518
	0.600000	1.489443
	0.602000	1.570027
	0.604000	1.615154
	0.606000	1.611930
	0.608000	1.563580
	0.610000	1.476549
	0.612000	1.399189
	0.614000	1.347615
	0.616000	1.354062
	0.618000	1.402412
	0.620000	1.492666
	0.622000	1.576473
	0.624000	1.631270
	0.626000	1.624824
	0.628000	1.566803
	0.630000	1.479773
	0.632000	1.402412
	0.634000	1.363732
	0.636000	1.370178
	0.638000	1.418529
	0.640000	1.502336
	0.642000	1.579697
	0.644000	1.624824
	0.646000	1.624824
	0.648000	1.573250
	0.650000	1.495889
	0.652000	1.415305
	0.654000	1.366955
	0.656000	1.366955
	0.658000	1.418529
	0.660000	1.512006
	0.662000	1.589367
	0.664000	1.637717
	0.666000	1.628047
	0.668000	1.579697
	0.670000	1.502336
	0.672000	1.421752
	0.674000	1.373402
	0.676000	1.386295
	0.678000	1.434645
	0.680000	1.521676
	0.682000	1.605484
	0.684000	1.657057
	0.686000	1.650611
	0.688000	1.599037
	0.690000	1.512006
	0.692000	1.434645
	0.694000	1.395965
	0.696000	1.395965
	0.698000	1.450762
	0.700000	1.544240
	0.702000	1.621600
	0.704000	1.666727
	0.706000	1.660281
	0.708000	1.611930
	0.710000	1.524900
	0.712000	1.453986
	0.714000	1.405635
	0.716000	1.405635
	0.718000	1.466879
	0.720000	1.550686
	0.722000	1.631270
	0.724000	1.679621
	0.726000	1.679621
	0.728000	1.624824
	0.730000	1.537793
	0.732000	1.463656
	0.734000	1.418529
	0.736000	1.421752
	0.738000	1.482996
	0.740000	1.570027
	0.742000	1.647387
	0.744000	1.689291
	0.746000	1.695738
	0.748000	1.637717
	0.750000	1.560356
	0.752000	1.482996
	0.754000	1.437869
	0.756000	1.441092
	0.758000	1.492666
	0.760000	1.582920
	0.762000	1.660281
	0.764000	1.708631
	0.766000	1.702184
	0.768000	1.647387
	0.770000	1.560356
	0.772000	1.486219
	0.774000	1.431422
	0.776000	1.441092
	0.778000	1.502336
	0.780000	1.586143
	0.782000	1.660281
	0.784000	1.708631
	0.786000	1.702184
	0.788000	1.653834
	0.790000	1.570027
	0.792000	1.489443
	0.794000	1.441092
	0.796000	1.447539
	0.798000	1.505559
	0.800000	1.592590
	0.802000	1.673174
	0.804000	1.715078
	0.806000	1.711854
	0.808000	1.653834
	0.810000	1.576473
	0.812000	1.495889
	0.814000	1.457209
	0.816000	1.460432
	0.818000	1.515229
	0.820000	1.608707
	0.822000	1.679621
	0.824000	1.727971
	0.826000	1.718301
	0.828000	1.673174
	0.830000	1.589367
	0.832000	1.515229
	0.834000	1.473326
	0.836000	1.476549
	0.838000	1.537793
	0.840000	1.621600
	0.842000	1.695738
	0.844000	1.737641
	0.846000	1.740865
	0.848000	1.682844
	0.850000	1.605484
	0.852000	1.528123
	0.854000	1.479773
	0.856000	1.492666
	0.858000	1.544240
	0.860000	1.634494
	0.862000	1.708631
	0.864000	1.747311
	0.866000	1.747311
	0.868000	1.692514
	0.870000	1.605484
	0.872000	1.534570
	0.874000	1.489443
	0.876000	1.499113
	0.878000	1.553910
	0.880000	1.644164
	0.882000	1.721524
	0.884000	1.760205
	0.886000	1.756981
	0.888000	1.702184
	0.890000	1.611930
	0.892000	1.541016
	0.894000	1.495889
	0.896000	1.505559
	0.898000	1.563580
	0.900000	1.647387
	0.902000	1.721524
	0.904000	1.766651
	0.906000	1.763428
	0.908000	1.705408
	0.910000	1.621600
	0.912000	1.547463
	0.914000	1.512006
	0.916000	1.518453
	0.918000	1.576473
	0.920000	1.663504
	0.922000	1.740865
	0.924000	1.779545
	0.926000	1.776322
	0.928000	1.715078
	0.930000	1.634494
	0.932000	1.563580
	0.934000	1.524900
	0.936000	1.528123
	0.938000	1.579697
	0.940000	1.673174
	0.942000	1.747311
	0.944000	1.789215
	0.946000	1.785992
	0.948000	1.724748
	0.950000	1.640940
	0.952000	1.570027
	0.954000	1.531346
	0.956000	1.534570
	0.958000	1.592590
	0.960000	1.679621
	0.962000	1.760205
	0.964000	1.805332
	0.966000	1.792438
	0.968000	1.737641
	0.970000	1.657057
	0.972000	1.576473
	0.974000	1.541016
	0.976000	1.547463
	0.978000	1.608707
	0.980000	1.695738
	0.982000	1.776322
	0.984000	1.808555
	0.986000	1.805332
	0.988000	1.747311
	0.990000	1.663504
	0.992000	1.589367
	0.994000	1.550686
	0.996000	1.560356
	0.998000	1.618377
	1.000000	1.702184
	1.002000	1.785992
	1.004000	1.818225
	1.006000	1.808555
	1.008000	1.747311
	1.010000	1.666727
	1.012000	1.592590
	1.014000	1.550686
	1.016000	1.563580
	1.018000	1.628047
	1.020000	1.711854
	1.022000	1.785992
	1.024000	1.827895
	1.026000	1.818225
	1.028000	1.766651
	1.030000	1.679621
	1.032000	1.605484
	1.034000	1.563580
	1.036000	1.579697
	1.038000	1.640940
	1.040000	1.724748
	1.042000	1.798885
	1.044000	1.847235
	1.046000	1.831119
	1.048000	1.776322
	1.050000	1.692514
	1.052000	1.618377
	1.054000	1.582920
	1.056000	1.599037
	1.058000	1.650611
	1.060000	1.734418
	1.062000	1.808555
	1.064000	1.856906
	1.066000	1.844012
	1.068000	1.789215
	1.070000	1.705408
	1.072000	1.637717
	1.074000	1.599037
	1.076000	1.605484
	1.078000	1.669951
	1.080000	1.760205
	1.082000	1.827895
	1.084000	1.873022
	1.086000	1.863352
	1.088000	1.798885
	1.090000	1.727971
	1.092000	1.653834
	1.094000	1.608707
	1.096000	1.621600
	1.098000	1.679621
	1.100000	1.773098
	1.102000	1.847235
	1.104000	1.889139
	1.106000	1.873022
	1.108000	1.824672
	1.110000	1.734418
	1.112000	1.663504
	1.114000	1.631270
	1.116000	1.637717
	1.118000	1.698961
	1.120000	1.782768
	1.122000	1.856906
	1.124000	1.898809
	1.126000	1.889139
	1.128000	1.831119
	1.130000	1.744088
	1.132000	1.676397
	1.134000	1.634494
	1.136000	1.644164
	1.138000	1.708631
	1.140000	1.795662
	1.142000	1.876246
	1.144000	1.908479
	1.146000	1.902033
	1.148000	1.847235
	1.150000	1.756981
	1.152000	1.689291
	1.154000	1.644164
	1.156000	1.666727
	1.158000	1.727971
	1.160000	1.805332
	1.162000	1.889139
	1.164000	1.931043
	1.166000	1.921373
	1.168000	1.856906
	1.170000	1.773098
	1.172000	1.698961
	1.174000	1.669951
	1.176000	1.682844
	1.178000	1.750535
	1.180000	1.837565
	1.182000	1.908479
	1.184000	1.947160
	1.186000	1.937489
	1.188000	1.873022
	1.190000	1.792438
	1.192000	1.718301
	1.194000	1.689291
	1.196000	1.702184
	1.198000	1.760205
	1.200000	1.847235
	1.202000	1.921373
	1.204000	1.956830
	1.206000	1.956830
	1.208000	1.889139
	1.210000	1.808555
	1.212000	1.734418
	1.214000	1.695738
	1.216000	1.708631
	1.218000	1.769875
	1.220000	1.856906
	1.222000	1.937489
	1.224000	1.979393
	1.226000	1.966500
	1.228000	1.905256
	1.230000	1.818225
	1.232000	1.744088
	1.234000	1.705408
	1.236000	1.724748
	1.238000	1.785992
	1.240000	1.873022
	1.242000	1.943936
	1.244000	1.979393
	1.246000	1.972946
	1.248000	1.905256
	1.250000	1.824672
	1.252000	1.753758
	1.254000	1.721524
	1.256000	1.734418
	1.258000	1.798885
	1.260000	1.889139
	1.262000	1.953606
	1.264000	1.998733
	1.266000	1.976170
	1.268000	1.921373
	1.270000	1.831119
	1.272000	1.763428
	1.274000	1.724748
	1.276000	1.744088
	1.278000	1.805332
	1.280000	1.889139
	1.282000	1.960053
	1.284000	2.001957
	1.286000	1.982617
	1.288000	1.924596
	1.290000	1.837565
	1.292000	1.769875
	1.294000	1.734418
	1.296000	1.747311
	1.298000	1.811778
	1.300000	1.898809
	1.302000	1.976170
	1.304000	2.011627
	1.306000	1.998733
	1.308000	1.931043
	1.310000	1.844012
	1.312000	1.776322
	1.314000	1.737641
	1.316000	1.756981
	1.318000	1.815002
	1.320000	1.898809
	1.322000	1.985840
	1.324000	2.018073
	1.326000	2.005180
	1.328000	1.934266
	1.330000	1.853682
	1.332000	1.782768
	1.334000	1.747311
	1.336000	1.763428
	1.338000	1.824672
	1.340000	1.911703
	1.342000	1.979393
	1.344000	2.018073
	1.346000	2.005180
	1.348000	1.937489
	1.350000	1.860129
	1.352000	1.789215
	1.354000	1.753758
	1.356000	1.773098
	1.358000	1.834342
	1.360000	1.924596
	1.362000	1.995510
	1.364000	2.030967
	1.366000	2.014850
	1.368000	1.943936
	1.370000	1.866576
	1.372000	1.798885
	1.374000	1.766651
	1.376000	1.782768
	1.378000	1.844012
	1.380000	1.943936
	1.382000	2.008403
	1.384000	2.047084
	1.386000	2.034190
	1.388000	1.960053
	1.390000	1.879469
	1.392000	1.811778
	1.394000	1.776322
	1.396000	1.795662
	1.398000	1.863352
	1.400000	1.947160
	1.402000	2.014850
	1.404000	2.050307
	1.406000	2.034190
	1.408000	1.976170
	1.410000	1.889139
	1.412000	1.818225
	1.414000	1.782768
	1.416000	1.802108
	1.418000	1.866576
	1.420000	1.947160
	1.422000	2.030967
	1.424000	2.063200
	1.426000	2.040637
	1.428000	1.979393
	1.430000	1.892362
	1.432000	1.824672
	1.434000	1.795662
	1.436000	1.811778
	1.438000	1.882692
	1.440000	1.960053
	1.442000	2.037414
	1.444000	2.076094
	1.446000	2.053530
	1.448000	1.985840
	1.450000	1.908479
	1.452000	1.831119
	1.454000	1.805332
	1.456000	1.818225
	1.458000	1.885916
	1.460000	1.972946
	1.462000	2.043860
	1.464000	2.072871
	1.466000	2.059977
	1.468000	1.992287
	1.470000	1.911703
	1.472000	1.837565
	1.474000	1.808555
	1.476000	1.827895
	1.478000	1.889139
	1.480000	1.979393
	1.482000	2.053530
	1.484000	2.088987
	1.486000	2.066424
	1.488000	2.001957
	1.490000	1.914926
	1.492000	1.850459
	1.494000	1.821449
	1.496000	1.834342
	1.498000	1.905256
	1.500000	1.995510
	1.502000	2.059977
	1.504000	2.095434
	1.506000	2.079317
	1.508000	2.014850
	1.510000	1.927819
	1.512000	1.856906
	1.514000	1.827895
	1.516000	1.847235
	1.518000	1.914926
	1.520000	2.001957
	1.522000	2.076094
	1.524000	2.108328
	1.526000	2.082541
	1.528000	2.021297
	1.530000	1.937489
	1.532000	1.873022
	1.534000	1.831119
	1.536000	1.856906
	1.538000	1.924596
	1.540000	2.008403
	1.542000	2.082541
	1.544000	2.114774
	1.546000	2.092211
	1.548000	2.024520
	1.550000	1.943936
	1.552000	1.869799
	1.554000	1.844012
	1.556000	1.866576
	1.558000	1.934266
	1.560000	2.011627
	1.562000	2.088987
	1.564000	2.114774
	1.566000	2.105104
	1.568000	2.034190
	1.570000	1.947160
	1.572000	1.876246
	1.574000	1.850459
	1.576000	1.873022
	1.578000	1.937489
	1.580000	2.024520
	1.582000	2.088987
	1.584000	2.124444
	1.586000	2.105104
	1.588000	2.030967
	1.590000	1.953606
	1.592000	1.882692
	1.594000	1.850459
	1.596000	1.873022
	1.598000	1.943936
	1.600000	2.030967
	1.602000	2.098657
	1.604000	2.130891
	1.606000	2.111551
	1.608000	2.043860
	1.610000	1.953606
	1.612000	1.895586
	1.614000	1.863352
	1.616000	1.879469
	1.618000	1.956830
	1.620000	2.040637
	1.622000	2.114774
	1.624000	2.140561
	1.626000	2.124444
	1.628000	2.053530
	1.630000	1.963276
	1.632000	1.895586
	1.634000	1.866576
	1.636000	1.895586
	1.638000	1.963276
	1.640000	2.047084
	1.642000	2.114774
	1.644000	2.140561
	1.646000	2.134114
	1.648000	2.050307
	1.650000	1.969723
	1.652000	1.905256
	1.654000	1.879469
	1.656000	1.908479
	1.658000	1.976170
	1.660000	2.059977
	1.662000	2.127668
	1.664000	2.156678
	1.666000	2.134114
	1.668000	2.066424
	1.670000	1.979393
	1.672000	1.911703
	1.674000	1.885916
	1.676000	1.911703
	1.678000	1.979393
	1.680000	2.059977
	1.682000	2.130891
	1.684000	2.166348
	1.686000	2.143784
	1.688000	2.069647
	1.690000	1.985840
	1.692000	1.918149
	1.694000	1.889139
	1.696000	1.908479
	1.698000	1.982617
	1.700000	2.066424
	1.702000	2.130891
	1.704000	2.163125
	1.706000	2.140561
	1.708000	2.072871
	1.710000	1.982617
	1.712000	1.911703
	1.714000	1.895586
	1.716000	1.908479
	1.718000	1.985840
	1.720000	2.069647
	1.722000	2.143784
	1.724000	2.166348
	1.726000	2.153455
	1.728000	2.076094
	1.730000	1.995510
	1.732000	1.921373
	1.734000	1.892362
	1.736000	1.918149
	1.738000	1.989063
	1.740000	2.076094
	1.742000	2.147008
	1.744000	2.169571
	1.746000	2.153455
	1.748000	2.076094
	1.750000	1.989063
	1.752000	1.927819
	1.754000	1.898809
	1.756000	1.924596
	1.758000	1.995510
	1.760000	2.082541
	1.762000	2.150231
	1.764000	2.185688
	1.766000	2.153455
	1.768000	2.085764
	1.770000	1.998733
	1.772000	1.934266
	1.774000	1.911703
	1.776000	1.927819
	1.778000	2.001957
	1.780000	2.092211
	1.782000	2.153455
	1.784000	2.185688
	1.786000	2.163125
	1.788000	2.088987
	1.790000	1.998733
	1.792000	1.947160
	1.794000	1.914926
	1.796000	1.937489
	1.798000	2.014850
	1.800000	2.098657
	1.802000	2.163125
	1.804000	2.198582
	1.806000	2.172795
	1.808000	2.111551
	1.810000	2.014850
	1.812000	1.953606
	1.814000	1.927819
	1.816000	1.953606
	1.818000	2.024520
	1.820000	2.121221
	1.822000	2.185688
	1.824000	2.211475
	1.826000	2.188911
	1.828000	2.114774
	1.830000	2.027744
	1.832000	1.966500
	1.834000	1.940713
	1.836000	1.960053
	1.838000	2.034190
	1.840000	2.124444
	1.842000	2.188911
	1.844000	2.217922
	1.846000	2.195358
	1.848000	2.117998
	1.850000	2.037414
	1.852000	1.966500
	1.854000	1.947160
	1.856000	1.972946
	1.858000	2.043860
	1.860000	2.130891
	1.862000	2.201805
	1.864000	2.224368
	1.866000	2.201805
	1.868000	2.130891
	1.870000	2.050307
	1.872000	1.985840
	1.874000	1.960053
	1.876000	1.989063
	1.878000	2.056754
	1.880000	2.147008
	1.882000	2.217922
	1.884000	2.237262
	1.886000	2.217922
	1.888000	2.147008
	1.890000	2.053530
	1.892000	1.995510
	1.894000	1.969723
	1.896000	1.995510
	1.898000	2.076094
	1.900000	2.163125
	1.902000	2.227592
	1.904000	2.253379
	1.906000	2.230815
	1.908000	2.156678
	1.910000	2.069647
	1.912000	2.005180
	1.914000	1.982617
	1.916000	2.011627
	1.918000	2.085764
	1.920000	2.169571
	1.922000	2.237262
	1.924000	2.263049
	1.926000	2.237262
	1.928000	2.159901
	1.930000	2.076094
	1.932000	2.014850
	1.934000	1.989063
	1.936000	2.018073
	1.938000	2.088987
	1.940000	2.176018
	1.942000	2.237262
	1.944000	2.266272
	1.946000	2.234039
	1.948000	2.159901
	1.950000	2.079317
	1.952000	2.005180
	1.954000	1.989063
	1.956000	2.014850
	1.958000	2.092211
	1.960000	2.176018
	1.962000	2.237262
	1.964000	2.269495
	1.966000	2.237262
	1.968000	2.166348
	1.970000	2.076094
	1.972000	2.005180
	1.974000	1.989063
	1.976000	2.018073
	1.978000	2.092211
	1.980000	2.179241
	1.982000	2.243709
	1.984000	2.266272
	1.986000	2.237262
	1.988000	2.159901
	1.990000	2.079317
	1.992000	2.014850
	1.994000	1.995510
	1.996000	2.021297
	1.998000	2.095434
	2.000000	2.182465
	2.002000	2.246932
	2.004000	2.269495
	2.006000	2.243709
	2.008000	2.166348
	2.010000	2.082541
	2.012000	2.021297
	2.014000	2.001957
	2.016000	2.024520
	2.018000	2.105104
	2.020000	2.188911
	2.022000	2.256602
	2.024000	2.285612
	2.026000	2.253379
	2.028000	2.179241
	2.030000	2.092211
	2.032000	2.027744
	2.034000	2.008403
	2.036000	2.034190
	2.038000	2.114774
	2.040000	2.198582
	2.042000	2.253379
	2.044000	2.282389
	2.046000	2.256602
	2.048000	2.182465
	2.050000	2.095434
	2.052000	2.030967
	2.054000	2.008403
	2.056000	2.037414
	2.058000	2.117998
	2.060000	2.198582
	2.062000	2.263049
	2.064000	2.292059
	2.066000	2.259825
	2.068000	2.179241
	2.070000	2.101881
	2.072000	2.037414
	2.074000	2.014850
	2.076000	2.047084
	2.078000	2.117998
	2.080000	2.211475
	2.082000	2.272719
	2.084000	2.292059
	2.086000	2.266272
	2.088000	2.188911
	2.090000	2.108328
	2.092000	2.043860
	2.094000	2.021297
	2.096000	2.053530
	2.098000	2.124444
	2.100000	2.208252
	2.102000	2.275942
	2.104000	2.295282
	2.106000	2.269495
	2.108000	2.192135
	2.110000	2.105104
	2.112000	2.047084
	2.114000	2.024520
	2.116000	2.053530
	2.118000	2.127668
	2.120000	2.214698
	2.122000	2.285612
	2.124000	2.298506
	2.126000	2.272719
	2.128000	2.195358
	2.130000	2.121221
	2.132000	2.053530
	2.134000	2.030967
	2.136000	2.063200
	2.138000	2.137338
	2.140000	2.224368
	2.142000	2.285612
	2.144000	2.311399
	2.146000	2.282389
	2.148000	2.205028
	2.150000	2.121221
	2.152000	2.053530
	2.154000	2.034190
	2.156000	2.066424
	2.158000	2.147008
	2.160000	2.230815
	2.162000	2.292059
	2.164000	2.321069
	2.166000	2.292059
	2.168000	2.211475
	2.170000	2.121221
	2.172000	2.059977
	2.174000	2.043860
	2.176000	2.069647
	2.178000	2.153455
	2.180000	2.237262
	2.182000	2.301729
	2.184000	2.324293
	2.186000	2.292059
	2.188000	2.217922
	2.190000	2.127668
	2.192000	2.069647
	2.194000	2.050307
	2.196000	2.082541
	2.198000	2.163125
	2.200000	2.240485
	2.202000	2.311399
	2.204000	2.330739
	2.206000	2.308176
	2.208000	2.217922
	2.210000	2.140561
	2.212000	2.079317
	2.214000	2.053530
	2.216000	2.092211
	2.218000	2.172795
	2.220000	2.253379
	2.222000	2.317846
	2.224000	2.343633
	2.226000	2.308176
	2.228000	2.230815
	2.230000	2.147008
	2.232000	2.082541
	2.234000	2.069647
	2.236000	2.101881
	2.238000	2.182465
	2.240000	2.269495
	2.242000	2.330739
	2.244000	2.353303
	2.246000	2.317846
	2.248000	2.237262
	2.250000	2.150231
	2.252000	2.095434
	2.254000	2.085764
	2.256000	2.111551
	2.258000	2.185688
	2.260000	2.275942
	2.262000	2.340409
	2.264000	2.356526
	2.266000	2.324293
	2.268000	2.250155
	2.270000	2.159901
	2.272000	2.105104
	2.274000	2.088987
	2.276000	2.114774
	2.278000	2.198582
	2.280000	2.282389
	2.282000	2.350079
	2.284000	2.366196
	2.286000	2.330739
	2.288000	2.256602
	2.290000	2.176018
	2.292000	2.111551
	2.294000	2.095434
	2.296000	2.124444
	2.298000	2.201805
	2.300000	2.288836
	2.302000	2.356526
	2.304000	2.372643
	2.306000	2.346856
	2.308000	2.263049
	2.310000	2.176018
	2.312000	2.114774
	2.314000	2.101881
	2.316000	2.134114
	2.318000	2.217922
	2.320000	2.304952
	2.322000	2.366196
	2.324000	2.379090
	2.326000	2.353303
	2.328000	2.275942
	2.330000	2.185688
	2.332000	2.134114
	2.334000	2.111551
	2.336000	2.137338
	2.338000	2.224368
	2.340000	2.308176
	2.342000	2.369420
	2.344000	2.391983
	2.346000	2.366196
	2.348000	2.285612
	2.350000	2.205028
	2.352000	2.140561
	2.354000	2.121221
	2.356000	2.150231
	2.358000	2.237262
	2.360000	2.321069
	2.362000	2.379090
	2.364000	2.395206
	2.366000	2.362973
	2.368000	2.282389
	2.370000	2.201805
	2.372000	2.140561
	2.374000	2.124444
	2.376000	2.159901
	2.378000	2.243709
	2.380000	2.330739
	2.382000	2.391983
	2.384000	2.404877
	2.386000	2.379090
	2.388000	2.295282
	2.390000	2.211475
	2.392000	2.153455
	2.394000	2.137338
	2.396000	2.163125
	2.398000	2.246932
	2.400000	2.333963
	2.402000	2.395206
	2.404000	2.408100
	2.406000	2.385536
	2.408000	2.298506
	2.410000	2.217922
	2.412000	2.159901
	2.414000	2.140561
	2.416000	2.182465
	2.418000	2.259825
	2.420000	2.346856
	2.422000	2.408100
	2.424000	2.430663
	2.426000	2.388760
	2.428000	2.317846
	2.430000	2.221145
	2.432000	2.163125
	2.434000	2.156678
	2.436000	2.182465
	2.438000	2.266272
	2.440000	2.353303
	2.442000	2.414547
	2.444000	2.430663
	2.446000	2.401653
	2.448000	2.321069
	2.450000	2.234039
	2.452000	2.176018
	2.454000	2.159901
	2.456000	2.192135
	2.458000	2.275942
	2.460000	2.359750
	2.462000	2.417770
	2.464000	2.433887
	2.466000	2.404877
	2.468000	2.321069
	2.470000	2.237262
	2.472000	2.182465
	2.474000	2.166348
	2.476000	2.205028
	2.478000	2.279166
	2.480000	2.362973
	2.482000	2.424217
	2.484000	2.443557
	2.486000	2.411323
	2.488000	2.330739
	2.490000	2.243709
	2.492000	2.182465
	2.494000	2.166348
	2.496000	2.201805
	2.498000	2.285612
	2.500000	2.372643
	2.502000	2.430663
	2.504000	2.443557
	2.506000	2.411323
	2.508000	2.327516
	2.510000	2.246932
	2.512000	2.182465
	2.514000	2.172795
	2.516000	2.208252
	2.518000	2.295282
	2.520000	2.379090
	2.522000	2.437110
	2.524000	2.453227
	2.526000	2.424217
	2.528000	2.343633
	2.530000	2.256602
	2.532000	2.195358
	2.534000	2.188911
	2.536000	2.227592
	2.538000	2.308176
	2.540000	2.401653
	2.542000	2.450004
	2.544000	2.475790
	2.546000	2.437110
	2.548000	2.356526
	2.550000	2.263049
	2.552000	2.208252
	2.554000	2.195358
	2.556000	2.237262
	2.558000	2.324293
	2.560000	2.414547
	2.562000	2.469344
	2.564000	2.482237
	2.566000	2.450004
	2.568000	2.366196
	2.570000	2.279166
	2.572000	2.224368
	2.574000	2.211475
	2.576000	2.250155
	2.578000	2.337186
	2.580000	2.417770
	2.582000	2.475790
	2.584000	2.491907
	2.586000	2.459674
	2.588000	2.379090
	2.590000	2.288836
	2.592000	2.234039
	2.594000	2.217922
	2.596000	2.263049
	2.598000	2.340409
	2.600000	2.430663
	2.602000	2.488684
	2.604000	2.501577
	2.606000	2.466120
	2.608000	2.375866
	2.610000	2.288836
	2.612000	2.234039
	2.614000	2.224368
	2.616000	2.263049
	2.618000	2.350079
	2.620000	2.433887
	2.622000	2.488684
	2.624000	2.501577
	2.626000	2.466120
	2.628000	2.382313
	2.630000	2.298506
	2.632000	2.246932
	2.634000	2.240485
	2.636000	2.269495
	2.638000	2.353303
	2.640000	2.437110
	2.642000	2.495131
	2.644000	2.514471
	2.646000	2.469344
	2.648000	2.385536
	2.650000	2.298506
	2.652000	2.246932
	2.654000	2.240485
	2.656000	2.272719
	2.658000	2.356526
	2.660000	2.446780
	2.662000	2.504801
	2.664000	2.511247
	2.666000	2.475790
	2.668000	2.395206
	2.670000	2.308176
	2.672000	2.256602
	2.674000	2.240485
	2.676000	2.279166
	2.678000	2.366196
	2.680000	2.453227
	2.682000	2.504801
	2.684000	2.520917
	2.686000	2.482237
	2.688000	2.391983
	2.690000	2.317846
	2.692000	2.259825
	2.694000	2.243709
	2.696000	2.285612
	2.698000	2.369420
	2.700000	2.459674
	2.702000	2.514471
	2.704000	2.520917
	2.706000	2.488684
	2.708000	2.404877
	2.710000	2.314622
	2.712000	2.259825
	2.714000	2.250155
	2.716000	2.285612
	2.718000	2.372643
	2.720000	2.456450
	2.722000	2.517694
	2.724000	2.527364
	2.726000	2.485461
	2.728000	2.401653
	2.730000	2.321069
	2.732000	2.263049
	2.734000	2.253379
	2.736000	2.295282
	2.738000	2.379090
	2.740000	2.462897
	2.742000	2.520917
	2.744000	2.533811
	2.746000	2.485461
	2.748000	2.404877
	2.750000	2.321069
	2.752000	2.263049
	2.754000	2.253379
	2.756000	2.292059
	2.758000	2.385536
	2.760000	2.466120
	2.762000	2.524141
	2.764000	2.527364
	2.766000	2.495131
	2.768000	2.401653
	2.770000	2.327516
	2.772000	2.266272
	2.774000	2.253379
	2.776000	2.301729
	2.778000	2.388760
	2.780000	2.466120
	2.782000	2.527364
	2.784000	2.537034
	2.786000	2.495131
	2.788000	2.411323
	2.790000	2.333963
	2.792000	2.275942
	2.794000	2.269495
	2.796000	2.311399
	2.798000	2.398430
	2.800000	2.479014
	2.802000	2.533811
	2.804000	2.540258
	2.806000	2.501577
	2.808000	2.420993
	2.810000	2.330739
	2.812000	2.275942
	2.814000	2.269495
	2.816000	2.314622
	2.818000	2.395206
	2.820000	2.479014
	2.822000	2.537034
	2.824000	2.543481
	2.826000	2.501577
	2.828000	2.420993
	2.830000	2.337186
	2.832000	2.279166
	2.834000	2.272719
	2.836000	2.314622
	2.838000	2.395206
	2.840000	2.482237
	2.842000	2.543481
	2.844000	2.543481
	2.846000	2.504801
	2.848000	2.420993
	2.850000	2.333963
	2.852000	2.285612
	2.854000	2.272719
	2.856000	2.317846
	2.858000	2.401653
	2.860000	2.491907
	2.862000	2.543481
	2.864000	2.553151
	2.866000	2.504801
	2.868000	2.424217
	2.870000	2.340409
	2.872000	2.288836
	2.874000	2.279166
	2.876000	2.317846
	2.878000	2.401653
	2.880000	2.491907
	2.882000	2.546704
	2.884000	2.549928
	2.886000	2.511247
	2.888000	2.427440
	2.890000	2.340409
	2.892000	2.282389
	2.894000	2.279166
	2.896000	2.321069
	2.898000	2.411323
	2.900000	2.485461
	2.902000	2.540258
	2.904000	2.546704
	2.906000	2.511247
	2.908000	2.420993
	2.910000	2.337186
	2.912000	2.285612
	2.914000	2.285612
	2.916000	2.321069
	2.918000	2.411323
	2.920000	2.488684
	2.922000	2.543481
	2.924000	2.549928
	2.926000	2.511247
	2.928000	2.424217
	2.930000	2.340409
	2.932000	2.285612
	2.934000	2.282389
	2.936000	2.327516
	2.938000	2.408100
	2.940000	2.491907
	2.942000	2.546704
	2.944000	2.549928
	2.946000	2.514471
	2.948000	2.424217
	2.950000	2.340409
	2.952000	2.295282
	2.954000	2.282389
	2.956000	2.324293
	2.958000	2.414547
	2.960000	2.495131
	2.962000	2.543481
	2.964000	2.556374
	2.966000	2.511247
	2.968000	2.424217
	2.970000	2.346856
	2.972000	2.288836
	2.974000	2.282389
	2.976000	2.321069
	2.978000	2.411323
	2.980000	2.491907
	2.982000	2.546704
	2.984000	2.549928
	2.986000	2.511247
	2.988000	2.424217
	2.990000	2.340409
	2.992000	2.292059
	2.994000	2.285612
	2.996000	2.330739
	2.998000	2.417770
	3.000000	2.501577
	3.002000	2.556374
	3.004000	2.549928
	3.006000	2.514471
	3.008000	2.427440
	3.010000	2.346856
	3.012000	2.288836
	3.014000	2.288836
	3.016000	2.333963
	3.018000	2.424217
	3.020000	2.504801
	3.022000	2.559598
	3.024000	2.566044
	3.026000	2.514471
	3.028000	2.427440
	3.030000	2.350079
	3.032000	2.295282
	3.034000	2.288836
	3.036000	2.330739
	3.038000	2.417770
	3.040000	2.504801
	3.042000	2.549928
	3.044000	2.562821
	3.046000	2.511247
	3.048000	2.424217
	3.050000	2.337186
	3.052000	2.292059
	3.054000	2.288836
	3.056000	2.333963
	3.058000	2.420993
	3.060000	2.498354
	3.062000	2.553151
	3.064000	2.556374
	3.066000	2.517694
	3.068000	2.427440
	3.070000	2.350079
	3.072000	2.301729
	3.074000	2.298506
	3.076000	2.350079
	3.078000	2.424217
	3.080000	2.504801
	3.082000	2.556374
	3.084000	2.562821
	3.086000	2.520917
	3.088000	2.433887
	3.090000	2.353303
	3.092000	2.304952
	3.094000	2.298506
	3.096000	2.346856
	3.098000	2.437110
	3.100000	2.508024
	3.102000	2.566044
	3.104000	2.572491
	3.106000	2.520917
	3.108000	2.433887
	3.110000	2.362973
	3.112000	2.304952
	3.114000	2.301729
	3.116000	2.353303
	3.118000	2.433887
	3.120000	2.508024
	3.122000	2.569268
	3.124000	2.575715
	3.126000	2.524141
	3.128000	2.443557
	3.130000	2.356526
	3.132000	2.304952
	3.134000	2.308176
	3.136000	2.353303
	3.138000	2.440333
	3.140000	2.520917
	3.142000	2.569268
	3.144000	2.566044
	3.146000	2.527364
	3.148000	2.440333
	3.150000	2.353303
	3.152000	2.304952
	3.154000	2.301729
	3.156000	2.359750
	3.158000	2.443557
	3.160000	2.520917
	3.162000	2.569268
	3.164000	2.562821
	3.166000	2.527364
	3.168000	2.440333
	3.170000	2.362973
	3.172000	2.311399
	3.174000	2.314622
	3.176000	2.359750
	3.178000	2.450004
	3.180000	2.527364
	3.182000	2.578938
	3.184000	2.578938
	3.186000	2.537034
	3.188000	2.450004
	3.190000	2.369420
	3.192000	2.314622
	3.194000	2.314622
	3.196000	2.366196
	3.198000	2.459674
	3.200000	2.533811
	3.202000	2.585385
	3.204000	2.585385
	3.206000	2.537034
	3.208000	2.453227
	3.210000	2.375866
	3.212000	2.330739
	3.214000	2.327516
	3.216000	2.375866
	3.218000	2.459674
	3.220000	2.537034
	3.222000	2.585385
	3.224000	2.591831
	3.226000	2.540258
	3.228000	2.459674
	3.230000	2.379090
	3.232000	2.337186
	3.234000	2.333963
	3.236000	2.388760
	3.238000	2.475790
	3.240000	2.549928
	3.242000	2.604725
	3.244000	2.601501
	3.246000	2.546704
	3.248000	2.466120
	3.250000	2.385536
	3.252000	2.340409
	3.254000	2.337186
	3.256000	2.385536
	3.258000	2.475790
	3.260000	2.556374
	3.262000	2.604725
	3.264000	2.601501
	3.266000	2.556374
	3.268000	2.475790
	3.270000	2.391983
	3.272000	2.346856
	3.274000	2.343633
	3.276000	2.401653
	3.278000	2.485461
	3.280000	2.566044
	3.282000	2.611172
	3.284000	2.614395
	3.286000	2.572491
	3.288000	2.488684
	3.290000	2.404877
	3.292000	2.362973
	3.294000	2.356526
	3.296000	2.411323
	3.298000	2.501577
	3.300000	2.578938
	3.302000	2.627288
	3.304000	2.630512
	3.306000	2.575715
	3.308000	2.498354
	3.310000	2.414547
	3.312000	2.369420
	3.314000	2.366196
	3.316000	2.427440
	3.318000	2.504801
	3.320000	2.585385
	3.322000	2.636958
	3.324000	2.636958
	3.326000	2.595055
	3.328000	2.508024
	3.330000	2.424217
	3.332000	2.382313
	3.334000	2.385536
	3.336000	2.433887
	3.338000	2.524141
	3.340000	2.598278
	3.342000	2.646628
	3.344000	2.646628
	3.346000	2.595055
	3.348000	2.508024
	3.350000	2.430663
	3.352000	2.382313
	3.354000	2.391983
	3.356000	2.437110
	3.358000	2.530588
	3.360000	2.601501
	3.362000	2.653075
	3.364000	2.649852
	3.366000	2.591831
	3.368000	2.514471
	3.370000	2.430663
	3.372000	2.382313
	3.374000	2.388760
	3.376000	2.440333
	3.378000	2.524141
	3.380000	2.601501
	3.382000	2.649852
	3.384000	2.643405
	3.386000	2.595055
	3.388000	2.508024
	3.390000	2.424217
	3.392000	2.379090
	3.394000	2.385536
	3.396000	2.433887
	3.398000	2.514471
	3.400000	2.591831
	3.402000	2.636958
	3.404000	2.636958
	3.406000	2.582161
	3.408000	2.495131
	3.410000	2.414547
	3.412000	2.372643
	3.414000	2.372643
	3.416000	2.424217
	3.418000	2.508024
	3.420000	2.582161
	3.422000	2.624065
	3.424000	2.620842
	3.426000	2.569268
	3.428000	2.485461
	3.430000	2.404877
	3.432000	2.366196
	3.434000	2.362973
	3.436000	2.414547
	3.438000	2.495131
	3.440000	2.572491
	3.442000	2.624065
	3.444000	2.617618
	3.446000	2.562821
	3.448000	2.479014
	3.450000	2.401653
	3.452000	2.353303
	3.454000	2.359750
	3.456000	2.411323
	3.458000	2.495131
	3.460000	2.572491
	3.462000	2.617618
	3.464000	2.611172
	3.466000	2.559598
	3.468000	2.479014
	3.470000	2.398430
	3.472000	2.356526
	3.474000	2.356526
	3.476000	2.411323
	3.478000	2.498354
	3.480000	2.562821
	3.482000	2.614395
	3.484000	2.607948
	3.486000	2.556374
	3.488000	2.469344
	3.490000	2.401653
	3.492000	2.353303
	3.494000	2.356526
	3.496000	2.411323
	3.498000	2.501577
	3.500000	2.575715
	3.502000	2.617618
	3.504000	2.611172
	3.506000	2.556374
	3.508000	2.475790
	3.510000	2.398430
	3.512000	2.350079
	3.514000	2.356526
	3.516000	2.411323
	3.518000	2.501577
	3.520000	2.582161
	3.522000	2.624065
	3.524000	2.624065
	3.526000	2.566044
	3.528000	2.475790
	3.530000	2.401653
	3.532000	2.353303
	3.534000	2.366196
	3.536000	2.420993
	3.538000	2.508024
	3.540000	2.585385
	3.542000	2.633735
	3.544000	2.627288
	3.546000	2.566044
	3.548000	2.488684
	3.550000	2.411323
	3.552000	2.372643
	3.554000	2.375866
	3.556000	2.433887
	3.558000	2.520917
	3.560000	2.604725
	3.562000	2.643405
	3.564000	2.640182
	3.566000	2.582161
	3.568000	2.498354
	3.570000	2.430663
	3.572000	2.385536
	3.574000	2.391983
	3.576000	2.443557
	3.578000	2.537034
	3.580000	2.604725
	3.582000	2.649852
	3.584000	2.646628
	3.586000	2.595055
	3.588000	2.511247
	3.590000	2.430663
	3.592000	2.391983
	3.594000	2.395206
	3.596000	2.459674
	3.598000	2.540258
	3.600000	2.620842
	3.602000	2.662745
	3.604000	2.656299
	3.606000	2.598278
	3.608000	2.508024
	3.610000	2.443557
	3.612000	2.398430
	3.614000	2.404877
	3.616000	2.466120
	3.618000	2.543481
	3.620000	2.624065
	3.622000	2.665969
	3.624000	2.662745
	3.626000	2.607948
	3.628000	2.520917
	3.630000	2.450004
	3.632000	2.404877
	3.634000	2.414547
	3.636000	2.472567
	3.638000	2.549928
	3.640000	2.627288
	3.642000	2.669192
	3.644000	2.662745
	3.646000	2.601501
	3.648000	2.517694
	3.650000	2.446780
	3.652000	2.404877
	3.654000	2.411323
	3.656000	2.459674
	3.658000	2.543481
	3.660000	2.624065
	3.662000	2.669192
	3.664000	2.669192
	3.666000	2.604725
	3.668000	2.514471
	3.670000	2.437110
	3.672000	2.388760
	3.674000	2.391983
	3.676000	2.450004
	3.678000	2.540258
	3.680000	2.607948
	3.682000	2.653075
	3.684000	2.640182
	3.686000	2.585385
	3.688000	2.491907
	3.690000	2.417770
	3.692000	2.369420
	3.694000	2.379090
	3.696000	2.430663
	3.698000	2.511247
	3.700000	2.582161
	3.702000	2.627288
	3.704000	2.614395
	3.706000	2.556374
	3.708000	2.469344
	3.710000	2.388760
	3.712000	2.346856
	3.714000	2.353303
	3.716000	2.404877
	3.718000	2.488684
	3.720000	2.566044
	3.722000	2.601501
	3.724000	2.598278
	3.726000	2.537034
	3.728000	2.446780
	3.730000	2.372643
	3.732000	2.321069
	3.734000	2.327516
	3.736000	2.388760
	3.738000	2.479014
	3.740000	2.546704
	3.742000	2.595055
	3.744000	2.591831
	3.746000	2.540258
	3.748000	2.459674
	3.750000	2.391983
	3.752000	2.346856
	3.754000	2.366196
	3.756000	2.420993
	3.758000	2.511247
	3.760000	2.595055
	3.762000	2.646628
	3.764000	2.643405
	3.766000	2.598278
	3.768000	2.520917
	3.770000	2.453227
	3.772000	2.424217
	3.774000	2.440333
	3.776000	2.501577
	3.778000	2.595055
	3.780000	2.688532
	3.782000	2.733659
	3.784000	2.746553
	3.786000	2.691755
	3.788000	2.630512
	3.790000	2.556374
	3.792000	2.533811
	3.794000	2.543481
	3.796000	2.617618
	3.798000	2.701426
	3.800000	2.798126
	3.802000	2.852923
	3.804000	2.856147
	3.806000	2.817466
	3.808000	2.746553
	3.810000	2.685309
	3.812000	2.649852
	3.814000	2.665969
	3.816000	2.733659
	3.818000	2.827137
	3.820000	2.917391
	3.822000	2.965741
	3.824000	2.972188
	3.826000	2.927061
	3.828000	2.846477
	3.830000	2.782010
	3.832000	2.749776
	3.834000	2.765893
	3.836000	2.830360
	3.838000	2.914167
	3.840000	3.004421
	3.842000	3.055995
	3.844000	3.062442
	3.846000	3.010868
	3.848000	2.933507
	3.850000	2.869040
	3.852000	2.823913
	3.854000	2.833583
	3.856000	2.898050
	3.858000	2.991528
	3.860000	3.072112
	3.862000	3.120462
	3.864000	3.123686
	3.866000	3.062442
	3.868000	2.991528
	3.870000	2.917391
	3.872000	2.881934
	3.874000	2.894827
	3.876000	2.946401
	3.878000	3.036655
	3.880000	3.117239
	3.882000	3.165589
	3.884000	3.168813
	3.886000	3.114016
	3.888000	3.033432
	3.890000	2.959294
	3.892000	2.920614
	3.894000	2.927061
	3.896000	2.985081
	3.898000	3.072112
	3.900000	3.152696
	3.902000	3.197823
	3.904000	3.197823
	3.906000	3.143026
	3.908000	3.052772
	3.910000	2.985081
	3.912000	2.946401
	3.914000	2.952848
	3.916000	3.010868
	3.918000	3.101122
	3.920000	3.175259
	3.922000	3.217163
	3.924000	3.213940
	3.926000	3.165589
	3.928000	3.078559
	3.930000	3.007645
	3.932000	2.962518
	3.934000	2.972188
	3.936000	3.026985
	3.938000	3.117239
	3.940000	3.191376
	3.942000	3.236503
	3.944000	3.233280
	3.946000	3.172036
	3.948000	3.088229
	3.950000	3.017315
	3.952000	2.972188
	3.954000	2.981858
	3.956000	3.039878
	3.958000	3.120462
	3.960000	3.201046
	3.962000	3.239726
	3.964000	3.239726
	3.966000	3.184929
	3.968000	3.097899
	3.970000	3.023761
	3.972000	2.981858
	3.974000	2.985081
	3.976000	3.043102
	3.978000	3.126909
	3.980000	3.204270
	3.982000	3.242950
	3.984000	3.242950
	3.986000	3.184929
	3.988000	3.097899
	3.990000	3.026985
	3.992000	2.985081
	3.994000	2.991528
	3.996000	3.043102
	3.998000	3.133356
	4.000000	3.204270
	4.002000	3.252620
	4.004000	3.249397
	4.006000	3.188153
	4.008000	3.107569
	4.010000	3.033432
	4.012000	2.981858
	4.014000	2.991528
	4.016000	3.046325
	4.018000	3.126909
	4.020000	3.210716
	4.022000	3.252620
	4.024000	3.242950
	4.026000	3.181706
	4.028000	3.097899
	4.030000	3.030208
	4.032000	2.988305
	4.034000	2.988305
	4.036000	3.043102
	4.038000	3.126909
	4.040000	3.201046
	4.042000	3.242950
	4.044000	3.239726
	4.046000	3.184929
	4.048000	3.101122
	4.050000	3.023761
	4.052000	2.978634
	4.054000	2.981858
	4.056000	3.039878
	4.058000	3.120462
	4.060000	3.191376
	4.062000	3.236503
	4.064000	3.230056
	4.066000	3.168813
	4.068000	3.081782
	4.070000	3.014091
	4.072000	2.968964
	4.074000	2.972188
	4.076000	3.026985
	4.078000	3.114016
	4.080000	3.191376
	4.082000	3.236503
	4.084000	3.233280
	4.086000	3.165589
	4.088000	3.085005
	4.090000	3.004421
	4.092000	2.959294
	4.094000	2.965741
	4.096000	3.023761
	4.098000	3.110792
	4.100000	3.178483
	4.102000	3.223610
	4.104000	3.213940
	4.106000	3.159143
	4.108000	3.072112
	4.110000	2.997975
	4.112000	2.952848
	4.114000	2.959294
	4.116000	3.020538
	4.118000	3.104345
	4.120000	3.178483
	4.122000	3.220386
	4.124000	3.217163
	4.126000	3.152696
	4.128000	3.065665
	4.130000	2.991528
	4.132000	2.956071
	4.134000	2.956071
	4.136000	3.020538
	4.138000	3.094675
	4.140000	3.172036
	4.142000	3.213940
	4.144000	3.210716
	4.146000	3.152696
	4.148000	3.065665
	4.150000	2.981858
	4.152000	2.939954
	4.154000	2.943177
	4.156000	3.010868
	4.158000	3.091452
	4.160000	3.162366
	4.162000	3.204270
	4.164000	3.197823
	4.166000	3.130132
	4.168000	3.052772
	4.170000	2.978634
	4.172000	2.930284
	4.174000	2.939954
	4.176000	2.994751
	4.178000	3.075335
	4.180000	3.149472
	4.182000	3.191376
	4.184000	3.175259
	4.186000	3.120462
	4.188000	3.033432
	4.190000	2.959294
	4.192000	2.917391
	4.194000	2.923837
	4.196000	2.975411
	4.198000	3.068888
	4.200000	3.136579
	4.202000	3.175259
	4.204000	3.168813
	4.206000	3.104345
	4.208000	3.017315
	4.210000	2.943177
	4.212000	2.904497
	4.214000	2.907721
	4.216000	2.965741
	4.218000	3.049548
	4.220000	3.126909
	4.222000	3.159143
	4.224000	3.146249
	4.226000	3.085005
	4.228000	3.004421
	4.230000	2.930284
	4.232000	2.888380
	4.234000	2.898050
	4.236000	2.946401
	4.238000	3.033432
	4.240000	3.107569
	4.242000	3.149472
	4.244000	3.133356
	4.246000	3.075335
	4.248000	2.988305
	4.250000	2.917391
	4.252000	2.875487
	4.254000	2.875487
	4.256000	2.936731
	4.258000	3.020538
	4.260000	3.094675
	4.262000	3.133356
	4.264000	3.120462
	4.266000	3.052772
	4.268000	2.968964
	4.270000	2.894827
	4.272000	2.856147
	4.274000	2.856147
	4.276000	2.917391
	4.278000	2.991528
	4.280000	3.062442
	4.282000	3.101122
	4.284000	3.091452
	4.286000	3.030208
	4.288000	2.939954
	4.290000	2.859370
	4.292000	2.823913
	4.294000	2.823913
	4.296000	2.881934
	4.298000	2.962518
	4.300000	3.033432
	4.302000	3.065665
	4.304000	3.055995
	4.306000	2.988305
	4.308000	2.910944
	4.310000	2.823913
	4.312000	2.778786
	4.314000	2.788456
	4.316000	2.846477
	4.318000	2.927061
	4.320000	2.997975
	4.322000	3.033432
	4.324000	3.017315
	4.326000	2.949624
	4.328000	2.869040
	4.330000	2.785233
	4.332000	2.746553
	4.334000	2.752999
	4.336000	2.814243
	4.338000	2.901274
	4.340000	2.965741
	4.342000	3.004421
	4.344000	2.985081
	4.346000	2.917391
	4.348000	2.833583
	4.350000	2.759446
	4.352000	2.717542
	4.354000	2.727212
	4.356000	2.782010
	4.358000	2.862594
	4.360000	2.933507
	4.362000	2.968964
	4.364000	2.956071
	4.366000	2.881934
	4.368000	2.798126
	4.370000	2.723989
	4.372000	2.682085
	4.374000	2.688532
	4.376000	2.746553
	4.378000	2.823913
	4.380000	2.891604
	4.382000	2.927061
	4.384000	2.914167
	4.386000	2.840030
	4.388000	2.756223
	4.390000	2.682085
	4.392000	2.636958
	4.394000	2.643405
	4.396000	2.707872
	4.398000	2.782010
	4.400000	2.849700
	4.402000	2.878710
	4.404000	2.862594
	4.406000	2.791680
	4.408000	2.704649
	4.410000	2.633735
	4.412000	2.595055
	4.414000	2.595055
	4.416000	2.653075
	4.418000	2.733659
	4.420000	2.801350
	4.422000	2.833583
	4.424000	2.817466
	4.426000	2.746553
	4.428000	2.653075
	4.430000	2.575715
	4.432000	2.540258
	4.434000	2.553151
	4.436000	2.607948
	4.438000	2.691755
	4.440000	2.752999
	4.442000	2.778786
	4.444000	2.756223
	4.446000	2.691755
	4.448000	2.604725
	4.450000	2.527364
	4.452000	2.488684
	4.454000	2.491907
	4.456000	2.553151
	4.458000	2.630512
	4.460000	2.704649
	4.462000	2.723989
	4.464000	2.707872
	4.466000	2.640182
	4.468000	2.549928
	4.470000	2.466120
	4.472000	2.427440
	4.474000	2.437110
	4.476000	2.501577
	4.478000	2.575715
	4.480000	2.643405
	4.482000	2.675639
	4.484000	2.653075
	4.486000	2.588608
	4.488000	2.495131
	4.490000	2.420993
	4.492000	2.385536
	4.494000	2.395206
	4.496000	2.459674
	4.498000	2.533811
	4.500000	2.598278
	4.502000	2.624065
	4.504000	2.604725
	4.506000	2.530588
	4.508000	2.440333
	4.510000	2.369420
	4.512000	2.324293
	4.514000	2.343633
	4.516000	2.408100
	4.518000	2.488684
	4.520000	2.546704
	4.522000	2.582161
	4.524000	2.559598
	4.526000	2.495131
	4.528000	2.401653
	4.530000	2.330739
	4.532000	2.288836
	4.534000	2.304952
	4.536000	2.369420
	4.538000	2.453227
	4.540000	2.517694
	4.542000	2.543481
	4.544000	2.527364
	4.546000	2.450004
	4.548000	2.362973
	4.550000	2.288836
	4.552000	2.263049
	4.554000	2.263049
	4.556000	2.333963
	4.558000	2.414547
	4.560000	2.485461
	4.562000	2.511247
	4.564000	2.488684
	4.566000	2.414547
	4.568000	2.321069
	4.570000	2.256602
	4.572000	2.221145
	4.574000	2.227592
	4.576000	2.298506
	4.578000	2.385536
	4.580000	2.446780
	4.582000	2.475790
	4.584000	2.453227
	4.586000	2.382313
	4.588000	2.292059
	4.590000	2.224368
	4.592000	2.188911
	4.594000	2.208252
	4.596000	2.275942
	4.598000	2.359750
	4.600000	2.430663
	4.602000	2.456450
	4.604000	2.427440
	4.606000	2.359750
	4.608000	2.269495
	4.610000	2.201805
	4.612000	2.166348
	4.614000	2.188911
	4.616000	2.256602
	4.618000	2.346856
	4.620000	2.408100
	4.622000	2.430663
	4.624000	2.411323
	4.626000	2.340409
	4.628000	2.250155
	4.630000	2.185688
	4.632000	2.153455
	4.634000	2.172795
	4.636000	2.246932
	4.638000	2.333963
	4.640000	2.404877
	4.642000	2.430663
	4.644000	2.404877
	4.646000	2.333963
	4.648000	2.250155
	4.650000	2.185688
	4.652000	2.153455
	4.654000	2.179241
	4.656000	2.250155
	4.658000	2.340409
	4.660000	2.404877
	4.662000	2.427440
	4.664000	2.408100
	4.666000	2.330739
	4.668000	2.243709
	4.670000	2.176018
	4.672000	2.147008
	4.674000	2.172795
	4.676000	2.243709
	4.678000	2.327516
	4.680000	2.398430
	4.682000	2.424217
	4.684000	2.404877
	4.686000	2.324293
	4.688000	2.240485
	4.690000	2.166348
	4.692000	2.143784
	4.694000	2.159901
	4.696000	2.240485
	4.698000	2.327516
	4.700000	2.391983
	4.702000	2.411323
	4.704000	2.398430
	4.706000	2.324293
	4.708000	2.237262
	4.710000	2.169571
	4.712000	2.140561
	4.714000	2.159901
	4.716000	2.237262
	4.718000	2.321069
	4.720000	2.391983
	4.722000	2.417770
	4.724000	2.388760
	4.726000	2.317846
	4.728000	2.237262
	4.730000	2.169571
	4.732000	2.147008
	4.734000	2.166348
	4.736000	2.240485
	4.738000	2.330739
	4.740000	2.395206
	4.742000	2.424217
	4.744000	2.398430
	4.746000	2.321069
	4.748000	2.234039
	4.750000	2.166348
	4.752000	2.143784
	4.754000	2.169571
	4.756000	2.250155
	4.758000	2.333963
	4.760000	2.398430
	4.762000	2.424217
	4.764000	2.398430
	4.766000	2.324293
	4.768000	2.240485
	4.770000	2.179241
	4.772000	2.150231
	4.774000	2.176018
	4.776000	2.250155
	4.778000	2.340409
	4.780000	2.404877
	4.782000	2.427440
	4.784000	2.401653
	4.786000	2.324293
	4.788000	2.246932
	4.790000	2.176018
	4.792000	2.150231
	4.794000	2.176018
	4.796000	2.259825
	4.798000	2.350079
	4.800000	2.408100
	4.802000	2.430663
	4.804000	2.408100
	4.806000	2.330739
	4.808000	2.240485
	4.810000	2.176018
	4.812000	2.156678
	4.814000	2.188911
	4.816000	2.259825
	4.818000	2.343633
	4.820000	2.411323
	4.822000	2.430663
	4.824000	2.404877
	4.826000	2.337186
	4.828000	2.243709
	4.830000	2.182465
	4.832000	2.159901
	4.834000	2.182465
	4.836000	2.256602
	4.838000	2.346856
	4.840000	2.414547
	4.842000	2.437110
	4.844000	2.411323
	4.846000	2.333963
	4.848000	2.250155
	4.850000	2.185688
	4.852000	2.163125
	4.854000	2.195358
	4.856000	2.272719
	4.858000	2.353303
	4.860000	2.420993
	4.862000	2.443557
	4.864000	2.417770
	4.866000	2.343633
	4.868000	2.253379
	4.870000	2.185688
	4.872000	2.169571
	4.874000	2.192135
	4.876000	2.269495
	4.878000	2.362973
	4.880000	2.417770
	4.882000	2.446780
	4.884000	2.420993
	4.886000	2.340409
	4.888000	2.250155
	4.890000	2.192135
	4.892000	2.169571
	4.894000	2.195358
	4.896000	2.275942
	4.898000	2.366196
	4.900000	2.433887
	4.902000	2.453227
	4.904000	2.427440
	4.906000	2.340409
	4.908000	2.253379
	4.910000	2.201805
	4.912000	2.172795
	4.914000	2.208252
	4.916000	2.275942
	4.918000	2.369420
	4.920000	2.433887
	4.922000	2.450004
	4.924000	2.427440
	4.926000	2.343633
	4.928000	2.266272
	4.930000	2.201805
	4.932000	2.182465
	4.934000	2.214698
	4.936000	2.295282
	4.938000	2.379090
	4.940000	2.443557
	4.942000	2.462897
	4.944000	2.433887
	4.946000	2.359750
	4.948000	2.269495
	4.950000	2.214698
	4.952000	2.195358
	4.954000	2.224368
	4.956000	2.301729
	4.958000	2.388760
	4.960000	2.453227
	4.962000	2.469344
	4.964000	2.443557
	4.966000	2.366196
	4.968000	2.282389
	4.970000	2.224368
	4.972000	2.208252
	4.974000	2.237262
	4.976000	2.317846
	4.978000	2.401653
	4.980000	2.462897
	4.982000	2.495131
	4.984000	2.469344
	4.986000	2.385536
	4.988000	2.301729
	4.990000	2.243709
	4.992000	2.221145
	4.994000	2.253379
	4.996000	2.330739
	4.998000	2.424217
	5.000000	2.482237
	5.002000	2.511247
	5.004000	2.482237
	5.006000	2.398430
	5.008000	2.321069
	5.010000	2.259825
	5.012000	2.240485
	5.014000	2.272719
	5.016000	2.356526
	5.018000	2.443557
	5.020000	2.508024
	5.022000	2.524141
	5.024000	2.498354
	5.026000	2.420993
	5.028000	2.340409
	5.030000	2.282389
	5.032000	2.269495
	5.034000	2.295282
	5.036000	2.375866
	5.038000	2.466120
	5.040000	2.527364
	5.042000	2.549928
	5.044000	2.524141
	5.046000	2.446780
	5.048000	2.366196
	5.050000	2.298506
	5.052000	2.285612
	5.054000	2.321069
	5.056000	2.404877
	5.058000	2.482237
	5.060000	2.546704
	5.062000	2.572491
	5.064000	2.543481
	5.066000	2.466120
	5.068000	2.375866
	5.070000	2.311399
	5.072000	2.298506
	5.074000	2.327516
	5.076000	2.414547
	5.078000	2.508024
	5.080000	2.569268
	5.082000	2.588608
	5.084000	2.556374
	5.086000	2.475790
	5.088000	2.391983
	5.090000	2.337186
	5.092000	2.321069
	5.094000	2.356526
	5.096000	2.433887
	5.098000	2.524141
	5.100000	2.585385
	5.102000	2.604725
	5.104000	2.575715
	5.106000	2.495131
	5.108000	2.411323
	5.110000	2.353303
	5.112000	2.337186
	5.114000	2.366196
	5.116000	2.453227
	5.118000	2.533811
	5.120000	2.595055
	5.122000	2.614395
	5.124000	2.588608
	5.126000	2.508024
	5.128000	2.427440
	5.130000	2.369420
	5.132000	2.346856
	5.134000	2.379090
	5.136000	2.469344
	5.138000	2.546704
	5.140000	2.614395
	5.142000	2.633735
	5.144000	2.601501
	5.146000	2.524141
	5.148000	2.437110
	5.150000	2.379090
	5.152000	2.362973
	5.154000	2.398430
	5.156000	2.479014
	5.158000	2.569268
	5.160000	2.627288
	5.162000	2.646628
	5.164000	2.620842
	5.166000	2.537034
	5.168000	2.453227
	5.170000	2.395206
	5.172000	2.379090
	5.174000	2.411323
	5.176000	2.495131
	5.178000	2.585385
	5.180000	2.643405
	5.182000	2.662745
	5.184000	2.633735
	5.186000	2.556374
	5.188000	2.475790
	5.190000	2.417770
	5.192000	2.398430
	5.194000	2.433887
	5.196000	2.520917
	5.198000	2.604725
	5.200000	2.669192
	5.202000	2.688532
	5.204000	2.656299
	5.206000	2.578938
	5.208000	2.491907
	5.210000	2.433887
	5.212000	2.414547
	5.214000	2.453227
	5.216000	2.537034
	5.218000	2.620842
	5.220000	2.682085
	5.222000	2.701426
	5.224000	2.669192
	5.226000	2.591831
	5.228000	2.501577
	5.230000	2.446780
	5.232000	2.430663
	5.234000	2.469344
	5.236000	2.553151
	5.238000	2.640182
	5.240000	2.698202
	5.242000	2.714319
	5.244000	2.685309
	5.246000	2.598278
	5.248000	2.520917
	5.250000	2.462897
	5.252000	2.446780
	5.254000	2.479014
	5.256000	2.562821
	5.258000	2.653075
	5.260000	2.701426
	5.262000	2.720766
	5.264000	2.694979
	5.266000	2.614395
	5.268000	2.527364
	5.270000	2.469344
	5.272000	2.456450
	5.274000	2.488684
	5.276000	2.575715
	5.278000	2.662745
	5.280000	2.720766
	5.282000	2.733659
	5.284000	2.704649
	5.286000	2.620842
	5.288000	2.540258
	5.290000	2.485461
	5.292000	2.466120
	5.294000	2.498354
	5.296000	2.588608
	5.298000	2.675639
	5.300000	2.736883
	5.302000	2.749776
	5.304000	2.717542
	5.306000	2.630512
	5.308000	2.546704
	5.310000	2.498354
	5.312000	2.479014
	5.314000	2.520917
	5.316000	2.598278
	5.318000	2.682085
	5.320000	2.749776
	5.322000	2.762669
	5.324000	2.733659
	5.326000	2.646628
	5.328000	2.562821
	5.330000	2.501577
	5.332000	2.495131
	5.334000	2.530588
	5.336000	2.617618
	5.338000	2.698202
	5.340000	2.759446
	5.342000	2.769116
	5.344000	2.740106
	5.346000	2.656299
	5.348000	2.569268
	5.350000	2.520917
	5.352000	2.504801
	5.354000	2.543481
	5.356000	2.617618
	5.358000	2.711096
	5.360000	2.765893
	5.362000	2.782010
	5.364000	2.746553
	5.366000	2.669192
	5.368000	2.591831
	5.370000	2.533811
	5.372000	2.514471
	5.374000	2.553151
	5.376000	2.633735
	5.378000	2.723989
	5.380000	2.778786
	5.382000	2.798126
	5.384000	2.759446
	5.386000	2.678862
	5.388000	2.595055
	5.390000	2.540258
	5.392000	2.524141
	5.394000	2.562821
	5.396000	2.646628
	5.398000	2.736883
	5.400000	2.791680
	5.402000	2.804573
	5.404000	2.772339
	5.406000	2.688532
	5.408000	2.601501
	5.410000	2.546704
	5.412000	2.540258
	5.414000	2.575715
	5.416000	2.656299
	5.418000	2.743329
	5.420000	2.798126
	5.422000	2.817466
	5.424000	2.782010
	5.426000	2.698202
	5.428000	2.614395
	5.430000	2.556374
	5.432000	2.546704
	5.434000	2.582161
	5.436000	2.669192
	5.438000	2.756223
	5.440000	2.807796
	5.442000	2.830360
	5.444000	2.788456
	5.446000	2.711096
	5.448000	2.624065
	5.450000	2.569268
	5.452000	2.553151
	5.454000	2.598278
	5.456000	2.675639
	5.458000	2.762669
	5.460000	2.820690
	5.462000	2.830360
	5.464000	2.791680
	5.466000	2.704649
	5.468000	2.620842
	5.470000	2.569268
	5.472000	2.559598
	5.474000	2.595055
	5.476000	2.682085
	5.478000	2.762669
	5.480000	2.820690
	5.482000	2.836807
	5.484000	2.791680
	5.486000	2.707872
	5.488000	2.624065
	5.490000	2.566044
	5.492000	2.553151
	5.494000	2.591831
	5.496000	2.682085
	5.498000	2.772339
	5.500000	2.820690
	5.502000	2.833583
	5.504000	2.798126
	5.506000	2.714319
	5.508000	2.630512
	5.510000	2.578938
	5.512000	2.566044
	5.514000	2.607948
	5.516000	2.688532
	5.518000	2.778786
	5.520000	2.827137
	5.522000	2.840030
	5.524000	2.798126
	5.526000	2.714319
	5.528000	2.633735
	5.530000	2.582161
	5.532000	2.572491
	5.534000	2.604725
	5.536000	2.694979
	5.538000	2.772339
	5.540000	2.827137
	5.542000	2.833583
	5.544000	2.804573
	5.546000	2.714319
	5.548000	2.630512
	5.550000	2.578938
	5.552000	2.569268
	5.554000	2.604725
	5.556000	2.691755
	5.558000	2.778786
	5.560000	2.836807
	5.562000	2.843253
	5.564000	2.807796
	5.566000	2.723989
	5.568000	2.640182
	5.570000	2.585385
	5.572000	2.578938
	5.574000	2.620842
	5.576000	2.707872
	5.578000	2.788456
	5.580000	2.836807
	5.582000	2.852923
	5.584000	2.814243
	5.586000	2.727212
	5.588000	2.643405
	5.590000	2.585385
	5.592000	2.582161
	5.594000	2.627288
	5.596000	2.707872
	5.598000	2.791680
	5.600000	2.846477
	5.602000	2.859370
	5.604000	2.820690
	5.606000	2.733659
	5.608000	2.649852
	5.610000	2.598278
	5.612000	2.588608
	5.614000	2.633735
	5.616000	2.714319
	5.618000	2.804573
	5.620000	2.856147
	5.622000	2.865817
	5.624000	2.820690
	5.626000	2.740106
	5.628000	2.653075
	5.630000	2.604725
	5.632000	2.595055
	5.634000	2.636958
	5.636000	2.720766
	5.638000	2.807796
	5.640000	2.862594
	5.642000	2.872264
	5.644000	2.833583
	5.646000	2.749776
	5.648000	2.659522
	5.650000	2.607948
	5.652000	2.604725
	5.654000	2.643405
	5.656000	2.723989
	5.658000	2.811020
	5.660000	2.872264
	5.662000	2.875487
	5.664000	2.840030
	5.666000	2.752999
	5.668000	2.672415
	5.670000	2.624065
	5.672000	2.611172
	5.674000	2.662745
	5.676000	2.740106
	5.678000	2.823913
	5.680000	2.878710
	5.682000	2.885157
	5.684000	2.843253
	5.686000	2.759446
	5.688000	2.685309
	5.690000	2.630512
	5.692000	2.624065
	5.694000	2.662745
	5.696000	2.752999
	5.698000	2.833583
	5.700000	2.888380
	5.702000	2.898050
	5.704000	2.859370
	5.706000	2.775563
	5.708000	2.691755
	5.710000	2.646628
	5.712000	2.633735
	5.714000	2.678862
	5.716000	2.769116
	5.718000	2.846477
	5.720000	2.907721
	5.722000	2.910944
	5.724000	2.865817
	5.726000	2.782010
	5.728000	2.707872
	5.730000	2.646628
	5.732000	2.643405
	5.734000	2.694979
	5.736000	2.772339
	5.738000	2.856147
	5.740000	2.917391
	5.742000	2.917391
	5.744000	2.881934
	5.746000	2.798126
	5.748000	2.714319
	5.750000	2.665969
	5.752000	2.659522
	5.754000	2.704649
	5.756000	2.782010
	5.758000	2.869040
	5.760000	2.920614
	5.762000	2.927061
	5.764000	2.881934
	5.766000	2.807796
	5.768000	2.720766
	5.770000	2.672415
	5.772000	2.665969
	5.774000	2.714319
	5.776000	2.794903
	5.778000	2.885157
	5.780000	2.930284
	5.782000	2.946401
	5.784000	2.901274
	5.786000	2.823913
	5.788000	2.740106
	5.790000	2.688532
	5.792000	2.688532
	5.794000	2.727212
	5.796000	2.807796
	5.798000	2.898050
	5.800000	2.956071
	5.802000	2.959294
	5.804000	2.923837
	5.806000	2.836807
	5.808000	2.752999
	5.810000	2.701426
	5.812000	2.698202
	5.814000	2.740106
	5.816000	2.827137
	5.818000	2.904497
	5.820000	2.962518
	5.822000	2.965741
	5.824000	2.923837
	5.826000	2.840030
	5.828000	2.759446
	5.830000	2.707872
	5.832000	2.701426
	5.834000	2.743329
	5.836000	2.836807
	5.838000	2.923837
	5.840000	2.972188
	5.842000	2.985081
	5.844000	2.939954
	5.846000	2.856147
	5.848000	2.778786
	5.850000	2.720766
	5.852000	2.720766
	5.854000	2.759446
	5.856000	2.849700
	5.858000	2.930284
	5.860000	2.988305
	5.862000	2.991528
	5.864000	2.946401
	5.866000	2.859370
	5.868000	2.782010
	5.870000	2.733659
	5.872000	2.723989
	5.874000	2.775563
	5.876000	2.852923
	5.878000	2.946401
	5.880000	2.991528
	5.882000	3.001198
	5.884000	2.956071
	5.886000	2.869040
	5.888000	2.791680
	5.890000	2.740106
	5.892000	2.733659
	5.894000	2.782010
	5.896000	2.872264
	5.898000	2.952848
	5.900000	3.007645
	5.902000	3.010868
	5.904000	2.968964
	5.906000	2.878710
	5.908000	2.798126
	5.910000	2.756223
	5.912000	2.743329
	5.914000	2.798126
	5.916000	2.878710
	5.918000	2.965741
	5.920000	3.014091
	5.922000	3.020538
	5.924000	2.978634
	5.926000	2.894827
	5.928000	2.811020
	5.930000	2.759446
	5.932000	2.762669
	5.934000	2.807796
	5.936000	2.888380
	5.938000	2.972188
	5.940000	3.026985
	5.942000	3.030208
	5.944000	2.988305
	5.946000	2.901274
	5.948000	2.820690
	5.950000	2.769116
	5.952000	2.772339
	5.954000	2.820690
	5.956000	2.907721
	5.958000	2.981858
	5.960000	3.036655
	5.962000	3.043102
	5.964000	2.985081
	5.966000	2.914167
	5.968000	2.830360
	5.970000	2.785233
	5.972000	2.778786
	5.974000	2.830360
	5.976000	2.917391
	5.978000	2.994751
	5.980000	3.046325
	5.982000	3.052772
	5.984000	3.007645
	5.986000	2.914167
	5.988000	2.836807
	5.990000	2.794903
	5.992000	2.791680
	5.994000	2.843253
	5.996000	2.927061
	5.998000	3.007645
	6.000000	3.059218
	6.002000	3.065665
	6.004000	3.020538
	6.006000	2.936731
	6.008000	2.856147
	6.010000	2.804573
	6.012000	2.804573
	6.014000	2.852923
	6.016000	2.939954
	6.018000	3.023761
	6.020000	3.072112
	6.022000	3.081782
	6.024000	3.033432
	6.026000	2.952848
	6.028000	2.875487
	6.030000	2.830360
	6.032000	2.820690
	6.034000	2.869040
	6.036000	2.965741
	6.038000	3.043102
	6.040000	3.094675
	6.042000	3.101122
	6.044000	3.052772
	6.046000	2.965741
	6.048000	2.888380
	6.050000	2.836807
	6.052000	2.843253
	6.054000	2.885157
	6.056000	2.975411
	6.058000	3.052772
	6.060000	3.107569
	6.062000	3.107569
	6.064000	3.065665
	6.066000	2.978634
	6.068000	2.894827
	6.070000	2.843253
	6.072000	2.849700
	6.074000	2.898050
	6.076000	2.985081
	6.078000	3.065665
	6.080000	3.114016
	6.082000	3.120462
	6.084000	3.068888
	6.086000	2.981858
	6.088000	2.898050
	6.090000	2.856147
	6.092000	2.849700
	6.094000	2.907721
	6.096000	2.988305
	6.098000	3.075335
	6.100000	3.126909
	6.102000	3.120462
	6.104000	3.075335
	6.106000	2.985081
	6.108000	2.901274
	6.110000	2.852923
	6.112000	2.865817
	6.114000	2.907721
	6.116000	2.994751
	6.118000	3.075335
	6.120000	3.123686
	6.122000	3.130132
	6.124000	3.068888
	6.126000	2.988305
	6.128000	2.910944
	6.130000	2.859370
	6.132000	2.862594
	6.134000	2.914167
	6.136000	2.994751
	6.138000	3.081782
	6.140000	3.133356
	6.142000	3.126909
	6.144000	3.078559
	6.146000	2.997975
	6.148000	2.923837
	6.150000	2.869040
	6.152000	2.869040
	6.154000	2.914167
	6.156000	3.004421
	6.158000	3.085005
	6.160000	3.133356
	6.162000	3.136579
	6.164000	3.088229
	6.166000	3.001198
	6.168000	2.930284
	6.170000	2.875487
	6.172000	2.878710
	6.174000	2.923837
	6.176000	3.014091
	6.178000	3.091452
	6.180000	3.143026
	6.182000	3.139802
	6.184000	3.088229
	6.186000	3.001198
	6.188000	2.927061
	6.190000	2.875487
	6.192000	2.878710
	6.194000	2.930284
	6.196000	3.017315
	6.198000	3.101122
	6.200000	3.143026
	6.202000	3.143026
	6.204000	3.091452
	6.206000	3.014091
	6.208000	2.930284
	6.210000	2.881934
	6.212000	2.891604
	6.214000	2.939954
	6.216000	3.026985
	6.218000	3.107569
	6.220000	3.155919
	6.222000	3.149472
	6.224000	3.107569
	6.226000	3.014091
	6.228000	2.939954
	6.230000	2.894827
	6.232000	2.894827
	6.234000	2.946401
	6.236000	3.033432
	6.238000	3.117239
	6.240000	3.162366
	6.242000	3.162366
	6.244000	3.114016
	6.246000	3.026985
	6.248000	2.949624
	6.250000	2.898050
	6.252000	2.898050
	6.254000	2.956071
	6.256000	3.043102
	6.258000	3.120462
	6.260000	3.168813
	6.262000	3.175259
	6.264000	3.117239
	6.266000	3.036655
	6.268000	2.956071
	6.270000	2.914167
	6.272000	2.910944
	6.274000	2.968964
	6.276000	3.049548
	6.278000	3.123686
	6.280000	3.181706
	6.282000	3.172036
	6.284000	3.120462
	6.286000	3.039878
	6.288000	2.952848
	6.290000	2.914167
	6.292000	2.914167
	6.294000	2.965741
	6.296000	3.059218
	6.298000	3.139802
	6.300000	3.184929
	6.302000	3.181706
	6.304000	3.123686
	6.306000	3.039878
	6.308000	2.959294
	6.310000	2.920614
	6.312000	2.927061
	6.314000	2.978634
	6.316000	3.062442
	6.318000	3.146249
	6.320000	3.191376
	6.322000	3.184929
	6.324000	3.130132
	6.326000	3.052772
	6.328000	2.972188
	6.330000	2.930284
	6.332000	2.939954
	6.334000	2.988305
	6.336000	3.075335
	6.338000	3.155919
	6.340000	3.204270
	6.342000	3.194599
	6.344000	3.146249
	6.346000	3.055995
	6.348000	2.985081
	6.350000	2.939954
	6.352000	2.946401
	6.354000	2.997975
	6.356000	3.088229
	6.358000	3.165589
	6.360000	3.213940
	6.362000	3.207493
	6.364000	3.155919
	6.366000	3.072112
	6.368000	2.988305
	6.370000	2.946401
	6.372000	2.952848
	6.374000	3.004421
	6.376000	3.097899
	6.378000	3.172036
	6.380000	3.217163
	6.382000	3.217163
	6.384000	3.162366
	6.386000	3.072112
	6.388000	3.001198
	6.390000	2.952848
	6.392000	2.965741
	6.394000	3.023761
	6.396000	3.097899
	6.398000	3.172036
	6.400000	3.226833
	6.402000	3.220386
	6.404000	3.165589
	6.406000	3.081782
	6.408000	3.004421
	6.410000	2.959294
	6.412000	2.965741
	6.414000	3.010868
	6.416000	3.104345
	6.418000	3.181706
	6.420000	3.226833
	6.422000	3.220386
	6.424000	3.165589
	6.426000	3.085005
	6.428000	3.004421
	6.430000	2.962518
	6.432000	2.972188
	6.434000	3.020538
	6.436000	3.107569
	6.438000	3.184929
	6.440000	3.226833
	6.442000	3.230056
	6.444000	3.172036
	6.446000	3.088229
	6.448000	3.014091
	6.450000	2.968964
	6.452000	2.972188
	6.454000	3.033432
	6.456000	3.123686
	6.458000	3.201046
	6.460000	3.239726
	6.462000	3.233280
	6.464000	3.175259
	6.466000	3.097899
	6.468000	3.017315
	6.470000	2.972188
	6.472000	2.972188
	6.474000	3.033432
	6.476000	3.120462
	6.478000	3.201046
	6.480000	3.246173
	6.482000	3.242950
	6.484000	3.181706
	6.486000	3.101122
	6.488000	3.020538
	6.490000	2.981858
	6.492000	2.991528
	6.494000	3.055995
	6.496000	3.139802
	6.498000	3.213940
	6.500000	3.262290
	6.502000	3.259067
	6.504000	3.191376
	6.506000	3.114016
	6.508000	3.039878
	6.510000	2.991528
	6.512000	3.004421
	6.514000	3.062442
	6.516000	3.149472
	6.518000	3.217163
	6.520000	3.265513
	6.522000	3.259067
	6.524000	3.204270
	6.526000	3.120462
	6.528000	3.046325
	6.530000	3.007645
	6.532000	3.007645
	6.534000	3.072112
	6.536000	3.155919
	6.538000	3.233280
	6.540000	3.275183
	6.542000	3.268737
	6.544000	3.210716
	6.546000	3.126909
	6.548000	3.055995
	6.550000	3.010868
	6.552000	3.020538
	6.554000	3.078559
	6.556000	3.165589
	6.558000	3.249397
	6.560000	3.284854
	6.562000	3.284854
	6.564000	3.223610
	6.566000	3.136579
	6.568000	3.068888
	6.570000	3.020538
	6.572000	3.033432
	6.574000	3.094675
	6.576000	3.178483
	6.578000	3.252620
	6.580000	3.294524
	6.582000	3.288077
	6.584000	3.230056
	6.586000	3.149472
	6.588000	3.072112
	6.590000	3.033432
	6.592000	3.039878
	6.594000	3.097899
	6.596000	3.178483
	6.598000	3.262290
	6.600000	3.307417
	6.602000	3.297747
	6.604000	3.239726
	6.606000	3.155919
	6.608000	3.075335
	6.610000	3.036655
	6.612000	3.049548
	6.614000	3.107569
	6.616000	3.191376
	6.618000	3.265513
	6.620000	3.320310
	6.622000	3.300970
	6.624000	3.236503
	6.626000	3.159143
	6.628000	3.085005
	6.630000	3.039878
	6.632000	3.049548
	6.634000	3.110792
	6.636000	3.194599
	6.638000	3.278407
	6.640000	3.310640
	6.642000	3.307417
	6.644000	3.252620
	6.646000	3.172036
	6.648000	3.094675
	6.650000	3.049548
	6.652000	3.059218
	6.654000	3.120462
	6.656000	3.204270
	6.658000	3.281630
	6.660000	3.326757
	6.662000	3.317087
	6.664000	3.259067
	6.666000	3.178483
	6.668000	3.097899
	6.670000	3.059218
	6.672000	3.072112
	6.674000	3.126909
	6.676000	3.220386
	6.678000	3.294524
	6.680000	3.339651
	6.682000	3.333204
	6.684000	3.268737
	6.686000	3.188153
	6.688000	3.114016
	6.690000	3.068888
	6.692000	3.075335
	6.694000	3.143026
	6.696000	3.226833
	6.698000	3.304194
	6.700000	3.342874
	6.702000	3.329981
	6.704000	3.278407
	6.706000	3.184929
	6.708000	3.117239
	6.710000	3.075335
	6.712000	3.088229
	6.714000	3.149472
	6.716000	3.236503
	6.718000	3.317087
	6.720000	3.349321
	6.722000	3.339651
	6.724000	3.281630
	6.726000	3.197823
	6.728000	3.123686
	6.730000	3.081782
	6.732000	3.091452
	6.734000	3.155919
	6.736000	3.239726
	6.738000	3.313864
	6.740000	3.349321
	6.742000	3.342874
	6.744000	3.278407
	6.746000	3.197823
	6.748000	3.123686
	6.750000	3.088229
	6.752000	3.097899
	6.754000	3.162366
	6.756000	3.249397
	6.758000	3.320310
	6.760000	3.362214
	6.762000	3.349321
	6.764000	3.288077
	6.766000	3.204270
	6.768000	3.133356
	6.770000	3.085005
	6.772000	3.110792
	6.774000	3.165589
	6.776000	3.249397
	6.778000	3.323534
	6.780000	3.365437
	6.782000	3.352544
	6.784000	3.291300
	6.786000	3.204270
	6.788000	3.133356
	6.790000	3.097899
	6.792000	3.107569
	6.794000	3.172036
	6.796000	3.249397
	6.798000	3.326757
	6.800000	3.365437
	6.802000	3.352544
	6.804000	3.291300
	6.806000	3.207493
	6.808000	3.133356
	6.810000	3.097899
	6.812000	3.107569
	6.814000	3.172036
	6.816000	3.252620
	6.818000	3.323534
	6.820000	3.365437
	6.822000	3.355767
	6.824000	3.291300
	6.826000	3.210716
	6.828000	3.133356
	6.830000	3.097899
	6.832000	3.107569
	6.834000	3.172036
	6.836000	3.255843
	6.838000	3.333204
	6.840000	3.368661
	6.842000	3.355767
	6.844000	3.297747
	6.846000	3.217163
	6.848000	3.136579
	6.850000	3.101122
	6.852000	3.117239
	6.854000	3.172036
	6.856000	3.262290
	6.858000	3.339651
	6.860000	3.375108
	6.862000	3.362214
	6.864000	3.300970
	6.866000	3.217163
	6.868000	3.139802
	6.870000	3.107569
	6.872000	3.120462
	6.874000	3.178483
	6.876000	3.265513
	6.878000	3.339651
	6.880000	3.378331
	6.882000	3.365437
	6.884000	3.313864
	6.886000	3.220386
	6.888000	3.152696
	6.890000	3.110792
	6.892000	3.126909
	6.894000	3.191376
	6.896000	3.278407
	6.898000	3.346097
	6.900000	3.381554
	6.902000	3.368661
	6.904000	3.304194
	6.906000	3.223610
	6.908000	3.149472
	6.910000	3.114016
	6.912000	3.126909
	6.914000	3.194599
	6.916000	3.281630
	6.918000	3.349321
	6.920000	3.391224
	6.922000	3.375108
	6.924000	3.313864
	6.926000	3.220386
	6.928000	3.149472
	6.930000	3.120462
	6.932000	3.136579
	6.934000	3.197823
	6.936000	3.288077
	6.938000	3.352544
	6.940000	3.384778
	6.942000	3.371884
	6.944000	3.313864
	6.946000	3.223610
	6.948000	3.155919
	6.950000	3.123686
	6.952000	3.133356
	6.954000	3.201046
	6.956000	3.288077
	6.958000	3.355767
	6.960000	3.394448
	6.962000	3.381554
	6.964000	3.313864
	6.966000	3.226833
	6.968000	3.162366
	6.970000	3.123686
	6.972000	3.139802
	6.974000	3.201046
	6.976000	3.291300
	6.978000	3.365437
	6.980000	3.397671
	6.982000	3.384778
	6.984000	3.323534
	6.986000	3.233280
	6.988000	3.162366
	6.990000	3.130132
	6.992000	3.143026
	6.994000	3.213940
	6.996000	3.294524
	6.998000	3.371884
	7.000000	3.400894
	7.002000	3.384778
	7.004000	3.323534
	7.006000	3.239726
	7.008000	3.168813
	7.010000	3.130132
	7.012000	3.146249
	7.014000	3.207493
	7.016000	3.291300
	7.018000	3.362214
	7.020000	3.397671
	7.022000	3.384778
	7.024000	3.323534
	7.026000	3.236503
	7.028000	3.165589
	7.030000	3.123686
	7.032000	3.149472
	7.034000	3.207493
	7.036000	3.291300
	7.038000	3.368661
	7.040000	3.397671
	7.042000	3.384778
	7.044000	3.317087
	7.046000	3.233280
	7.048000	3.165589
	7.050000	3.130132
	7.052000	3.146249
	7.054000	3.213940
	7.056000	3.297747
	7.058000	3.365437
	7.060000	3.404118
	7.062000	3.391224
	7.064000	3.323534
	7.066000	3.236503
	7.068000	3.168813
	7.070000	3.130132
	7.072000	3.152696
	7.074000	3.213940
	7.076000	3.297747
	7.078000	3.378331
	7.080000	3.407341
	7.082000	3.391224
	7.084000	3.320310
	7.086000	3.236503
	7.088000	3.175259
	7.090000	3.139802
	7.092000	3.155919
	7.094000	3.217163
	7.096000	3.304194
	7.098000	3.375108
	7.100000	3.410565
	7.102000	3.391224
	7.104000	3.333204
	7.106000	3.239726
	7.108000	3.172036
	7.110000	3.136579
	7.112000	3.152696
	7.114000	3.226833
	7.116000	3.310640
	7.118000	3.384778
	7.120000	3.410565
	7.122000	3.394448
	7.124000	3.326757
	7.126000	3.242950
	7.128000	3.175259
	7.130000	3.143026
	7.132000	3.162366
	7.134000	3.230056
	7.136000	3.320310
	7.138000	3.388001
	7.140000	3.423458
	7.142000	3.413788
	7.144000	3.342874
	7.146000	3.255843
	7.148000	3.191376
	7.150000	3.162366
	7.152000	3.172036
	7.154000	3.236503
	7.156000	3.323534
	7.158000	3.397671
	7.160000	3.433128
	7.162000	3.413788
	7.164000	3.352544
	7.166000	3.259067
	7.168000	3.197823
	7.170000	3.165589
	7.172000	3.178483
	7.174000	3.249397
	7.176000	3.336427
	7.178000	3.400894
	7.180000	3.436351
	7.182000	3.417011
	7.184000	3.346097
	7.186000	3.268737
	7.188000	3.201046
	7.190000	3.165589
	7.192000	3.188153
	7.194000	3.255843
	7.196000	3.339651
	7.198000	3.417011
	7.200000	3.449245
	7.202000	3.426681
	7.204000	3.362214
	7.206000	3.275183
	7.208000	3.207493
	7.210000	3.172036
	7.212000	3.191376
	7.214000	3.268737
	7.216000	3.349321
	7.218000	3.423458
	7.220000	3.449245
	7.222000	3.433128
	7.224000	3.365437
	7.226000	3.288077
	7.228000	3.210716
	7.230000	3.181706
	7.232000	3.207493
	7.234000	3.268737
	7.236000	3.355767
	7.238000	3.420235
	7.240000	3.455692
	7.242000	3.436351
	7.244000	3.371884
	7.246000	3.288077
	7.248000	3.213940
	7.250000	3.188153
	7.252000	3.204270
	7.254000	3.271960
	7.256000	3.355767
	7.258000	3.429905
	7.260000	3.458915
	7.262000	3.439575
	7.264000	3.368661
	7.266000	3.284854
	7.268000	3.223610
	7.270000	3.184929
	7.272000	3.197823
	7.274000	3.275183
	7.276000	3.358991
	7.278000	3.423458
	7.280000	3.455692
	7.282000	3.436351
	7.284000	3.365437
	7.286000	3.284854
	7.288000	3.213940
	7.290000	3.181706
	7.292000	3.197823
	7.294000	3.268737
	7.296000	3.352544
	7.298000	3.423458
	7.300000	3.455692
	7.302000	3.433128
	7.304000	3.362214
	7.306000	3.281630
	7.308000	3.207493
	7.310000	3.178483
	7.312000	3.191376
	7.314000	3.268737
	7.316000	3.352544
	7.318000	3.417011
	7.320000	3.449245
	7.322000	3.429905
	7.324000	3.362214
	7.326000	3.288077
	7.328000	3.210716
	7.330000	3.178483
	7.332000	3.201046
	7.334000	3.271960
	7.336000	3.362214
	7.338000	3.420235
	7.340000	3.452468
	7.342000	3.426681
	7.344000	3.365437
	7.346000	3.284854
	7.348000	3.207493
	7.350000	3.184929
	7.352000	3.201046
	7.354000	3.275183
	7.356000	3.358991
	7.358000	3.429905
	7.360000	3.455692
	7.362000	3.439575
	7.364000	3.368661
	7.366000	3.288077
	7.368000	3.217163
	7.370000	3.184929
	7.372000	3.204270
	7.374000	3.271960
	7.376000	3.362214
	7.378000	3.433128
	7.380000	3.465362
	7.382000	3.442798
	7.384000	3.371884
	7.386000	3.288077
	7.388000	3.226833
	7.390000	3.194599
	7.392000	3.210716
	7.394000	3.275183
	7.396000	3.371884
	7.398000	3.439575
	7.400000	3.465362
	7.402000	3.446021
	7.404000	3.378331
	7.406000	3.288077
	7.408000	3.223610
	7.410000	3.201046
	7.412000	3.217163
	7.414000	3.291300
	7.416000	3.368661
	7.418000	3.446021
	7.420000	3.471808
	7.422000	3.455692
	7.424000	3.381554
	7.426000	3.297747
	7.428000	3.230056
	7.430000	3.210716
	7.432000	3.226833
	7.434000	3.294524
	7.436000	3.384778
	7.438000	3.455692
	7.440000	3.484702
	7.442000	3.462138
	7.444000	3.391224
	7.446000	3.313864
	7.448000	3.239726
	7.450000	3.213940
	7.452000	3.236503
	7.454000	3.307417
	7.456000	3.394448
	7.458000	3.462138
	7.460000	3.487925
	7.462000	3.475032
	7.464000	3.397671
	7.466000	3.313864
	7.468000	3.242950
	7.470000	3.220386
	7.472000	3.242950
	7.474000	3.317087
	7.476000	3.400894
	7.478000	3.471808
	7.480000	3.504042
	7.482000	3.481478
	7.484000	3.410565
	7.486000	3.329981
	7.488000	3.262290
	7.490000	3.236503
	7.492000	3.255843
	7.494000	3.329981
	7.496000	3.417011
	7.498000	3.487925
	7.500000	3.513712
	7.502000	3.487925
	7.504000	3.423458
	7.506000	3.336427
	7.508000	3.265513
	7.510000	3.246173
	7.512000	3.259067
	7.514000	3.339651
	7.516000	3.423458
	7.518000	3.494372
	7.520000	3.526605
	7.522000	3.504042
	7.524000	3.433128
	7.526000	3.342874
	7.528000	3.278407
	7.530000	3.249397
	7.532000	3.275183
	7.534000	3.349321
	7.536000	3.433128
	7.538000	3.507265
	7.540000	3.533052
	7.542000	3.507265
	7.544000	3.436351
	7.546000	3.352544
	7.548000	3.288077
	7.550000	3.259067
	7.552000	3.284854
	7.554000	3.355767
	7.556000	3.439575
	7.558000	3.507265
	7.560000	3.529829
	7.562000	3.510489
	7.564000	3.433128
	7.566000	3.352544
	7.568000	3.288077
	7.570000	3.262290
	7.572000	3.284854
	7.574000	3.355767
	7.576000	3.439575
	7.578000	3.504042
	7.580000	3.533052
	7.582000	3.510489
	7.584000	3.439575
	7.586000	3.352544
	7.588000	3.284854
	7.590000	3.255843
	7.592000	3.281630
	7.594000	3.349321
	7.596000	3.436351
	7.598000	3.497595
	7.600000	3.520159
	7.602000	3.504042
	7.604000	3.423458
	7.606000	3.336427
	7.608000	3.268737
	7.610000	3.236503
	7.612000	3.259067
	7.614000	3.320310
	7.616000	3.404118
	7.618000	3.468585
	7.620000	3.487925
	7.622000	3.465362
	7.624000	3.391224
	7.626000	3.310640
	7.628000	3.239726
	7.630000	3.210716
	7.632000	3.230056
	7.634000	3.304194
	7.636000	3.388001
	7.638000	3.452468
	7.640000	3.481478
	7.642000	3.458915
	7.644000	3.384778
	7.646000	3.304194
	7.648000	3.236503
	7.650000	3.207493
	7.652000	3.233280
	7.654000	3.310640
	7.656000	3.407341
	7.658000	3.475032
	7.660000	3.504042
	7.662000	3.484702
	7.664000	3.420235
	7.666000	3.342874
	7.668000	3.275183
	7.670000	3.259067
	7.672000	3.281630
	7.674000	3.358991
	7.676000	3.455692
	7.678000	3.529829
	7.680000	3.568509
	7.682000	3.552392
	7.684000	3.487925
	7.686000	3.413788
	7.688000	3.355767
	7.690000	3.339651
	7.692000	3.365437
	7.694000	3.449245
	7.696000	3.539499
	7.698000	3.616859
	7.700000	3.649093
	7.702000	3.645870
	7.704000	3.581403
	7.706000	3.510489
	7.708000	3.449245
	7.710000	3.426681
	7.712000	3.458915
	7.714000	3.539499
	7.716000	3.636200
	7.718000	3.700667
	7.720000	3.742570
	7.722000	3.736124
	7.724000	3.668433
	7.726000	3.591073
	7.728000	3.526605
	7.730000	3.504042
	7.732000	3.529829
	7.734000	3.613636
	7.736000	3.700667
	7.738000	3.765134
	7.740000	3.810261
	7.742000	3.794144
	7.744000	3.723230
	7.746000	3.649093
	7.748000	3.581403
	7.750000	3.565286
	7.752000	3.578179
	7.754000	3.655540
	7.756000	3.749017
	7.758000	3.813484
	7.760000	3.845718
	7.762000	3.829601
	7.764000	3.771581
	7.766000	3.687773
	7.768000	3.623306
	7.770000	3.594296
	7.772000	3.623306
	7.774000	3.687773
	7.776000	3.774804
	7.778000	3.842495
	7.780000	3.874728
	7.782000	3.861835
	7.784000	3.794144
	7.786000	3.703890
	7.788000	3.639423
	7.790000	3.613636
	7.792000	3.629753
	7.794000	3.703890
	7.796000	3.790921
	7.798000	3.861835
	7.800000	3.890845
	7.802000	3.881175
	7.804000	3.807038
	7.806000	3.723230
	7.808000	3.658763
	7.810000	3.629753
	7.812000	3.655540
	7.814000	3.723230
	7.816000	3.810261
	7.818000	3.877952
	7.820000	3.910185
	7.822000	3.890845
	7.824000	3.823154
	7.826000	3.732900
	7.828000	3.668433
	7.830000	3.639423
	7.832000	3.655540
	7.834000	3.729677
	7.836000	3.813484
	7.838000	3.881175
	7.840000	3.913409
	7.842000	3.894068
	7.844000	3.813484
	7.846000	3.729677
	7.848000	3.661987
	7.850000	3.636200
	7.852000	3.652316
	7.854000	3.726454
	7.856000	3.816708
	7.858000	3.881175
	7.860000	3.910185
	7.862000	3.887622
	7.864000	3.819931
	7.866000	3.732900
	7.868000	3.661987
	7.870000	3.636200
	7.872000	3.655540
	7.874000	3.726454
	7.876000	3.816708
	7.878000	3.881175
	7.880000	3.906962
	7.882000	3.890845
	7.884000	3.816708
	7.886000	3.729677
	7.888000	3.661987
	7.890000	3.639423
	7.892000	3.645870
	7.894000	3.726454
	7.896000	3.810261
	7.898000	3.881175
	7.900000	3.903738
	7.902000	3.884398
	7.904000	3.813484
	7.906000	3.723230
	7.908000	3.661987
	7.910000	3.636200
	7.912000	3.652316
	7.914000	3.720007
	7.916000	3.813484
	7.918000	3.874728
	7.920000	3.903738
	7.922000	3.884398
	7.924000	3.810261
	7.926000	3.720007
	7.928000	3.658763
	7.930000	3.636200
	7.932000	3.652316
	7.934000	3.726454
	7.936000	3.807038
	7.938000	3.874728
	7.940000	3.900515
	7.942000	3.881175
	7.944000	3.810261
	7.946000	3.723230
	7.948000	3.661987
	7.950000	3.632976
	7.952000	3.649093
	7.954000	3.726454
	7.956000	3.810261
	7.958000	3.877952
	7.960000	3.910185
	7.962000	3.884398
	7.964000	3.813484
	7.966000	3.723230
	7.968000	3.658763
	7.970000	3.629753
	7.972000	3.652316
	7.974000	3.723230
	7.976000	3.807038
	7.978000	3.874728
	7.980000	3.903738
	7.982000	3.884398
	7.984000	3.813484
	7.986000	3.732900
	7.988000	3.658763
	7.990000	3.632976
	7.992000	3.655540
	7.994000	3.723230
	7.996000	3.813484
	7.998000	3.874728
	8.000000	3.903738
	8.002000	3.887622
	8.004000	3.810261
	8.006000	3.726454
	8.008000	3.661987
	8.010000	3.629753
	8.012000	3.655540
	8.014000	3.729677
	8.016000	3.807038
	8.018000	3.877952
	8.020000	3.910185
	8.022000	3.887622
	8.024000	3.813484
	8.026000	3.726454
	8.028000	3.655540
	8.030000	3.636200
	8.032000	3.655540
	8.034000	3.723230
	8.036000	3.807038
	8.038000	3.874728
	8.040000	3.903738
	8.042000	3.877952
	8.044000	3.803814
	8.046000	3.713560
	8.048000	3.652316
	8.050000	3.623306
	8.052000	3.649093
	8.054000	3.720007
	8.056000	3.807038
	8.058000	3.874728
	8.060000	3.897292
	8.062000	3.877952
	8.064000	3.803814
	8.066000	3.720007
	8.068000	3.652316
	8.070000	3.620083
	8.072000	3.636200
	8.074000	3.716784
	8.076000	3.800591
	8.078000	3.865058
	8.080000	3.894068
	8.082000	3.871505
	8.084000	3.790921
	8.086000	3.710337
	8.088000	3.639423
	8.090000	3.610413
	8.092000	3.629753
	8.094000	3.703890
	8.096000	3.794144
	8.098000	3.852165
	8.100000	3.881175
	8.102000	3.861835
	8.104000	3.781251
	8.106000	3.697443
	8.108000	3.629753
	8.110000	3.603966
	8.112000	3.626530
	8.114000	3.700667
	8.116000	3.790921
	8.118000	3.848941
	8.120000	3.871505
	8.122000	3.845718
	8.124000	3.771581
	8.126000	3.681327
	8.128000	3.616859
	8.130000	3.584626
	8.132000	3.610413
	8.134000	3.687773
	8.136000	3.771581
	8.138000	3.832825
	8.140000	3.848941
	8.142000	3.829601
	8.144000	3.749017
	8.146000	3.668433
	8.148000	3.603966
	8.150000	3.574956
	8.152000	3.594296
	8.154000	3.665210
	8.156000	3.749017
	8.158000	3.810261
	8.160000	3.836048
	8.162000	3.807038
	8.164000	3.732900
	8.166000	3.642646
	8.168000	3.578179
	8.170000	3.549169
	8.172000	3.568509
	8.174000	3.639423
	8.176000	3.726454
	8.178000	3.787698
	8.180000	3.803814
	8.182000	3.781251
	8.184000	3.700667
	8.186000	3.613636
	8.188000	3.545946
	8.190000	3.513712
	8.192000	3.536276
	8.194000	3.610413
	8.196000	3.694220
	8.198000	3.755464
	8.200000	3.774804
	8.202000	3.749017
	8.204000	3.668433
	8.206000	3.581403
	8.208000	3.510489
	8.210000	3.487925
	8.212000	3.507265
	8.214000	3.581403
	8.216000	3.665210
	8.218000	3.726454
	8.220000	3.749017
	8.222000	3.723230
	8.224000	3.642646
	8.226000	3.555616
	8.228000	3.484702
	8.230000	3.458915
	8.232000	3.484702
	8.234000	3.552392
	8.236000	3.642646
	8.238000	3.700667
	8.240000	3.726454
	8.242000	3.700667
	8.244000	3.613636
	8.246000	3.526605
	8.248000	3.458915
	8.250000	3.433128
	8.252000	3.455692
	8.254000	3.529829
	8.256000	3.607189
	8.258000	3.668433
	8.260000	3.690997
	8.262000	3.661987
	8.264000	3.587849
	8.266000	3.491148
	8.268000	3.426681
	8.270000	3.397671
	8.272000	3.420235
	8.274000	3.500819
	8.276000	3.578179
	8.278000	3.639423
	8.280000	3.655540
	8.282000	3.626530
	8.284000	3.542722
	8.286000	3.455692
	8.288000	3.391224
	8.290000	3.362214
	8.292000	3.384778
	8.294000	3.458915
	8.296000	3.536276
	8.298000	3.597519
	8.300000	3.613636
	8.302000	3.587849
	8.304000	3.507265
	8.306000	3.417011
	8.308000	3.352544
	8.310000	3.323534
	8.312000	3.349321
	8.314000	3.423458
	8.316000	3.507265
	8.318000	3.568509
	8.320000	3.587849
	8.322000	3.558839
	8.324000	3.475032
	8.326000	3.388001
	8.328000	3.323534
	8.330000	3.294524
	8.332000	3.323534
	8.334000	3.397671
	8.336000	3.481478
	8.338000	3.539499
	8.340000	3.558839
	8.342000	3.529829
	8.344000	3.442798
	8.346000	3.352544
	8.348000	3.288077
	8.350000	3.265513
	8.352000	3.288077
	8.354000	3.365437
	8.356000	3.446021
	8.358000	3.507265
	8.360000	3.526605
	8.362000	3.491148
	8.364000	3.410565
	8.366000	3.323534
	8.368000	3.252620
	8.370000	3.236503
	8.372000	3.255843
	8.374000	3.336427
	8.376000	3.417011
	8.378000	3.478255
	8.380000	3.494372
	8.382000	3.462138
	8.384000	3.384778
	8.386000	3.288077
	8.388000	3.226833
	8.390000	3.204270
	8.392000	3.233280
	8.394000	3.307417
	8.396000	3.388001
	8.398000	3.442798
	8.400000	3.458915
	8.402000	3.420235
	8.404000	3.339651
	8.406000	3.252620
	8.408000	3.184929
	8.410000	3.165589
	8.412000	3.194599
	8.414000	3.268737
	8.416000	3.346097
	8.418000	3.404118
	8.420000	3.420235
	8.422000	3.384778
	8.424000	3.304194
	8.426000	3.210716
	8.428000	3.152696
	8.430000	3.117239
	8.432000	3.152696
	8.434000	3.233280
	8.436000	3.313864
	8.438000	3.375108
	8.440000	3.381554
	8.442000	3.349321
	8.444000	3.265513
	8.446000	3.172036
	8.448000	3.114016
	8.450000	3.094675
	8.452000	3.117239
	8.454000	3.204270
	8.456000	3.281630
	8.458000	3.333204
	8.460000	3.346097
	8.462000	3.310640
	8.464000	3.223610
	8.466000	3.136579
	8.468000	3.078559
	8.470000	3.052772
	8.472000	3.088229
	8.474000	3.165589
	8.476000	3.246173
	8.478000	3.300970
	8.480000	3.310640
	8.482000	3.278407
	8.484000	3.194599
	8.486000	3.107569
	8.488000	3.046325
	8.490000	3.026985
	8.492000	3.062442
	8.494000	3.143026
	8.496000	3.226833
	8.498000	3.281630
	8.500000	3.294524
	8.502000	3.255843
	8.504000	3.172036
	8.506000	3.081782
	8.508000	3.033432
	8.510000	3.014091
	8.512000	3.052772
	8.514000	3.130132
	8.516000	3.213940
	8.518000	3.268737
	8.520000	3.284854
	8.522000	3.249397
	8.524000	3.175259
	8.526000	3.085005
	8.528000	3.023761
	8.530000	3.007645
	8.532000	3.043102
	8.534000	3.123686
	8.536000	3.207493
	8.538000	3.271960
	8.540000	3.281630
	8.542000	3.249397
	8.544000	3.165589
	8.546000	3.072112
	8.548000	3.023761
	8.550000	3.007645
	8.552000	3.043102
	8.554000	3.133356
	8.556000	3.220386
	8.558000	3.275183
	8.560000	3.284854
	8.562000	3.246173
	8.564000	3.168813
	8.566000	3.085005
	8.568000	3.017315
	8.570000	3.014091
	8.572000	3.043102
	8.574000	3.123686
	8.576000	3.213940
	8.578000	3.275183
	8.580000	3.288077
	8.582000	3.249397
	8.584000	3.168813
	8.586000	3.081782
	8.588000	3.023761
	8.590000	3.010868
	8.592000	3.052772
	8.594000	3.133356
	8.596000	3.220386
	8.598000	3.278407
	8.600000	3.288077
	8.602000	3.252620
	8.604000	3.175259
	8.606000	3.085005
	8.608000	3.030208
	8.610000	3.014091
	8.612000	3.052772
	8.614000	3.139802
	8.616000	3.226833
	8.618000	3.281630
	8.620000	3.288077
	8.622000	3.255843
	8.624000	3.178483
	8.626000	3.088229
	8.628000	3.033432
	8.630000	3.023761
	8.632000	3.059218
	8.634000	3.146249
	8.636000	3.236503
	8.638000	3.294524
	8.640000	3.304194
	8.642000	3.268737
	8.644000	3.181706
	8.646000	3.101122
	8.648000	3.046325
	8.650000	3.030208
	8.652000	3.075335
	8.654000	3.162366
	8.656000	3.242950
	8.658000	3.300970
	8.660000	3.313864
	8.662000	3.271960
	8.664000	3.188153
	8.666000	3.110792
	8.668000	3.062442
	8.670000	3.046325
	8.672000	3.091452
	8.674000	3.172036
	8.676000	3.265513
	8.678000	3.320310
	8.680000	3.333204
	8.682000	3.291300
	8.684000	3.207493
	8.686000	3.133356
	8.688000	3.072112
	8.690000	3.065665
	8.692000	3.104345
	8.694000	3.194599
	8.696000	3.278407
	8.698000	3.329981
	8.700000	3.336427
	8.702000	3.304194
	8.704000	3.220386
	8.706000	3.133356
	8.708000	3.088229
	8.710000	3.078559
	8.712000	3.114016
	8.714000	3.207493
	8.716000	3.284854
	8.718000	3.346097
	8.720000	3.352544
	8.722000	3.313864
	8.724000	3.230056
	8.726000	3.149472
	8.728000	3.094675
	8.730000	3.088229
	8.732000	3.123686
	8.734000	3.210716
	8.736000	3.294524
	8.738000	3.346097
	8.740000	3.362214
	8.742000	3.326757
	8.744000	3.239726
	8.746000	3.159143
	8.748000	3.107569
	8.750000	3.091452
	8.752000	3.136579
	8.754000	3.217163
	8.756000	3.304194
	8.758000	3.362214
	8.760000	3.368661
	8.762000	3.336427
	8.764000	3.246173
	8.766000	3.175259
	8.768000	3.117239
	8.770000	3.104345
	8.772000	3.152696
	8.774000	3.230056
	8.776000	3.313864
	8.778000	3.375108
	8.780000	3.378331
	8.782000	3.342874
	8.784000	3.259067
	8.786000	3.178483
	8.788000	3.117239
	8.790000	3.114016
	8.792000	3.155919
	8.794000	3.242950
	8.796000	3.323534
	8.798000	3.381554
	8.800000	3.391224
	8.802000	3.349321
	8.804000	3.262290
	8.806000	3.188153
	8.808000	3.130132
	8.810000	3.126909
	8.812000	3.162366
	8.814000	3.252620
	8.816000	3.336427
	8.818000	3.391224
	8.820000	3.400894
	8.822000	3.358991
	8.824000	3.278407
	8.826000	3.188153
	8.828000	3.139802
	8.830000	3.133356
	8.832000	3.178483
	8.834000	3.265513
	8.836000	3.346097
	8.838000	3.400894
	8.840000	3.407341
	8.842000	3.371884
	8.844000	3.288077
	8.846000	3.207493
	8.848000	3.152696
	8.850000	3.152696
	8.852000	3.201046
	8.854000	3.278407
	8.856000	3.365437
	8.858000	3.420235
	8.860000	3.426681
	8.862000	3.384778
	8.864000	3.300970
	8.866000	3.217163
	8.868000	3.168813
	8.870000	3.159143
	8.872000	3.207493
	8.874000	3.291300
	8.876000	3.378331
	8.878000	3.433128
	8.880000	3.439575
	8.882000	3.397671
	8.884000	3.310640
	8.886000	3.230056
	8.888000	3.175259
	8.890000	3.172036
	8.892000	3.220386
	8.894000	3.304194
	8.896000	3.388001
	8.898000	3.436351
	8.900000	3.446021
	8.902000	3.400894
	8.904000	3.317087
	8.906000	3.236503
	8.908000	3.191376
	8.910000	3.184929
	8.912000	3.226833
	8.914000	3.310640
	8.916000	3.397671
	8.918000	3.449245
	8.920000	3.462138
	8.922000	3.417011
	8.924000	3.333204
	8.926000	3.249397
	8.928000	3.204270
	8.930000	3.201046
	8.932000	3.239726
	8.934000	3.333204
	8.936000	3.413788
	8.938000	3.462138
	8.940000	3.475032
	8.942000	3.426681
	8.944000	3.346097
	8.946000	3.271960
	8.948000	3.217163
	8.950000	3.210716
	8.952000	3.262290
	8.954000	3.342874
	8.956000	3.429905
	8.958000	3.484702
	8.960000	3.478255
	8.962000	3.439575
	8.964000	3.358991
	8.966000	3.281630
	8.968000	3.233280
	8.970000	3.226833
	8.972000	3.275183
	8.974000	3.365437
	8.976000	3.442798
	8.978000	3.497595
	8.980000	3.504042
	8.982000	3.458915
	8.984000	3.378331
	8.986000	3.291300
	8.988000	3.252620
	8.990000	3.242950
	8.992000	3.291300
	8.994000	3.378331
	8.996000	3.462138
	8.998000	3.507265
	9.000000	3.516935
	9.002000	3.471808
	9.004000	3.388001
	9.006000	3.307417
	9.008000	3.262290
	9.010000	3.249397
	9.012000	3.300970
	9.014000	3.388001
	9.016000	3.471808
	9.018000	3.529829
	9.020000	3.526605
	9.022000	3.484702
	9.024000	3.397671
	9.026000	3.320310
	9.028000	3.268737
	9.030000	3.268737
	9.032000	3.310640
	9.034000	3.397671
	9.036000	3.481478
	9.038000	3.526605
	9.040000	3.539499
	9.042000	3.491148
	9.044000	3.407341
	9.046000	3.333204
	9.048000	3.275183
	9.050000	3.278407
	9.052000	3.326757
	9.054000	3.410565
	9.056000	3.497595
	9.058000	3.542722
	9.060000	3.549169
	9.062000	3.507265
	9.064000	3.413788
	9.066000	3.339651
	9.068000	3.297747
	9.070000	3.294524
	9.072000	3.342874
	9.074000	3.426681
	9.076000	3.504042
	9.078000	3.562062
	9.080000	3.562062
	9.082000	3.516935
	9.084000	3.429905
	9.086000	3.352544
	9.088000	3.300970
	9.090000	3.307417
	9.092000	3.349321
	9.094000	3.436351
	9.096000	3.520159
	9.098000	3.571732
	9.100000	3.574956
	9.102000	3.526605
	9.104000	3.452468
	9.106000	3.371884
	9.108000	3.326757
	9.110000	3.320310
	9.112000	3.365437
	9.114000	3.455692
	9.116000	3.533052
	9.118000	3.584626
	9.120000	3.584626
	9.122000	3.539499
	9.124000	3.455692
	9.126000	3.378331
	9.128000	3.329981
	9.130000	3.333204
	9.132000	3.375108
	9.134000	3.465362
	9.136000	3.542722
	9.138000	3.594296
	9.140000	3.597519
	9.142000	3.555616
	9.144000	3.465362
	9.146000	3.388001
	9.148000	3.336427
	9.150000	3.342874
	9.152000	3.384778
	9.154000	3.475032
	9.156000	3.552392
	9.158000	3.613636
	9.160000	3.613636
	9.162000	3.568509
	9.164000	3.478255
	9.166000	3.407341
	9.168000	3.352544
	9.170000	3.352544
	9.172000	3.400894
	9.174000	3.481478
	9.176000	3.565286
	9.178000	3.616859
	9.180000	3.623306
	9.182000	3.574956
	9.184000	3.494372
	9.186000	3.410565
	9.188000	3.365437
	9.190000	3.355767
	9.192000	3.410565
	9.194000	3.504042
	9.196000	3.581403
	9.198000	3.639423
	9.200000	3.632976
	9.202000	3.591073
	9.204000	3.500819
	9.206000	3.426681
	9.208000	3.378331
	9.210000	3.378331
	9.212000	3.429905
	9.214000	3.516935
	9.216000	3.594296
	9.218000	3.645870
	9.220000	3.652316
	9.222000	3.597519
	9.224000	3.513712
	9.226000	3.436351
	9.228000	3.388001
	9.230000	3.391224
	9.232000	3.439575
	9.234000	3.526605
	9.236000	3.603966
	9.238000	3.655540
	9.240000	3.652316
	9.242000	3.603966
	9.244000	3.523382
	9.246000	3.442798
	9.248000	3.394448
	9.250000	3.397671
	9.252000	3.449245
	9.254000	3.536276
	9.256000	3.610413
	9.258000	3.668433
	9.260000	3.668433
	9.262000	3.613636
	9.264000	3.529829
	9.266000	3.455692
	9.268000	3.410565
	9.270000	3.404118
	9.272000	3.462138
	9.274000	3.545946
	9.276000	3.620083
	9.278000	3.671657
	9.280000	3.671657
	9.282000	3.623306
	9.284000	3.536276
	9.286000	3.465362
	9.288000	3.420235
	9.290000	3.417011
	9.292000	3.468585
	9.294000	3.555616
	9.296000	3.636200
	9.298000	3.687773
	9.300000	3.684550
	9.302000	3.632976
	9.304000	3.552392
	9.306000	3.471808
	9.308000	3.426681
	9.310000	3.426681
	9.312000	3.484702
	9.314000	3.565286
	9.316000	3.645870
	9.318000	3.694220
	9.320000	3.694220
	9.322000	3.642646
	9.324000	3.558839
	9.326000	3.481478
	9.328000	3.439575
	9.330000	3.439575
	9.332000	3.497595
	9.334000	3.578179
	9.336000	3.655540
	9.338000	3.703890
	9.340000	3.697443
	9.342000	3.652316
	9.344000	3.562062
	9.346000	3.494372
	9.348000	3.442798
	9.350000	3.449245
	9.352000	3.500819
	9.354000	3.587849
	9.356000	3.661987
	9.358000	3.707114
	9.360000	3.703890
	9.362000	3.652316
	9.364000	3.568509
	9.366000	3.497595
	9.368000	3.446021
	9.370000	3.455692
	9.372000	3.504042
	9.374000	3.587849
	9.376000	3.668433
	9.378000	3.713560
	9.380000	3.716784
	9.382000	3.661987
	9.384000	3.581403
	9.386000	3.494372
	9.388000	3.452468
	9.390000	3.455692
	9.392000	3.510489
	9.394000	3.594296
	9.396000	3.668433
	9.398000	3.720007
	9.400000	3.716784
	9.402000	3.658763
	9.404000	3.581403
	9.406000	3.504042
	9.408000	3.452468
	9.410000	3.462138
	9.412000	3.516935
	9.414000	3.603966
	9.416000	3.684550
	9.418000	3.726454
	9.420000	3.729677
	9.422000	3.678103
	9.424000	3.587849
	9.426000	3.507265
	9.428000	3.468585
	9.430000	3.468585
	9.432000	3.526605
	9.434000	3.613636
	9.436000	3.687773
	9.438000	3.736124
	9.440000	3.732900
	9.442000	3.678103
	9.444000	3.594296
	9.446000	3.516935
	9.448000	3.471808
	9.450000	3.475032
	9.452000	3.536276
	9.454000	3.616859
	9.456000	3.694220
	9.458000	3.739347
	9.460000	3.736124
	9.462000	3.684550
	9.464000	3.594296
	9.466000	3.513712
	9.468000	3.475032
	9.470000	3.478255
	9.472000	3.536276
	9.474000	3.620083
	9.476000	3.694220
	9.478000	3.742570
	9.480000	3.739347
	9.482000	3.681327
	9.484000	3.603966
	9.486000	3.523382
	9.488000	3.478255
	9.490000	3.478255
	9.492000	3.539499
	9.494000	3.623306
	9.496000	3.703890
	9.498000	3.749017
	9.500000	3.745794
	9.502000	3.694220
	9.504000	3.607189
	9.506000	3.526605
	9.508000	3.484702
	9.510000	3.497595
	9.512000	3.549169
	9.514000	3.636200
	9.516000	3.710337
	9.518000	3.755464
	9.520000	3.752241
	9.522000	3.700667
	9.524000	3.613636
	9.526000	3.533052
	9.528000	3.494372
	9.530000	3.494372
	9.532000	3.555616
	9.534000	3.632976
	9.536000	3.710337
	9.538000	3.758687
	9.540000	3.755464
	9.542000	3.707114
	9.544000	3.616859
	9.546000	3.542722
	9.548000	3.500819
	9.550000	3.500819
	9.552000	3.562062
	9.554000	3.645870
	9.556000	3.723230
	9.558000	3.768357
	9.560000	3.761911
	9.562000	3.703890
	9.564000	3.620083
	9.566000	3.549169
	9.568000	3.500819
	9.570000	3.507265
	9.572000	3.562062
	9.574000	3.649093
	9.576000	3.729677
	9.578000	3.768357
	9.580000	3.761911
	9.582000	3.707114
	9.584000	3.623306
	9.586000	3.555616
	9.588000	3.507265
	9.590000	3.510489
	9.592000	3.571732
	9.594000	3.658763
	9.596000	3.736124
	9.598000	3.778027
	9.600000	3.774804
	9.602000	3.713560
	9.604000	3.636200
	9.606000	3.562062
	9.608000	3.516935
	9.610000	3.520159
	9.612000	3.578179
	9.614000	3.668433
	9.616000	3.745794
	9.618000	3.794144
	9.620000	3.781251
	9.622000	3.729677
	9.624000	3.649093
	9.626000	3.574956
	9.628000	3.529829
	9.630000	3.536276
	9.632000	3.597519
	9.634000	3.684550
	9.636000	3.758687
	9.638000	3.807038
	9.640000	3.800591
	9.642000	3.739347
	9.644000	3.661987
	9.646000	3.584626
	9.648000	3.545946
	9.650000	3.552392
	9.652000	3.603966
	9.654000	3.697443
	9.656000	3.768357
	9.658000	3.816708
	9.660000	3.803814
	9.662000	3.752241
	9.664000	3.668433
	9.666000	3.597519
	9.668000	3.558839
	9.670000	3.568509
	9.672000	3.620083
	9.674000	3.710337
	9.676000	3.781251
	9.678000	3.829601
	9.680000	3.823154
	9.682000	3.761911
	9.684000	3.678103
	9.686000	3.610413
	9.688000	3.562062
	9.690000	3.574956
	9.692000	3.632976
	9.694000	3.723230
	9.696000	3.797368
	9.698000	3.836048
	9.700000	3.826378
	9.702000	3.771581
	9.704000	3.694220
	9.706000	3.620083
	9.708000	3.578179
	9.710000	3.587849
	9.712000	3.649093
	9.714000	3.732900
	9.716000	3.810261
	9.718000	3.852165
	9.720000	3.845718
	9.722000	3.787698
	9.724000	3.700667
	9.726000	3.626530
	9.728000	3.591073
	9.730000	3.600743
	9.732000	3.661987
	9.734000	3.749017
	9.736000	3.826378
	9.738000	3.865058
	9.740000	3.855388
	9.742000	3.800591
	9.744000	3.716784
	9.746000	3.642646
	9.748000	3.603966
	9.750000	3.610413
	9.752000	3.671657
	9.754000	3.758687
	9.756000	3.832825
	9.758000	3.874728
	9.760000	3.874728
	9.762000	3.807038
	9.764000	3.729677
	9.766000	3.652316
	9.768000	3.613636
	9.770000	3.623306
	9.772000	3.684550
	9.774000	3.774804
	9.776000	3.848941
	9.778000	3.890845
	9.780000	3.874728
	9.782000	3.819931
	9.784000	3.736124
	9.786000	3.658763
	9.788000	3.626530
	9.790000	3.636200
	9.792000	3.697443
	9.794000	3.784474
	9.796000	3.861835
	9.798000	3.900515
	9.800000	3.890845
	9.802000	3.829601
	9.804000	3.745794
	9.806000	3.671657
	9.808000	3.642646
	9.810000	3.649093
	9.812000	3.703890
	9.814000	3.797368
	9.816000	3.865058
	9.818000	3.910185
	9.820000	3.903738
	9.822000	3.839271
	9.824000	3.758687
	9.826000	3.684550
	9.828000	3.642646
	9.830000	3.655540
	9.832000	3.713560
	9.834000	3.797368
	9.836000	3.874728
	9.838000	3.919855
	9.840000	3.903738
	9.842000	3.848941
	9.844000	3.765134
	9.846000	3.690997
	9.848000	3.649093
	9.850000	3.668433
	9.852000	3.723230
	9.854000	3.807038
	9.856000	3.881175
	9.858000	3.926302
	9.860000	3.910185
	9.862000	3.855388
	9.864000	3.765134
	9.866000	3.694220
	9.868000	3.661987
	9.870000	3.671657
	9.872000	3.732900
	9.874000	3.810261
	9.876000	3.887622
	9.878000	3.929525
	9.880000	3.923079
	9.882000	3.861835
	9.884000	3.778027
	9.886000	3.703890
	9.888000	3.665210
	9.890000	3.674880
	9.892000	3.739347
	9.894000	3.826378
	9.896000	3.897292
	9.898000	3.945642
	9.900000	3.929525
	9.902000	3.871505
	9.904000	3.784474
	9.906000	3.713560
	9.908000	3.678103
	9.910000	3.694220
	9.912000	3.752241
	9.914000	3.842495
	9.916000	3.906962
	9.918000	3.952089
	9.920000	3.942419
	9.922000	3.887622
	9.924000	3.803814
	9.926000	3.729677
	9.928000	3.687773
	9.930000	3.707114
	9.932000	3.761911
	9.934000	3.852165
	9.936000	3.932749
	9.938000	3.971429
	9.940000	3.955312
	9.942000	3.897292
	9.944000	3.816708
	9.946000	3.742570
	9.948000	3.710337
	9.950000	3.720007
	9.952000	3.771581
	9.954000	3.861835
	9.956000	3.939195
	9.958000	3.977876
	9.960000	3.974652
	9.962000	3.910185
	9.964000	3.819931
	9.966000	3.752241
	9.968000	3.720007
	9.970000	3.726454
	9.972000	3.794144
	9.974000	3.884398
	9.976000	3.952089
	9.978000	3.984322
	9.980000	3.977876
	9.982000	3.913409
	9.984000	3.832825
	9.986000	3.761911
	9.988000	3.729677
	9.990000	3.739347
	9.992000	3.794144
	9.994000	3.884398
	9.996000	3.958536
	9.998000	4.000439
	10.000000	3.984322
	10.002000	3.926302
	10.004000	3.832825
	10.006000	3.765134
	10.008000	3.726454
	10.010000	3.745794
	10.012000	3.810261
	10.014000	3.890845
	10.016000	3.971429
	10.018000	4.003663
	10.020000	3.997216
	10.022000	3.929525
	10.024000	3.852165
	10.026000	3.771581
	10.028000	3.749017
	10.030000	3.755464
	10.032000	3.819931
	10.034000	3.906962
	10.036000	3.977876
	10.038000	4.006886
	10.040000	4.000439
	10.042000	3.939195
	10.044000	3.855388
	10.046000	3.784474
	10.048000	3.742570
	10.050000	3.761911
	10.052000	3.826378
	10.054000	3.910185
	10.056000	3.981099
	10.058000	4.013333
	10.060000	3.997216
	10.062000	3.935972
	10.064000	3.855388
	10.066000	3.787698
	10.068000	3.752241
	10.070000	3.761911
	10.072000	3.829601
	10.074000	3.910185
	10.076000	3.984322
	10.078000	4.010109
	10.080000	4.003663
	10.082000	3.945642
	10.084000	3.855388
	10.086000	3.781251
	10.088000	3.752241
	10.090000	3.761911
	10.092000	3.829601
	10.094000	3.913409
	10.096000	3.987546
	10.098000	4.023003
	10.100000	4.006886
	10.102000	3.942419
	10.104000	3.861835
	10.106000	3.787698
	10.108000	3.758687
	10.110000	3.768357
	10.112000	3.829601
	10.114000	3.919855
	10.116000	3.993992
	10.118000	4.026226
	10.120000	4.010109
	10.122000	3.945642
	10.124000	3.871505
	10.126000	3.797368
	10.128000	3.761911
	10.130000	3.778027
	10.132000	3.842495
	10.134000	3.929525
	10.136000	4.003663
	10.138000	4.035896
	10.140000	4.019779
	10.142000	3.955312
	10.144000	3.877952
	10.146000	3.800591
	10.148000	3.768357
	10.150000	3.784474
	10.152000	3.845718
	10.154000	3.939195
	10.156000	4.010109
	10.158000	4.045566
	10.160000	4.029449
	10.162000	3.968206
	10.164000	3.871505
	10.166000	3.803814
	10.168000	3.778027
	10.170000	3.787698
	10.172000	3.855388
	10.174000	3.942419
	10.176000	4.006886
	10.178000	4.048790
	10.180000	4.029449
	10.182000	3.964982
	10.184000	3.881175
	10.186000	3.807038
	10.188000	3.778027
	10.190000	3.790921
	10.192000	3.855388
	10.194000	3.945642
	10.196000	4.016556
	10.198000	4.052013
	10.200000	4.032673
	10.202000	3.968206
	10.204000	3.884398
	10.206000	3.807038
	10.208000	3.781251
	10.210000	3.794144
	10.212000	3.861835
	10.214000	3.952089
	10.216000	4.019779
	10.218000	4.058460
	10.220000	4.039120
	10.222000	3.971429
	10.224000	3.890845
	10.226000	3.816708
	10.228000	3.787698
	10.230000	3.800591
	10.232000	3.865058
	10.234000	3.952089
	10.236000	4.026226
	10.238000	4.061683
	10.240000	4.042343
	10.242000	3.974652
	10.244000	3.890845
	10.246000	3.819931
	10.248000	3.787698
	10.250000	3.803814
	10.252000	3.874728
	10.254000	3.955312
	10.256000	4.032673
	10.258000	4.064906
	10.260000	4.048790
	10.262000	3.981099
	10.264000	3.894068
	10.266000	3.829601
	10.268000	3.800591
	10.270000	3.816708
	10.272000	3.884398
	10.274000	3.968206
	10.276000	4.032673
	10.278000	4.064906
	10.280000	4.048790
	10.282000	3.977876
	10.284000	3.903738
	10.286000	3.832825
	10.288000	3.797368
	10.290000	3.816708
	10.292000	3.887622
	10.294000	3.968206
	10.296000	4.042343
	10.298000	4.071353
	10.300000	4.058460
	10.302000	3.987546
	10.304000	3.903738
	10.306000	3.839271
	10.308000	3.807038
	10.310000	3.826378
	10.312000	3.890845
	10.314000	3.977876
	10.316000	4.045566
	10.318000	4.077800
	10.320000	4.058460
	10.322000	3.993992
	10.324000	3.910185
	10.326000	3.845718
	10.328000	3.807038
	10.330000	3.832825
	10.332000	3.897292
	10.334000	3.977876
	10.336000	4.055236
	10.338000	4.087470
	10.340000	4.071353
	10.342000	4.003663
	10.344000	3.913409
	10.346000	3.845718
	10.348000	3.816708
	10.350000	3.836048
	10.352000	3.903738
	10.354000	3.981099
	10.356000	4.052013
	10.358000	4.087470
	10.360000	4.068130
	10.362000	4.000439
	10.364000	3.916632
	10.366000	3.848941
	10.368000	3.819931
	10.370000	3.836048
	10.372000	3.900515
	10.374000	3.990769
	10.376000	4.064906
	10.378000	4.090693
	10.380000	4.074576
	10.382000	4.010109
	10.384000	3.916632
	10.386000	3.852165
	10.388000	3.816708
	10.390000	3.842495
	10.392000	3.906962
	10.394000	3.993992
	10.396000	4.064906
	10.398000	4.097140
	10.400000	4.081023
	10.402000	4.006886
	10.404000	3.926302
	10.406000	3.861835
	10.408000	3.832825
	10.410000	3.852165
	10.412000	3.923079
	10.414000	4.000439
	10.416000	4.074576
	10.418000	4.110033
	10.420000	4.090693
	10.422000	4.019779
	10.424000	3.932749
	10.426000	3.871505
	10.428000	3.845718
	10.430000	3.858611
	10.432000	3.926302
	10.434000	4.019779
	10.436000	4.081023
	10.438000	4.119703
	10.440000	4.093917
	10.442000	4.019779
	10.444000	3.935972
	10.446000	3.868281
	10.448000	3.852165
	10.450000	3.868281
	10.452000	3.942419
	10.454000	4.023003
	10.456000	4.093917
	10.458000	4.122927
	10.460000	4.106810
	10.462000	4.032673
	10.464000	3.945642
	10.466000	3.884398
	10.468000	3.855388
	10.470000	3.874728
	10.472000	3.948865
	10.474000	4.029449
	10.476000	4.097140
	10.478000	4.132597
	10.480000	4.106810
	10.482000	4.035896
	10.484000	3.952089
	10.486000	3.887622
	10.488000	3.855388
	10.490000	3.881175
	10.492000	3.955312
	10.494000	4.035896
	10.496000	4.100363
	10.498000	4.132597
	10.500000	4.116480
	10.502000	4.045566
	10.504000	3.958536
	10.506000	3.894068
	10.508000	3.865058
	10.510000	3.881175
	10.512000	3.955312
	10.514000	4.042343
	10.516000	4.110033
	10.518000	4.139044
	10.520000	4.119703
	10.522000	4.048790
	10.524000	3.958536
	10.526000	3.897292
	10.528000	3.868281
	10.530000	3.887622
	10.532000	3.964982
	10.534000	4.048790
	10.536000	4.116480
	10.538000	4.151937
	10.540000	4.129374
	10.542000	4.058460
	10.544000	3.974652
	10.546000	3.906962
	10.548000	3.874728
	10.550000	3.903738
	10.552000	3.977876
	10.554000	4.058460
	10.556000	4.132597
	10.558000	4.158384
	10.560000	4.135820
	10.562000	4.064906
	10.564000	3.984322
	10.566000	3.913409
	10.568000	3.894068
	10.570000	3.910185
	10.572000	3.987546
	10.574000	4.074576
	10.576000	4.142267
	10.578000	4.177724
	10.580000	4.148714
	10.582000	4.077800
	10.584000	3.987546
	10.586000	3.926302
	10.588000	3.897292
	10.590000	3.919855
	10.592000	3.990769
	10.594000	4.081023
	10.596000	4.151937
	10.598000	4.180947
	10.600000	4.155160
	10.602000	4.081023
	10.604000	3.997216
	10.606000	3.932749
	10.608000	3.910185
	10.610000	3.926302
	10.612000	4.000439
	10.614000	4.087470
	10.616000	4.158384
	10.618000	4.177724
	10.620000	4.161607
	10.622000	4.087470
	10.624000	4.003663
	10.626000	3.935972
	10.628000	3.906962
	10.630000	3.935972
	10.632000	4.006886
	10.634000	4.087470
	10.636000	4.158384
	10.638000	4.184171
	10.640000	4.161607
	10.642000	4.090693
	10.644000	4.000439
	10.646000	3.929525
	10.648000	3.913409
	10.650000	3.939195
	10.652000	4.010109
	10.654000	4.097140
	10.656000	4.161607
	10.658000	4.184171
	10.660000	4.164831
	10.662000	4.087470
	10.664000	4.006886
	10.666000	3.932749
	10.668000	3.916632
	10.670000	3.935972
	10.672000	4.010109
	10.674000	4.097140
	10.676000	4.164831
	10.678000	4.193841
	10.680000	4.168054
	10.682000	4.100363
	10.684000	4.010109
	10.686000	3.942419
	10.688000	3.913409
	10.690000	3.939195
	10.692000	4.010109
	10.694000	4.103587
	10.696000	4.164831
	10.698000	4.187394
	10.700000	4.168054
	10.702000	4.097140
	10.704000	4.010109
	10.706000	3.945642
	10.708000	3.916632
	10.710000	3.942419
	10.712000	4.019779
	10.714000	4.100363
	10.716000	4.168054
	10.718000	4.193841
	10.720000	4.171277
	10.722000	4.100363
	10.724000	4.010109
	10.726000	3.939195
	10.728000	3.923079
	10.730000	3.945642
	10.732000	4.016556
	10.734000	4.113257
	10.736000	4.168054
	10.738000	4.200287
	10.740000	4.168054
	10.742000	4.097140
	10.744000	4.013333
	10.746000	3.945642
	10.748000	3.916632
	10.750000	3.948865
	10.752000	4.019779
	10.754000	4.110033
	10.756000	4.174501
	10.758000	4.197064
	10.760000	4.174501
	10.762000	4.097140
	10.764000	4.013333
	10.766000	3.948865
	10.768000	3.929525
	10.770000	3.952089
	10.772000	4.023003
	10.774000	4.122927
	10.776000	4.171277
	10.778000	4.203511
	10.780000	4.180947
	10.782000	4.110033
	10.784000	4.019779
	10.786000	3.955312
	10.788000	3.923079
	10.790000	3.945642
	10.792000	4.026226
	10.794000	4.113257
	10.796000	4.184171
	10.798000	4.206734
	10.800000	4.184171
	10.802000	4.106810
	10.804000	4.019779
	10.806000	3.958536
	10.808000	3.932749
	10.810000	3.961759
	10.812000	4.032673
	10.814000	4.126150
	10.816000	4.190617
	10.818000	4.213181
	10.820000	4.193841
	10.822000	4.116480
	10.824000	4.032673
	10.826000	3.968206
	10.828000	3.942419
	10.830000	3.974652
	10.832000	4.045566
	10.834000	4.126150
	10.836000	4.200287
	10.838000	4.222851
	10.840000	4.197064
	10.842000	4.116480
	10.844000	4.039120
	10.846000	3.971429
	10.848000	3.942419
	10.850000	3.974652
	10.852000	4.048790
	10.854000	4.135820
	10.856000	4.193841
	10.858000	4.222851
	10.860000	4.193841
	10.862000	4.126150
	10.864000	4.039120
	10.866000	3.974652
	10.868000	3.952089
	10.870000	3.974652
	10.872000	4.052013
	10.874000	4.135820
	10.876000	4.206734
	10.878000	4.222851
	10.880000	4.203511
	10.882000	4.119703
	10.884000	4.035896
	10.886000	3.974652
	10.888000	3.955312
	10.890000	3.971429
	10.892000	4.048790
	10.894000	4.139044
	10.896000	4.197064
	10.898000	4.219628
	10.900000	4.193841
	10.902000	4.116480
	10.904000	4.029449
	10.906000	3.974652
	10.908000	3.952089
	10.910000	3.974652
	10.912000	4.048790
	10.914000	4.142267
	10.916000	4.200287
	10.918000	4.226074
	10.920000	4.200287
	10.922000	4.119703
	10.924000	4.035896
	10.926000	3.971429
	10.928000	3.948865
	10.930000	3.981099
	10.932000	4.055236
	10.934000	4.132597
	10.936000	4.200287
	10.938000	4.229298
	10.940000	4.193841
	10.942000	4.119703
	10.944000	4.039120
	10.946000	3.974652
	10.948000	3.955312
	10.950000	3.981099
	10.952000	4.058460
	10.954000	4.142267
	10.956000	4.203511
	10.958000	4.232521
	10.960000	4.200287
	10.962000	4.122927
	10.964000	4.032673
	10.966000	3.964982
	10.968000	3.945642
	10.970000	3.971429
	10.972000	4.052013
	10.974000	4.142267
	10.976000	4.200287
	10.978000	4.216404
	10.980000	4.187394
	10.982000	4.110033
	10.984000	4.029449
	10.986000	3.964982
	10.988000	3.945642
	10.990000	3.971429
	10.992000	4.045566
	10.994000	4.129374
	10.996000	4.187394
	10.998000	4.213181
	11.000000	4.184171
	11.002000	4.103587
	11.004000	4.016556
	11.006000	3.952089
	11.008000	3.929525
	11.010000	3.964982
	11.012000	4.042343
	11.014000	4.129374
	11.016000	4.193841
	11.018000	4.209958
	11.020000	4.174501
	11.022000	4.103587
	11.024000	4.013333
	11.026000	3.945642
	11.028000	3.929525
	11.030000	3.952089
	11.032000	4.035896
	11.034000	4.126150
	11.036000	4.177724
	11.038000	4.203511
	11.040000	4.174501
	11.042000	4.093917
	11.044000	4.006886
	11.046000	3.945642
	11.048000	3.923079
	11.050000	3.948865
	11.052000	4.035896
	11.054000	4.119703
	11.056000	4.184171
	11.058000	4.200287
	11.060000	4.177724
	11.062000	4.097140
	11.064000	4.006886
	11.066000	3.945642
	11.068000	3.923079
	11.070000	3.955312
	11.072000	4.039120
	11.074000	4.113257
	11.076000	4.174501
	11.078000	4.203511
	11.080000	4.171277
	11.082000	4.093917
	11.084000	4.003663
	11.086000	3.942419
	11.088000	3.926302
	11.090000	3.958536
	11.092000	4.039120
	11.094000	4.122927
	11.096000	4.184171
	11.098000	4.209958
	11.100000	4.177724
	11.102000	4.106810
	11.104000	4.016556
	11.106000	3.955312
	11.108000	3.935972
	11.110000	3.968206
	11.112000	4.052013
	11.114000	4.135820
	11.116000	4.197064
	11.118000	4.219628
	11.120000	4.190617
	11.122000	4.116480
	11.124000	4.035896
	11.126000	3.971429
	11.128000	3.952089
	11.130000	3.987546
	11.132000	4.068130
	11.134000	4.155160
	11.136000	4.213181
	11.138000	4.238968
	11.140000	4.203511
	11.142000	4.132597
	11.144000	4.042343
	11.146000	3.984322
	11.148000	3.968206
	11.150000	3.997216
	11.152000	4.081023
	11.154000	4.171277
	11.156000	4.229298
	11.158000	4.251861
	11.160000	4.229298
	11.162000	4.148714
	11.164000	4.055236
	11.166000	4.000439
	11.168000	3.984322
	11.170000	4.023003
	11.172000	4.100363
	11.174000	4.193841
	11.176000	4.255085
	11.178000	4.267978
	11.180000	4.245414
	11.182000	4.168054
	11.184000	4.081023
	11.186000	4.019779
	11.188000	4.000439
	11.190000	4.032673
	11.192000	4.129374
	11.194000	4.209958
	11.196000	4.271201
	11.198000	4.293765
	11.200000	4.261531
	11.202000	4.177724
	11.204000	4.100363
	11.206000	4.042343
	11.208000	4.023003
	11.210000	4.064906
	11.212000	4.139044
	11.214000	4.222851
	11.216000	4.287318
	11.218000	4.306658
	11.220000	4.284095
	11.222000	4.206734
	11.224000	4.122927
	11.226000	4.064906
	11.228000	4.052013
	11.230000	4.084247
	11.232000	4.164831
	11.234000	4.255085
	11.236000	4.319552
	11.238000	4.335669
	11.240000	4.309882
	11.242000	4.232521
	11.244000	4.145490
	11.246000	4.090693
	11.248000	4.081023
	11.250000	4.116480
	11.252000	4.193841
	11.254000	4.277648
	11.256000	4.345339
	11.258000	4.371125
	11.260000	4.332445
	11.262000	4.258308
	11.264000	4.171277
	11.266000	4.119703
	11.268000	4.103587
	11.270000	4.139044
	11.272000	4.216404
	11.274000	4.306658
	11.276000	4.364679
	11.278000	4.390466
	11.280000	4.361455
	11.282000	4.274425
	11.284000	4.197064
	11.286000	4.135820
	11.288000	4.126150
	11.290000	4.158384
	11.292000	4.235744
	11.294000	4.325998
	11.296000	4.390466
	11.298000	4.413029
	11.300000	4.377572
	11.302000	4.296988
	11.304000	4.216404
	11.306000	4.158384
	11.308000	4.145490
	11.310000	4.177724
	11.312000	4.258308
	11.314000	4.345339
	11.316000	4.403359
	11.318000	4.425923
	11.320000	4.396912
	11.322000	4.316328
	11.324000	4.235744
	11.326000	4.174501
	11.328000	4.158384
	11.330000	4.197064
	11.332000	4.267978
	11.334000	4.364679
	11.336000	4.419476
	11.338000	4.442039
	11.340000	4.409806
	11.342000	4.335669
	11.344000	4.248638
	11.346000	4.190617
	11.348000	4.177724
	11.350000	4.209958
	11.352000	4.290542
	11.354000	4.374349
	11.356000	4.438816
	11.358000	4.454933
	11.360000	4.429146
	11.362000	4.345339
	11.364000	4.267978
	11.366000	4.197064
	11.368000	4.190617
	11.370000	4.222851
	11.372000	4.309882
	11.374000	4.393689
	11.376000	4.458156
	11.378000	4.474273
	11.380000	4.445263
	11.382000	4.371125
	11.384000	4.277648
	11.386000	4.219628
	11.388000	4.206734
	11.390000	4.238968
	11.392000	4.319552
	11.394000	4.413029
	11.396000	4.467826
	11.398000	4.483943
	11.400000	4.454933
	11.402000	4.374349
	11.404000	4.287318
	11.406000	4.232521
	11.408000	4.216404
	11.410000	4.245414
	11.412000	4.335669
	11.414000	4.413029
	11.416000	4.474273
	11.418000	4.490390
	11.420000	4.454933
	11.422000	4.377572
	11.424000	4.293765
	11.426000	4.232521
	11.428000	4.222851
	11.430000	4.251861
	11.432000	4.335669
	11.434000	4.416253
	11.436000	4.480720
	11.438000	4.496836
	11.440000	4.461380
	11.442000	4.377572
	11.444000	4.296988
	11.446000	4.235744
	11.448000	4.226074
	11.450000	4.258308
	11.452000	4.338892
	11.454000	4.432369
	11.456000	4.487166
	11.458000	4.496836
	11.460000	4.474273
	11.462000	4.390466
	11.464000	4.306658
	11.466000	4.251861
	11.468000	4.238968
	11.470000	4.277648
	11.472000	4.361455
	11.474000	4.442039
	11.476000	4.503283
	11.478000	4.519400
	11.480000	4.483943
	11.482000	4.403359
	11.484000	4.316328
	11.486000	4.261531
	11.488000	4.242191
	11.490000	4.277648
	11.492000	4.364679
	11.494000	4.448486
	11.496000	4.506507
	11.498000	4.525847
	11.500000	4.487166
	11.502000	4.406582
	11.504000	4.322775
	11.506000	4.264755
	11.508000	4.248638
	11.510000	4.284095
	11.512000	4.364679
	11.514000	4.454933
	11.516000	4.512953
	11.518000	4.529070
	11.520000	4.487166
	11.522000	4.413029
	11.524000	4.335669
	11.526000	4.267978
	11.528000	4.258308
	11.530000	4.290542
	11.532000	4.374349
	11.534000	4.461380
	11.536000	4.519400
	11.538000	4.529070
	11.540000	4.490390
	11.542000	4.413029
	11.544000	4.325998
	11.546000	4.274425
	11.548000	4.261531
	11.550000	4.293765
	11.552000	4.377572
	11.554000	4.464603
	11.556000	4.512953
	11.558000	4.532293
	11.560000	4.496836
	11.562000	4.416253
	11.564000	4.329222
	11.566000	4.274425
	11.568000	4.255085
	11.570000	4.300212
	11.572000	4.377572
	11.574000	4.458156
	11.576000	4.516177
	11.578000	4.525847
	11.580000	4.493613
	11.582000	4.406582
	11.584000	4.325998
	11.586000	4.274425
	11.588000	4.258308
	11.590000	4.293765
	11.592000	4.377572
	11.594000	4.461380
	11.596000	4.519400
	11.598000	4.532293
	11.600000	4.493613
	11.602000	4.413029
	11.604000	4.325998
	11.606000	4.264755
	11.608000	4.255085
	11.610000	4.290542
	11.612000	4.374349
	11.614000	4.454933
	11.616000	4.516177
	11.618000	4.529070
	11.620000	4.493613
	11.622000	4.416253
	11.624000	4.325998
	11.626000	4.271201
	11.628000	4.255085
	11.630000	4.296988
	11.632000	4.377572
	11.634000	4.461380
	11.636000	4.519400
	11.638000	4.529070
	11.640000	4.493613
	11.642000	4.413029
	11.644000	4.325998
	11.646000	4.277648
	11.648000	4.261531
	11.650000	4.293765
	11.652000	4.380796
	11.654000	4.464603
	11.656000	4.522623
	11.658000	4.538740
	11.660000	4.493613
	11.662000	4.413029
	11.664000	4.332445
	11.666000	4.274425
	11.668000	4.261531
	11.670000	4.306658
	11.672000	4.380796
	11.674000	4.474273
	11.676000	4.525847
	11.678000	4.538740
	11.680000	4.500060
	11.682000	4.425923
	11.684000	4.342115
	11.686000	4.287318
	11.688000	4.277648
	11.690000	4.319552
	11.692000	4.400136
	11.694000	4.480720
	11.696000	4.538740
	11.698000	4.554857
	11.700000	4.512953
	11.702000	4.435593
	11.704000	4.351785
	11.706000	4.293765
	11.708000	4.277648
	11.710000	4.316328
	11.712000	4.396912
	11.714000	4.483943
	11.716000	4.541964
	11.718000	4.554857
	11.720000	4.516177
	11.722000	4.435593
	11.724000	4.358232
	11.726000	4.296988
	11.728000	4.293765
	11.730000	4.325998
	11.732000	4.403359
	11.734000	4.490390
	11.736000	4.545187
	11.738000	4.561304
	11.740000	4.522623
	11.742000	4.442039
	11.744000	4.355009
	11.746000	4.300212
	11.748000	4.287318
	11.750000	4.325998
	11.752000	4.413029
	11.754000	4.493613
	11.756000	4.551634
	11.758000	4.564527
	11.760000	4.525847
	11.762000	4.445263
	11.764000	4.358232
	11.766000	4.303435
	11.768000	4.290542
	11.770000	4.332445
	11.772000	4.416253
	11.774000	4.493613
	11.776000	4.548410
	11.778000	4.567750
	11.780000	4.529070
	11.782000	4.445263
	11.784000	4.367902
	11.786000	4.303435
	11.788000	4.300212
	11.790000	4.332445
	11.792000	4.413029
	11.794000	4.503283
	11.796000	4.558080
	11.798000	4.564527
	11.800000	4.529070
	11.802000	4.451709
	11.804000	4.364679
	11.806000	4.313105
	11.808000	4.303435
	11.810000	4.348562
	11.812000	4.425923
	11.814000	4.522623
	11.816000	4.577420
	11.818000	4.590314
	11.820000	4.554857
	11.822000	4.480720
	11.824000	4.396912
	11.826000	4.345339
	11.828000	4.338892
	11.830000	4.384019
	11.832000	4.474273
	11.834000	4.558080
	11.836000	4.622547
	11.838000	4.635441
	11.840000	4.599984
	11.842000	4.522623
	11.844000	4.448486
	11.846000	4.396912
	11.848000	4.393689
	11.850000	4.435593
	11.852000	4.522623
	11.854000	4.603207
	11.856000	4.670898
	11.858000	4.680568
	11.860000	4.651558
	11.862000	4.570974
	11.864000	4.493613
	11.866000	4.445263
	11.868000	4.435593
	11.870000	4.477496
	11.872000	4.558080
	11.874000	4.645111
	11.876000	4.709578
	11.878000	4.719248
	11.880000	4.680568
	11.882000	4.606431
	11.884000	4.522623
	11.886000	4.477496
	11.888000	4.467826
	11.890000	4.506507
	11.892000	4.590314
	11.894000	4.667675
	11.896000	4.732142
	11.898000	4.738588
	11.900000	4.703131
	11.902000	4.625771
	11.904000	4.545187
	11.906000	4.490390
	11.908000	4.480720
	11.910000	4.522623
	11.912000	4.606431
	11.914000	4.683791
	11.916000	4.751482
	11.918000	4.761152
	11.920000	4.722472
	11.922000	4.641888
	11.924000	4.561304
	11.926000	4.509730
	11.928000	4.493613
	11.930000	4.535517
	11.932000	4.612877
	11.934000	4.699908
	11.936000	4.754705
	11.938000	4.767599
	11.940000	4.728918
	11.942000	4.645111
	11.944000	4.561304
	11.946000	4.509730
	11.948000	4.496836
	11.950000	4.532293
	11.952000	4.612877
	11.954000	4.706355
	11.956000	4.751482
	11.958000	4.764375
	11.960000	4.725695
	11.962000	4.645111
	11.964000	4.567750
	11.966000	4.506507
	11.968000	4.490390
	11.970000	4.532293
	11.972000	4.616101
	11.974000	4.696685
	11.976000	4.757929
	11.978000	4.761152
	11.980000	4.722472
	11.982000	4.638664
	11.984000	4.551634
	11.986000	4.496836
	11.988000	4.493613
	11.990000	4.529070
	11.992000	4.609654
	11.994000	4.693461
	11.996000	4.751482
	11.998000	4.757929
	12.000000	4.722472
	12.002000	4.632218
	12.004000	4.551634
	12.006000	4.493613
	12.008000	4.483943
	12.010000	4.522623
	12.012000	4.609654
	12.014000	4.687015
	12.016000	4.741812
	12.018000	4.748258
	12.020000	4.703131
	12.022000	4.625771
	12.024000	4.541964
	12.026000	4.487166
	12.028000	4.480720
	12.030000	4.519400
	12.032000	4.599984
	12.034000	4.680568
	12.036000	4.732142
	12.038000	4.738588
	12.040000	4.699908
	12.042000	4.616101
	12.044000	4.535517
	12.046000	4.480720
	12.048000	4.471050
	12.050000	4.512953
	12.052000	4.583867
	12.054000	4.670898
	12.056000	4.716025
	12.058000	4.732142
	12.060000	4.690238
	12.062000	4.606431
	12.064000	4.525847
	12.066000	4.474273
	12.068000	4.461380
	12.070000	4.503283
	12.072000	4.583867
	12.074000	4.661228
	12.076000	4.722472
	12.078000	4.725695
	12.080000	4.683791
	12.082000	4.606431
	12.084000	4.519400
	12.086000	4.461380
	12.088000	4.454933
	12.090000	4.493613
	12.092000	4.577420
	12.094000	4.658004
	12.096000	4.709578
	12.098000	4.722472
	12.100000	4.677345
	12.102000	4.593537
	12.104000	4.512953
	12.106000	4.454933
	12.108000	4.442039
	12.110000	4.487166
	12.112000	4.570974
	12.114000	4.651558
	12.116000	4.703131
	12.118000	4.709578
	12.120000	4.670898
	12.122000	4.587091
	12.124000	4.503283
	12.126000	4.451709
	12.128000	4.435593
	12.130000	4.477496
	12.132000	4.564527
	12.134000	4.638664
	12.136000	4.696685
	12.138000	4.706355
	12.140000	4.661228
	12.142000	4.577420
	12.144000	4.493613
	12.146000	4.445263
	12.148000	4.435593
	12.150000	4.471050
	12.152000	4.551634
	12.154000	4.638664
	12.156000	4.690238
	12.158000	4.693461
	12.160000	4.645111
	12.162000	4.564527
	12.164000	4.483943
	12.166000	4.429146
	12.168000	4.419476
	12.170000	4.464603
	12.172000	4.545187
	12.174000	4.625771
	12.176000	4.683791
	12.178000	4.687015
	12.180000	4.641888
	12.182000	4.564527
	12.184000	4.480720
	12.186000	4.422699
	12.188000	4.416253
	12.190000	4.454933
	12.192000	4.541964
	12.194000	4.622547
	12.196000	4.677345
	12.198000	4.680568
	12.200000	4.632218
	12.202000	4.558080
	12.204000	4.471050
	12.206000	4.419476
	12.208000	4.413029
	12.210000	4.454933
	12.212000	4.532293
	12.214000	4.612877
	12.216000	4.664451
	12.218000	4.674121
	12.220000	4.625771
	12.222000	4.541964
	12.224000	4.458156
	12.226000	4.403359
	12.228000	4.396912
	12.230000	4.442039
	12.232000	4.529070
	12.234000	4.606431
	12.236000	4.654781
	12.238000	4.664451
	12.240000	4.619324
	12.242000	4.532293
	12.244000	4.448486
	12.246000	4.396912
	12.248000	4.384019
	12.250000	4.429146
	12.252000	4.509730
	12.254000	4.583867
	12.256000	4.635441
	12.258000	4.641888
	12.260000	4.593537
	12.262000	4.509730
	12.264000	4.432369
	12.266000	4.377572
	12.268000	4.364679
	12.270000	4.403359
	12.272000	4.487166
	12.274000	4.564527
	12.276000	4.609654
	12.278000	4.619324
	12.280000	4.564527
	12.282000	4.487166
	12.284000	4.403359
	12.286000	4.345339
	12.288000	4.335669
	12.290000	4.374349
	12.292000	4.448486
	12.294000	4.535517
	12.296000	4.580644
	12.298000	4.583867
	12.300000	4.535517
	12.302000	4.442039
	12.304000	4.364679
	12.306000	4.313105
	12.308000	4.303435
	12.310000	4.342115
	12.312000	4.416253
	12.314000	4.493613
	12.316000	4.554857
	12.318000	4.551634
	12.320000	4.503283
	12.322000	4.419476
	12.324000	4.345339
	12.326000	4.290542
	12.328000	4.277648
	12.330000	4.332445
	12.332000	4.403359
	12.334000	4.487166
	12.336000	4.535517
	12.338000	4.545187
	12.340000	4.493613
	12.342000	4.403359
	12.344000	4.329222
	12.346000	4.280871
	12.348000	4.271201
	12.350000	4.316328
	12.352000	4.396912
	12.354000	4.474273
	12.356000	4.529070
	12.358000	4.522623
	12.360000	4.477496
	12.362000	4.387242
	12.364000	4.313105
	12.366000	4.255085
	12.368000	4.255085
	12.370000	4.300212
	12.372000	4.374349
	12.374000	4.458156
	12.376000	4.506507
	12.378000	4.503283
	12.380000	4.458156
	12.382000	4.380796
	12.384000	4.287318
	12.386000	4.242191
	12.388000	4.235744
	12.390000	4.284095
	12.392000	4.364679
	12.394000	4.442039
	12.396000	4.487166
	12.398000	4.487166
	12.400000	4.435593
	12.402000	4.355009
	12.404000	4.277648
	12.406000	4.232521
	12.408000	4.219628
	12.410000	4.264755
	12.412000	4.348562
	12.414000	4.425923
	12.416000	4.477496
	12.418000	4.474273
	12.420000	4.422699
	12.422000	4.332445
	12.424000	4.258308
	12.426000	4.209958
	12.428000	4.206734
	12.430000	4.255085
	12.432000	4.335669
	12.434000	4.409806
	12.436000	4.461380
	12.438000	4.461380
	12.440000	4.406582
	12.442000	4.322775
	12.444000	4.242191
	12.446000	4.193841
	12.448000	4.187394
	12.450000	4.238968
	12.452000	4.325998
	12.454000	4.393689
	12.456000	4.448486
	12.458000	4.448486
	12.460000	4.390466
	12.462000	4.313105
	12.464000	4.229298
	12.466000	4.184171
	12.468000	4.177724
	12.470000	4.235744
	12.472000	4.313105
	12.474000	4.390466
	12.476000	4.435593
	12.478000	4.438816
	12.480000	4.384019
	12.482000	4.296988
	12.484000	4.219628
	12.486000	4.171277
	12.488000	4.168054
	12.490000	4.213181
	12.492000	4.293765
	12.494000	4.380796
	12.496000	4.419476
	12.498000	4.419476
	12.500000	4.361455
	12.502000	4.277648
	12.504000	4.203511
	12.506000	4.148714
	12.508000	4.148714
	12.510000	4.200287
	12.512000	4.280871
	12.514000	4.358232
	12.516000	4.403359
	12.518000	4.400136
	12.520000	4.338892
	12.522000	4.261531
	12.524000	4.177724
	12.526000	4.129374
	12.528000	4.122927
	12.530000	4.174501
	12.532000	4.255085
	12.534000	4.332445
	12.536000	4.371125
	12.538000	4.371125
	12.540000	4.319552
	12.542000	4.229298
	12.544000	4.151937
	12.546000	4.103587
	12.548000	4.106810
	12.550000	4.158384
	12.552000	4.238968
	12.554000	4.309882
	12.556000	4.351785
	12.558000	4.345339
	12.560000	4.287318
	12.562000	4.203511
	12.564000	4.129374
	12.566000	4.074576
	12.568000	4.077800
	12.570000	4.129374
	12.572000	4.213181
	12.574000	4.284095
	12.576000	4.325998
	12.578000	4.322775
	12.580000	4.258308
	12.582000	4.174501
	12.584000	4.097140
	12.586000	4.055236
	12.588000	4.048790
	12.590000	4.100363
	12.592000	4.184171
	12.594000	4.255085
	12.596000	4.296988
	12.598000	4.284095
	12.600000	4.229298
	12.602000	4.142267
	12.604000	4.068130
	12.606000	4.019779
	12.608000	4.023003
	12.610000	4.074576
	12.612000	4.155160
	12.614000	4.229298
	12.616000	4.271201
	12.618000	4.267978
	12.620000	4.206734
	12.622000	4.126150
	12.624000	4.042343
	12.626000	4.006886
	12.628000	4.003663
	12.630000	4.064906
	12.632000	4.139044
	12.634000	4.216404
	12.636000	4.258308
	12.638000	4.245414
	12.640000	4.190617
	12.642000	4.103587
	12.644000	4.032673
	12.646000	3.984322
	12.648000	3.993992
	12.650000	4.039120
	12.652000	4.122927
	12.654000	4.200287
	12.656000	4.238968
	12.658000	4.235744
	12.660000	4.174501
	12.662000	4.093917
	12.664000	4.013333
	12.666000	3.971429
	12.668000	3.981099
	12.670000	4.035896
	12.672000	4.119703
	12.674000	4.193841
	12.676000	4.232521
	12.678000	4.226074
	12.680000	4.164831
	12.682000	4.081023
	12.684000	4.003663
	12.686000	3.958536
	12.688000	3.964982
	12.690000	4.026226
	12.692000	4.106810
	12.694000	4.184171
	12.696000	4.219628
	12.698000	4.213181
	12.700000	4.155160
	12.702000	4.068130
	12.704000	3.993992
	12.706000	3.952089
	12.708000	3.964982
	12.710000	4.019779
	12.712000	4.106810
	12.714000	4.174501
	12.716000	4.219628
	12.718000	4.213181
	12.720000	4.151937
	12.722000	4.064906
	12.724000	3.993992
	12.726000	3.961759
	12.728000	3.964982
	12.730000	4.026226
	12.732000	4.106810
	12.734000	4.184171
	12.736000	4.229298
	12.738000	4.216404
	12.740000	4.158384
	12.742000	4.074576
	12.744000	4.000439
	12.746000	3.961759
	12.748000	3.974652
	12.750000	4.035896
	12.752000	4.122927
	12.754000	4.197064
	12.756000	4.238968
	12.758000	4.229298
	12.760000	4.164831
	12.762000	4.081023
	12.764000	4.010109
	12.766000	3.971429
	12.768000	3.984322
	12.770000	4.042343
	12.772000	4.129374
	12.774000	4.209958
	12.776000	4.242191
	12.778000	4.235744
	12.780000	4.168054
	12.782000	4.093917
	12.784000	4.019779
	12.786000	3.977876
	12.788000	3.993992
	12.790000	4.055236
	12.792000	4.145490
	12.794000	4.219628
	12.796000	4.261531
	12.798000	4.248638
	12.800000	4.190617
	12.802000	4.100363
	12.804000	4.029449
	12.806000	3.997216
	12.808000	4.010109
	12.810000	4.071353
	12.812000	4.158384
	12.814000	4.235744
	12.816000	4.271201
	12.818000	4.261531
	12.820000	4.200287
	12.822000	4.119703
	12.824000	4.042343
	12.826000	4.006886
	12.828000	4.019779
	12.830000	4.090693
	12.832000	4.174501
	12.834000	4.242191
	12.836000	4.284095
	12.838000	4.274425
	12.840000	4.213181
	12.842000	4.132597
	12.844000	4.068130
	12.846000	4.029449
	12.848000	4.035896
	12.850000	4.100363
	12.852000	4.184171
	12.854000	4.258308
	12.856000	4.300212
	12.858000	4.290542
	12.860000	4.222851
	12.862000	4.145490
	12.864000	4.074576
	12.866000	4.039120
	12.868000	4.055236
	12.870000	4.113257
	12.872000	4.203511
	12.874000	4.274425
	12.876000	4.316328
	12.878000	4.303435
	12.880000	4.248638
	12.882000	4.155160
	12.884000	4.090693
	12.886000	4.048790
	12.888000	4.071353
	12.890000	4.135820
	12.892000	4.216404
	12.894000	4.284095
	12.896000	4.332445
	12.898000	4.319552
	12.900000	4.251861
	12.902000	4.171277
	12.904000	4.097140
	12.906000	4.064906
	12.908000	4.074576
	12.910000	4.142267
	12.912000	4.226074
	12.914000	4.300212
	12.916000	4.335669
	12.918000	4.325998
	12.920000	4.267978
	12.922000	4.177724
	12.924000	4.106810
	12.926000	4.074576
	12.928000	4.090693
	12.930000	4.151937
	12.932000	4.242191
	12.934000	4.309882
	12.936000	4.351785
	12.938000	4.335669
	12.940000	4.271201
	12.942000	4.190617
	12.944000	4.119703
	12.946000	4.087470
	12.948000	4.103587
	12.950000	4.164831
	12.952000	4.255085
	12.954000	4.329222
	12.956000	4.364679
	12.958000	4.351785
	12.960000	4.290542
	12.962000	4.203511
	12.964000	4.135820
	12.966000	4.103587
	12.968000	4.119703
	12.970000	4.184171
	12.972000	4.271201
	12.974000	4.348562
	12.976000	4.377572
	12.978000	4.374349
	12.980000	4.306658
	12.982000	4.222851
	12.984000	4.148714
	12.986000	4.116480
	12.988000	4.135820
	12.990000	4.197064
	12.992000	4.287318
	12.994000	4.364679
	12.996000	4.400136
	12.998000	4.387242
	13.000000	4.313105
	13.002000	4.235744
	13.004000	4.161607
	13.006000	4.126150
	13.008000	4.155160
	13.010000	4.213181
	13.012000	4.300212
	13.014000	4.374349
	13.016000	4.403359
	13.018000	4.396912
	13.020000	4.329222
	13.022000	4.245414
	13.024000	4.177724
	13.026000	4.148714
	13.028000	4.161607
	13.030000	4.229298
	13.032000	4.316328
	13.034000	4.393689
	13.036000	4.422699
	13.038000	4.406582
	13.040000	4.345339
	13.042000	4.264755
	13.044000	4.193841
	13.046000	4.164831
	13.048000	4.180947
	13.050000	4.248638
	13.052000	4.335669
	13.054000	4.406582
	13.056000	4.438816
	13.058000	4.429146
	13.060000	4.358232
	13.062000	4.274425
	13.064000	4.209958
	13.066000	4.177724
	13.068000	4.190617
	13.070000	4.261531
	13.072000	4.348562
	13.074000	4.422699
	13.076000	4.458156
	13.078000	4.438816
	13.080000	4.374349
	13.082000	4.293765
	13.084000	4.226074
	13.086000	4.197064
	13.088000	4.213181
	13.090000	4.284095
	13.092000	4.367902
	13.094000	4.442039
	13.096000	4.480720
	13.098000	4.454933
	13.100000	4.390466
	13.102000	4.313105
	13.104000	4.235744
	13.106000	4.216404
	13.108000	4.229298
	13.110000	4.296988
	13.112000	4.384019
	13.114000	4.461380
	13.116000	4.490390
	13.118000	4.480720
	13.120000	4.409806
	13.122000	4.319552
	13.124000	4.255085
	13.126000	4.229298
	13.128000	4.248638
	13.130000	4.319552
	13.132000	4.396912
	13.134000	4.477496
	13.136000	4.506507
	13.138000	4.487166
	13.140000	4.419476
	13.142000	4.338892
	13.144000	4.271201
	13.146000	4.245414
	13.148000	4.258308
	13.150000	4.325998
	13.152000	4.413029
	13.154000	4.487166
	13.156000	4.522623
	13.158000	4.503283
	13.160000	4.435593
	13.162000	4.351785
	13.164000	4.284095
	13.166000	4.258308
	13.168000	4.274425
	13.170000	4.348562
	13.172000	4.435593
	13.174000	4.509730
	13.176000	4.535517
	13.178000	4.519400
	13.180000	4.448486
	13.182000	4.371125
	13.184000	4.296988
	13.186000	4.264755
	13.188000	4.290542
	13.190000	4.367902
	13.192000	4.442039
	13.194000	4.522623
	13.196000	4.551634
	13.198000	4.535517
	13.200000	4.461380
	13.202000	4.387242
	13.204000	4.319552
	13.206000	4.293765
	13.208000	4.309882
	13.210000	4.377572
	13.212000	4.461380
	13.214000	4.545187
	13.216000	4.570974
	13.218000	4.554857
	13.220000	4.480720
	13.222000	4.396912
	13.224000	4.335669
	13.226000	4.309882
	13.228000	4.325998
	13.230000	4.396912
	13.232000	4.483943
	13.234000	4.554857
	13.236000	4.587091
	13.238000	4.567750
	13.240000	4.496836
	13.242000	4.416253
	13.244000	4.342115
	13.246000	4.322775
	13.248000	4.338892
	13.250000	4.409806
	13.252000	4.500060
	13.254000	4.567750
	13.256000	4.599984
	13.258000	4.580644
	13.260000	4.516177
	13.262000	4.425923
	13.264000	4.364679
	13.266000	4.332445
	13.268000	4.361455
	13.270000	4.432369
	13.272000	4.519400
	13.274000	4.583867
	13.276000	4.616101
	13.278000	4.596761
	13.280000	4.529070
	13.282000	4.448486
	13.284000	4.377572
	13.286000	4.355009
	13.288000	4.371125
	13.290000	4.445263
	13.292000	4.532293
	13.294000	4.599984
	13.296000	4.625771
	13.298000	4.609654
	13.300000	4.535517
	13.302000	4.451709
	13.304000	4.390466
	13.306000	4.358232
	13.308000	4.384019
	13.310000	4.458156
	13.312000	4.538740
	13.314000	4.612877
	13.316000	4.648334
	13.318000	4.622547
	13.320000	4.548410
	13.322000	4.464603
	13.324000	4.393689
	13.326000	4.371125
	13.328000	4.396912
	13.330000	4.464603
	13.332000	4.554857
	13.334000	4.622547
	13.336000	4.651558
	13.338000	4.628994
	13.340000	4.558080
	13.342000	4.474273
	13.344000	4.413029
	13.346000	4.384019
	13.348000	4.403359
	13.350000	4.474273
	13.352000	4.567750
	13.354000	4.638664
	13.356000	4.658004
	13.358000	4.641888
	13.360000	4.570974
	13.362000	4.487166
	13.364000	4.416253
	13.366000	4.393689
	13.368000	4.419476
	13.370000	4.487166
	13.372000	4.577420
	13.374000	4.648334
	13.376000	4.677345
	13.378000	4.648334
	13.380000	4.583867
	13.382000	4.490390
	13.384000	4.425923
	13.386000	4.406582
	13.388000	4.429146
	13.390000	4.503283
	13.392000	4.587091
	13.394000	4.651558
	13.396000	4.680568
	13.398000	4.654781
	13.400000	4.590314
	13.402000	4.500060
	13.404000	4.442039
	13.406000	4.416253
	13.408000	4.435593
	13.410000	4.509730
	13.412000	4.593537
	13.414000	4.661228
	13.416000	4.696685
	13.418000	4.674121
	13.420000	4.593537
	13.422000	4.516177
	13.424000	4.445263
	13.426000	4.422699
	13.428000	4.445263
	13.430000	4.519400
	13.432000	4.606431
	13.434000	4.674121
	13.436000	4.699908
	13.438000	4.680568
	13.440000	4.603207
	13.442000	4.522623
	13.444000	4.458156
	13.446000	4.435593
	13.448000	4.454933
	13.450000	4.529070
	13.452000	4.616101
	13.454000	4.687015
	13.456000	4.716025
	13.458000	4.690238
	13.460000	4.612877
	13.462000	4.529070
	13.464000	4.467826
	13.466000	4.435593
	13.468000	4.464603
	13.470000	4.538740
	13.472000	4.625771
	13.474000	4.693461
	13.476000	4.719248
	13.478000	4.693461
	13.480000	4.625771
	13.482000	4.538740
	13.484000	4.474273
	13.486000	4.451709
	13.488000	4.477496
	13.490000	4.551634
	13.492000	4.638664
	13.494000	4.699908
	13.496000	4.728918
	13.498000	4.703131
	13.500000	4.628994
	13.502000	4.548410
	13.504000	4.477496
	13.506000	4.454933
	13.508000	4.480720
	13.510000	4.551634
	13.512000	4.638664
	13.514000	4.703131
	13.516000	4.732142
	13.518000	4.706355
	13.520000	4.632218
	13.522000	4.551634
	13.524000	4.480720
	13.526000	4.454933
	13.528000	4.483943
	13.530000	4.561304
	13.532000	4.645111
	13.534000	4.709578
	13.536000	4.738588
	13.538000	4.712802
	13.540000	4.635441
	13.542000	4.551634
	13.544000	4.487166
	13.546000	4.464603
	13.548000	4.487166
	13.550000	4.567750
	13.552000	4.648334
	13.554000	4.712802
	13.556000	4.738588
	13.558000	4.712802
	13.560000	4.641888
	13.562000	4.554857
	13.564000	4.490390
	13.566000	4.471050
	13.568000	4.493613
	13.570000	4.567750
	13.572000	4.658004
	13.574000	4.719248
	13.576000	4.745035
	13.578000	4.719248
	13.580000	4.645111
	13.582000	4.561304
	13.584000	4.496836
	13.586000	4.477496
	13.588000	4.496836
	13.590000	4.574197
	13.592000	4.661228
	13.594000	4.725695
	13.596000	4.751482
	13.598000	4.722472
	13.600000	4.648334
	13.602000	4.564527
	13.604000	4.500060
	13.606000	4.477496
	13.608000	4.503283
	13.610000	4.580644
	13.612000	4.670898
	13.614000	4.732142
	13.616000	4.751482
	13.618000	4.722472
	13.620000	4.645111
	13.622000	4.564527
	13.624000	4.500060
	13.626000	4.480720
	13.628000	4.500060
	13.630000	4.583867
	13.632000	4.670898
	13.634000	4.728918
	13.636000	4.751482
	13.638000	4.725695
	13.640000	4.651558
	13.642000	4.564527
	13.644000	4.500060
	13.646000	4.480720
	13.648000	4.512953
	13.650000	4.590314
	13.652000	4.670898
	13.654000	4.735365
	13.656000	4.761152
	13.658000	4.735365
	13.660000	4.664451
	13.662000	4.570974
	13.664000	4.509730
	13.666000	4.490390
	13.668000	4.522623
	13.670000	4.593537
	13.672000	4.677345
	13.674000	4.748258
	13.676000	4.764375
	13.678000	4.748258
	13.680000	4.667675
	13.682000	4.583867
	13.684000	4.519400
	13.686000	4.500060
	13.688000	4.529070
	13.690000	4.603207
	13.692000	4.693461
	13.694000	4.757929
	13.696000	4.777269
	13.698000	4.751482
	13.700000	4.677345
	13.702000	4.590314
	13.704000	4.538740
	13.706000	4.509730
	13.708000	4.541964
	13.710000	4.616101
	13.712000	4.706355
	13.714000	4.770822
	13.716000	4.790162
	13.718000	4.761152
	13.720000	4.680568
	13.722000	4.596761
	13.724000	4.538740
	13.726000	4.516177
	13.728000	4.548410
	13.730000	4.625771
	13.732000	4.712802
	13.734000	4.774045
	13.736000	4.796609
	13.738000	4.767599
	13.740000	4.693461
	13.742000	4.606431
	13.744000	4.548410
	13.746000	4.525847
	13.748000	4.558080
	13.750000	4.641888
	13.752000	4.725695
	13.754000	4.790162
	13.756000	4.806279
	13.758000	4.780492
	13.760000	4.693461
	13.762000	4.609654
	13.764000	4.554857
	13.766000	4.532293
	13.768000	4.558080
	13.770000	4.638664
	13.772000	4.728918
	13.774000	4.790162
	13.776000	4.809502
	13.778000	4.780492
	13.780000	4.706355
	13.782000	4.622547
	13.784000	4.554857
	13.786000	4.541964
	13.788000	4.574197
	13.790000	4.651558
	13.792000	4.741812
	13.794000	4.803056
	13.796000	4.825619
	13.798000	4.793386
	13.800000	4.716025
	13.802000	4.625771
	13.804000	4.567750
	13.806000	4.548410
	13.808000	4.580644
	13.810000	4.658004
	13.812000	4.748258
	13.814000	4.806279
	13.816000	4.828842
	13.818000	4.799832
	13.820000	4.719248
	13.822000	4.635441
	13.824000	4.577420
	13.826000	4.564527
	13.828000	4.590314
	13.830000	4.667675
	13.832000	4.754705
	13.834000	4.812726
	13.836000	4.835289
	13.838000	4.806279
	13.840000	4.725695
	13.842000	4.641888
	13.844000	4.583867
	13.846000	4.558080
	13.848000	4.593537
	13.850000	4.674121
	13.852000	4.757929
	13.854000	4.825619
	13.856000	4.844959
	13.858000	4.809502
	13.860000	4.732142
	13.862000	4.651558
	13.864000	4.590314
	13.866000	4.570974
	13.868000	4.606431
	13.870000	4.683791
	13.872000	4.774045
	13.874000	4.832066
	13.876000	4.851406
	13.878000	4.828842
	13.880000	4.748258
	13.882000	4.661228
	13.884000	4.603207
	13.886000	4.583867
	13.888000	4.616101
	13.890000	4.696685
	13.892000	4.783715
	13.894000	4.844959
	13.896000	4.867523
	13.898000	4.838513
	13.900000	4.757929
	13.902000	4.667675
	13.904000	4.609654
	13.906000	4.590314
	13.908000	4.625771
	13.910000	4.703131
	13.912000	4.793386
	13.914000	4.854629
	13.916000	4.867523
	13.918000	4.844959
	13.920000	4.767599
	13.922000	4.677345
	13.924000	4.616101
	13.926000	4.599984
	13.928000	4.638664
	13.930000	4.716025
	13.932000	4.809502
	13.934000	4.870746
	13.936000	4.880416
	13.938000	4.861076
	13.940000	4.777269
	13.942000	4.696685
	13.944000	4.635441
	13.946000	4.616101
	13.948000	4.651558
	13.950000	4.728918
	13.952000	4.815949
	13.954000	4.883640
	13.956000	4.899756
	13.958000	4.861076
	13.960000	4.780492
	13.962000	4.699908
	13.964000	4.645111
	13.966000	4.619324
	13.968000	4.658004
	13.970000	4.738588
	13.972000	4.825619
	13.974000	4.886863
	13.976000	4.899756
	13.978000	4.877193
	13.980000	4.793386
	13.982000	4.716025
	13.984000	4.651558
	13.986000	4.641888
	13.988000	4.674121
	13.990000	4.754705
	13.992000	4.838513
	13.994000	4.902980
	13.996000	4.919097
	13.998000	4.883640
	14.000000	4.803056
	14.002000	4.716025
	14.004000	4.661228
	14.006000	4.641888
	14.008000	4.680568
	14.010000	4.757929
	14.012000	4.844959
	14.014000	4.906203
	14.016000	4.925543
	14.018000	4.890086
	14.020000	4.806279
	14.022000	4.719248
	14.024000	4.664451
	14.026000	4.648334
	14.028000	4.680568
	14.030000	4.767599
	14.032000	4.851406
	14.034000	4.912650
	14.036000	4.928767
	14.038000	4.893310
	14.040000	4.812726
	14.042000	4.732142
	14.044000	4.670898
	14.046000	4.658004
	14.048000	4.687015
	14.050000	4.774045
	14.052000	4.857853
	14.054000	4.915873
	14.056000	4.935213
	14.058000	4.902980
	14.060000	4.825619
	14.062000	4.735365
	14.064000	4.683791
	14.066000	4.667675
	14.068000	4.693461
	14.070000	4.780492
	14.072000	4.867523
	14.074000	4.925543
	14.076000	4.944883
	14.078000	4.912650
	14.080000	4.828842
	14.082000	4.741812
	14.084000	4.683791
	14.086000	4.667675
	14.088000	4.696685
	14.090000	4.783715
	14.092000	4.864299
	14.094000	4.925543
	14.096000	4.948107
	14.098000	4.915873
	14.100000	4.835289
	14.102000	4.745035
	14.104000	4.687015
	14.106000	4.670898
	14.108000	4.703131
	14.110000	4.793386
	14.112000	4.877193
	14.114000	4.931990
	14.116000	4.951330
	14.118000	4.915873
	14.120000	4.835289
	14.122000	4.748258
	14.124000	4.693461
	14.126000	4.677345
	14.128000	4.719248
	14.130000	4.790162
	14.132000	4.880416
	14.134000	4.938437
	14.136000	4.954553
	14.138000	4.915873
	14.140000	4.828842
	14.142000	4.741812
	14.144000	4.680568
	14.146000	4.670898
	14.148000	4.706355
	14.150000	4.786939
	14.152000	4.880416
	14.154000	4.935213
	14.156000	4.944883
	14.158000	4.912650
	14.160000	4.835289
	14.162000	4.748258
	14.164000	4.693461
	14.166000	4.680568
	14.168000	4.712802
	14.170000	4.803056
	14.172000	4.890086
	14.174000	4.948107
	14.176000	4.961000
	14.178000	4.928767
	14.180000	4.841736
	14.182000	4.751482
	14.184000	4.703131
	14.186000	4.687015
	14.188000	4.719248
	14.190000	4.812726
	14.192000	4.893310
	14.194000	4.954553
	14.196000	4.964224
	14.198000	4.925543
	14.200000	4.848183
	14.202000	4.761152
	14.204000	4.712802
	14.206000	4.690238
	14.208000	4.722472
	14.210000	4.819172
	14.212000	4.899756
	14.214000	4.957777
	14.216000	4.970670
	14.218000	4.931990
	14.220000	4.851406
	14.222000	4.764375
	14.224000	4.703131
	14.226000	4.696685
	14.228000	4.732142
	14.230000	4.815949
	14.232000	4.899756
	14.234000	4.964224
	14.236000	4.973894
	14.238000	4.938437
	14.240000	4.854629
	14.242000	4.767599
	14.244000	4.709578
	14.246000	4.699908
	14.248000	4.738588
	14.250000	4.822396
	14.252000	4.906203
	14.254000	4.964224
	14.256000	4.977117
	14.258000	4.941660
	14.260000	4.854629
	14.262000	4.770822
	14.264000	4.712802
	14.266000	4.703131
	14.268000	4.741812
	14.270000	4.828842
	14.272000	4.912650
	14.274000	4.970670
	14.276000	4.980340
	14.278000	4.951330
	14.280000	4.864299
	14.282000	4.777269
	14.284000	4.728918
	14.286000	4.709578
	14.288000	4.748258
	14.290000	4.835289
	14.292000	4.915873
	14.294000	4.973894
	14.296000	4.990010
	14.298000	4.954553
	14.300000	4.870746
	14.302000	4.780492
	14.304000	4.722472
	14.306000	4.716025
	14.308000	4.751482
	14.310000	4.835289
	14.312000	4.922320
	14.314000	4.977117
	14.316000	4.993234
	14.318000	4.954553
	14.320000	4.870746
	14.322000	4.783715
	14.324000	4.728918
	14.326000	4.719248
	14.328000	4.757929
	14.330000	4.844959
	14.332000	4.928767
	14.334000	4.986787
	14.336000	4.999680
	14.338000	4.957777
	14.340000	4.873969
	14.342000	4.793386
	14.344000	4.732142
	14.346000	4.722472
	14.348000	4.761152
	14.350000	4.848183
	14.352000	4.931990
	14.354000	4.990010
	14.356000	4.993234
	14.358000	4.951330
	14.360000	4.870746
	14.362000	4.786939
	14.364000	4.735365
	14.366000	4.722472
	14.368000	4.761152
	14.370000	4.841736
	14.372000	4.928767
	14.374000	4.980340
	14.376000	4.990010
	14.378000	4.948107
	14.380000	4.864299
	14.382000	4.777269
	14.384000	4.725695
	14.386000	4.712802
	14.388000	4.757929
	14.390000	4.835289
	14.392000	4.925543
	14.394000	4.980340
	14.396000	4.986787
	14.398000	4.948107
	14.400000	4.870746
	14.402000	4.783715
	14.404000	4.732142
	14.406000	4.722472
	14.408000	4.767599
	14.410000	4.848183
	14.412000	4.928767
	14.414000	4.983564
	14.416000	4.990010
	14.418000	4.954553
	14.420000	4.867523
	14.422000	4.783715
	14.424000	4.735365
	14.426000	4.725695
	14.428000	4.764375
	14.430000	4.848183
	14.432000	4.928767
	14.434000	4.990010
	14.436000	4.996457
	14.438000	4.954553
	14.440000	4.870746
	14.442000	4.786939
	14.444000	4.732142
	14.446000	4.722472
	14.448000	4.767599
	14.450000	4.854629
	14.452000	4.935213
	14.454000	4.990010
	14.456000	4.993234
	14.458000	4.951330
	14.460000	4.873969
	14.462000	4.783715
	14.464000	4.732142
	14.466000	4.719248
	14.468000	4.764375
	14.470000	4.857853
	14.472000	4.928767
	14.474000	4.990010
	14.476000	4.996457
	14.478000	4.951330
	14.480000	4.870746
	14.482000	4.786939
	14.484000	4.728918
	14.486000	4.725695
	14.488000	4.767599
	14.490000	4.854629
	14.492000	4.931990
	14.494000	4.993234
	14.496000	4.999680
	14.498000	4.957777
	14.500000	4.867523
	14.502000	4.790162
	14.504000	4.732142
	14.506000	4.722472
	14.508000	4.774045
	14.510000	4.857853
	14.512000	4.941660
	14.514000	4.996457
	14.516000	4.999680
	14.518000	4.957777
	14.520000	4.873969
	14.522000	4.796609
	14.524000	4.741812
	14.526000	4.735365
	14.528000	4.780492
	14.530000	4.861076
	14.532000	4.948107
	14.534000	5.002904
	14.536000	5.002904
	14.538000	4.961000
	14.540000	4.873969
	14.542000	4.793386
	14.544000	4.741812
	14.546000	4.732142
	14.548000	4.774045
	14.550000	4.861076
	14.552000	4.944883
	14.554000	4.996457
	14.556000	5.002904
	14.558000	4.957777
	14.560000	4.870746
	14.562000	4.790162
	14.564000	4.735365
	14.566000	4.735365
	14.568000	4.774045
	14.570000	4.861076
	14.572000	4.941660
	14.574000	4.993234
	14.576000	4.999680
	14.578000	4.954553
	14.580000	4.873969
	14.582000	4.793386
	14.584000	4.741812
	14.586000	4.738588
	14.588000	4.777269
	14.590000	4.864299
	14.592000	4.948107
	14.594000	4.996457
	14.596000	5.002904
	14.598000	4.964224
	14.600000	4.883640
	14.602000	4.796609
	14.604000	4.745035
	14.606000	4.745035
	14.608000	4.786939
	14.610000	4.873969
	14.612000	4.957777
	14.614000	5.006127
	14.616000	5.015797
	14.618000	4.967447
	14.620000	4.886863
	14.622000	4.799832
	14.624000	4.751482
	14.626000	4.745035
	14.628000	4.793386
	14.630000	4.877193
	14.632000	4.961000
	14.634000	5.015797
	14.636000	5.019021
	14.638000	4.977117
	14.640000	4.890086
	14.642000	4.815949
	14.644000	4.761152
	14.646000	4.751482
	14.648000	4.806279
	14.650000	4.890086
	14.652000	4.970670
	14.654000	5.022244
	14.656000	5.028691
	14.658000	4.983564
	14.660000	4.899756
	14.662000	4.819172
	14.664000	4.767599
	14.666000	4.761152
	14.668000	4.806279
	14.670000	4.899756
	14.672000	4.977117
	14.674000	5.035137
	14.676000	5.035137
	14.678000	4.990010
	14.680000	4.899756
	14.682000	4.825619
	14.684000	4.777269
	14.686000	4.770822
	14.688000	4.815949
	14.690000	4.906203
	14.692000	4.983564
	14.694000	5.031914
	14.696000	5.041584
	14.698000	4.999680
	14.700000	4.915873
	14.702000	4.832066
	14.704000	4.780492
	14.706000	4.777269
	14.708000	4.825619
	14.710000	4.912650
	14.712000	4.990010
	14.714000	5.041584
	14.716000	5.048031
	14.718000	4.999680
	14.720000	4.919097
	14.722000	4.835289
	14.724000	4.783715
	14.726000	4.780492
	14.728000	4.828842
	14.730000	4.909426
	14.732000	4.999680
	14.734000	5.044808
	14.736000	5.051254
	14.738000	4.999680
	14.740000	4.919097
	14.742000	4.832066
	14.744000	4.790162
	14.746000	4.786939
	14.748000	4.832066
	14.750000	4.915873
	14.752000	4.996457
	14.754000	5.044808
	14.756000	5.051254
	14.758000	5.009351
	14.760000	4.915873
	14.762000	4.841736
	14.764000	4.790162
	14.766000	4.783715
	14.768000	4.838513
	14.770000	4.912650
	14.772000	4.996457
	14.774000	5.048031
	14.776000	5.048031
	14.778000	5.002904
	14.780000	4.912650
	14.782000	4.835289
	14.784000	4.786939
	14.786000	4.786939
	14.788000	4.835289
	14.790000	4.915873
	14.792000	4.996457
	14.794000	5.041584
	14.796000	5.044808
	14.798000	4.999680
	14.800000	4.919097
	14.802000	4.841736
	14.804000	4.786939
	14.806000	4.783715
	14.808000	4.832066
	14.810000	4.922320
	14.812000	5.002904
	14.814000	5.051254
	14.816000	5.048031
	14.818000	5.002904
	14.820000	4.912650
	14.822000	4.838513
	14.824000	4.790162
	14.826000	4.790162
	14.828000	4.832066
	14.830000	4.919097
	14.832000	4.996457
	14.834000	5.054478
	14.836000	5.051254
	14.838000	5.002904
	14.840000	4.919097
	14.842000	4.832066
	14.844000	4.793386
	14.846000	4.786939
	14.848000	4.835289
	14.850000	4.915873
	14.852000	4.993234
	14.854000	5.044808
	14.856000	5.044808
	14.858000	4.993234
	14.860000	4.902980
	14.862000	4.828842
	14.864000	4.777269
	14.866000	4.780492
	14.868000	4.822396
	14.870000	4.909426
	14.872000	4.986787
	14.874000	5.038361
	14.876000	5.041584
	14.878000	4.996457
	14.880000	4.906203
	14.882000	4.832066
	14.884000	4.780492
	14.886000	4.783715
	14.888000	4.832066
	14.890000	4.919097
	14.892000	4.993234
	14.894000	5.044808
	14.896000	5.048031
	14.898000	4.999680
	14.900000	4.915873
	14.902000	4.832066
	14.904000	4.783715
	14.906000	4.786939
	14.908000	4.835289
	14.910000	4.925543
	14.912000	5.006127
	14.914000	5.054478
	14.916000	5.051254
	14.918000	5.002904
	14.920000	4.919097
	14.922000	4.841736
	14.924000	4.790162
	14.926000	4.799832
	14.928000	4.848183
	14.930000	4.928767
	14.932000	5.012574
	14.934000	5.054478
	14.936000	5.057701
	14.938000	5.006127
	14.940000	4.919097
	14.942000	4.841736
	14.944000	4.793386
	14.946000	4.793386
	14.948000	4.844959
	14.950000	4.928767
	14.952000	5.009351
	14.954000	5.054478
	14.956000	5.057701
	14.958000	5.002904
	14.960000	4.928767
	14.962000	4.844959
	14.964000	4.803056
	14.966000	4.799832
	14.968000	4.848183
	14.970000	4.931990
	14.972000	5.015797
	14.974000	5.064148
	14.976000	5.054478
	14.978000	5.009351
	14.980000	4.931990
	14.982000	4.848183
	14.984000	4.803056
	14.986000	4.809502
	14.988000	4.857853
	14.990000	4.938437
	14.992000	5.022244
	14.994000	5.070594
	14.996000	5.064148
	14.998000	5.012574
	15.000000	4.931990
	15.002000	4.848183
	15.004000	4.806279
	15.006000	4.799832
	15.008000	4.857853
	15.010000	4.941660
	15.012000	5.015797
	15.014000	5.067371
	15.016000	5.067371
	15.018000	5.009351
	15.020000	4.925543
	15.022000	4.841736
	15.024000	4.796609
	15.026000	4.803056
	15.028000	4.857853
	15.030000	4.938437
	15.032000	5.019021
	15.034000	5.064148
	15.036000	5.060924
	15.038000	5.009351
	15.040000	4.931990
	15.042000	4.844959
	15.044000	4.803056
	15.046000	4.806279
	15.048000	4.857853
	15.050000	4.941660
	15.052000	5.015797
	15.054000	5.064148
	15.056000	5.057701
	15.058000	5.009351
	15.060000	4.919097
	15.062000	4.848183
	15.064000	4.799832
	15.066000	4.803056
	15.068000	4.854629
	15.070000	4.931990
	15.072000	5.015797
	15.074000	5.054478
	15.076000	5.048031
	15.078000	4.996457
	15.080000	4.919097
	15.082000	4.832066
	15.084000	4.786939
	15.086000	4.783715
	15.088000	4.841736
	15.090000	4.925543
	15.092000	5.002904
	15.094000	5.044808
	15.096000	5.038361
	15.098000	4.990010
	15.100000	4.899756
	15.102000	4.825619
	15.104000	4.774045
	15.106000	4.780492
	15.108000	4.841736
	15.110000	4.922320
	15.112000	5.002904
	15.114000	5.044808
	15.116000	5.035137
	15.118000	4.983564
	15.120000	4.893310
	15.122000	4.819172
	15.124000	4.770822
	15.126000	4.780492
	15.128000	4.832066
	15.130000	4.912650
	15.132000	4.993234
	15.134000	5.038361
	15.136000	5.031914
	15.138000	4.973894
	15.140000	4.886863
	15.142000	4.809502
	15.144000	4.764375
	15.146000	4.770822
	15.148000	4.822396
	15.150000	4.909426
	15.152000	4.983564
	15.154000	5.022244
	15.156000	5.022244
	15.158000	4.964224
	15.160000	4.873969
	15.162000	4.803056
	15.164000	4.757929
	15.166000	4.764375
	15.168000	4.819172
	15.170000	4.896533
	15.172000	4.973894
	15.174000	5.015797
	15.176000	5.006127
	15.178000	4.954553
	15.180000	4.873969
	15.182000	4.793386
	15.184000	4.748258
	15.186000	4.748258
	15.188000	4.809502
	15.190000	4.890086
	15.192000	4.964224
	15.194000	5.009351
	15.196000	5.002904
	15.198000	4.941660
	15.200000	4.861076
	15.202000	4.780492
	15.204000	4.735365
	15.206000	4.738588
	15.208000	4.793386
	15.210000	4.880416
	15.212000	4.951330
	15.214000	4.996457
	15.216000	4.990010
	15.218000	4.935213
	15.220000	4.841736
	15.222000	4.764375
	15.224000	4.722472
	15.226000	4.732142
	15.228000	4.783715
	15.230000	4.867523
	15.232000	4.944883
	15.234000	4.990010
	15.236000	4.983564
	15.238000	4.925543
	15.240000	4.838513
	15.242000	4.761152
	15.244000	4.719248
	15.246000	4.725695
	15.248000	4.780492
	15.250000	4.864299
	15.252000	4.941660
	15.254000	4.983564
	15.256000	4.977117
	15.258000	4.912650
	15.260000	4.835289
	15.262000	4.754705
	15.264000	4.709578
	15.266000	4.719248
	15.268000	4.777269
	15.270000	4.864299
	15.272000	4.938437
	15.274000	4.977117
	15.276000	4.970670
	15.278000	4.909426
	15.280000	4.819172
	15.282000	4.748258
	15.284000	4.703131
	15.286000	4.709578
	15.288000	4.774045
	15.290000	4.857853
	15.292000	4.931990
	15.294000	4.970670
	15.296000	4.970670
	15.298000	4.912650
	15.300000	4.825619
	15.302000	4.748258
	15.304000	4.706355
	15.306000	4.712802
	15.308000	4.767599
	15.310000	4.857853
	15.312000	4.931990
	15.314000	4.973894
	15.316000	4.964224
	15.318000	4.902980
	15.320000	4.819172
	15.322000	4.745035
	15.324000	4.709578
	15.326000	4.712802
	15.328000	4.774045
	15.330000	4.861076
	15.332000	4.931990
	15.334000	4.970670
	15.336000	4.957777
	15.338000	4.906203
	15.340000	4.815949
	15.342000	4.745035
	15.344000	4.699908
	15.346000	4.719248
	15.348000	4.774045
	15.350000	4.854629
	15.352000	4.931990
	15.354000	4.980340
	15.356000	4.964224
	15.358000	4.906203
	15.360000	4.819172
	15.362000	4.745035
	15.364000	4.706355
	15.366000	4.712802
	15.368000	4.770822
	15.370000	4.854629
	15.372000	4.931990
	15.374000	4.970670
	15.376000	4.964224
	15.378000	4.906203
	15.380000	4.815949
	15.382000	4.745035
	15.384000	4.706355
	15.386000	4.716025
	15.388000	4.767599
	15.390000	4.857853
	15.392000	4.928767
	15.394000	4.970670
	15.396000	4.957777
	15.398000	4.899756
	15.400000	4.819172
	15.402000	4.741812
	15.404000	4.699908
	15.406000	4.706355
	15.408000	4.774045
	15.410000	4.854629
	15.412000	4.928767
	15.414000	4.970670
	15.416000	4.961000
	15.418000	4.899756
	15.420000	4.819172
	15.422000	4.741812
	15.424000	4.706355
	15.426000	4.719248
	15.428000	4.774045
	15.430000	4.864299
	15.432000	4.941660
	15.434000	4.980340
	15.436000	4.973894
	15.438000	4.909426
	15.440000	4.832066
	15.442000	4.748258
	15.444000	4.719248
	15.446000	4.728918
	15.448000	4.783715
	15.450000	4.873969
	15.452000	4.944883
	15.454000	4.990010
	15.456000	4.983564
	15.458000	4.915873
	15.460000	4.838513
	15.462000	4.761152
	15.464000	4.722472
	15.466000	4.738588
	15.468000	4.796609
	15.470000	4.893310
	15.472000	4.964224
	15.474000	5.006127
	15.476000	4.996457
	15.478000	4.938437
	15.480000	4.861076
	15.482000	4.786939
	15.484000	4.745035
	15.486000	4.764375
	15.488000	4.825619
	15.490000	4.909426
	15.492000	4.990010
	15.494000	5.025467
	15.496000	5.019021
	15.498000	4.961000
	15.500000	4.877193
	15.502000	4.809502
	15.504000	4.777269
	15.506000	4.786939
	15.508000	4.851406
	15.510000	4.944883
	15.512000	5.015797
	15.514000	5.054478
	15.516000	5.054478
	15.518000	4.990010
	15.520000	4.915873
	15.522000	4.838513
	15.524000	4.806279
	15.526000	4.822396
	15.528000	4.890086
	15.530000	4.980340
	15.532000	5.051254
	15.534000	5.093158
	15.536000	5.077041
	15.538000	5.019021
	15.540000	4.941660
	15.542000	4.873969
	15.544000	4.841736
	15.546000	4.851406
	15.548000	4.919097
	15.550000	5.009351
	15.552000	5.080264
	15.554000	5.125391
	15.556000	5.115721
	15.558000	5.048031
	15.560000	4.973894
	15.562000	4.899756
	15.564000	4.870746
	15.566000	4.893310
	15.568000	4.951330
	15.570000	5.044808
	15.572000	5.115721
	15.574000	5.164072
	15.576000	5.141508
	15.578000	5.077041
	15.580000	4.993234
	15.582000	4.931990
	15.584000	4.902980
	15.586000	4.915873
	15.588000	4.983564
	15.590000	5.070594
	15.592000	5.144732
	15.594000	5.176965
	15.596000	5.170519
	15.598000	5.109275
	15.600000	5.028691
	15.602000	4.964224
	15.604000	4.928767
	15.606000	4.948107
	15.608000	5.006127
	15.610000	5.099605
	15.612000	5.170519
	15.614000	5.212422
	15.616000	5.199529
	15.618000	5.141508
	15.620000	5.057701
	15.622000	4.983564
	15.624000	4.957777
	15.626000	4.967447
	15.628000	5.035137
	15.630000	5.118945
	15.632000	5.196305
	15.634000	5.231762
	15.636000	5.218869
	15.638000	5.157625
	15.640000	5.077041
	15.642000	5.006127
	15.644000	4.970670
	15.646000	4.986787
	15.648000	5.048031
	15.650000	5.138285
	15.652000	5.205975
	15.654000	5.247879
	15.656000	5.234986
	15.658000	5.173742
	15.660000	5.086711
	15.662000	5.015797
	15.664000	4.980340
	15.666000	4.999680
	15.668000	5.057701
	15.670000	5.141508
	15.672000	5.218869
	15.674000	5.254326
	15.676000	5.241432
	15.678000	5.176965
	15.680000	5.096381
	15.682000	5.028691
	15.684000	4.990010
	15.686000	5.009351
	15.688000	5.070594
	15.690000	5.160848
	15.692000	5.231762
	15.694000	5.267219
	15.696000	5.254326
	15.698000	5.183412
	15.700000	5.099605
	15.702000	5.035137
	15.704000	4.999680
	15.706000	5.019021
	15.708000	5.077041
	15.710000	5.164072
	15.712000	5.234986
	15.714000	5.270443
	15.716000	5.247879
	15.718000	5.180189
	15.720000	5.096381
	15.722000	5.025467
	15.724000	4.986787
	15.726000	4.999680
	15.728000	5.064148
	15.730000	5.144732
	15.732000	5.215646
	15.734000	5.244656
	15.736000	5.218869
	15.738000	5.147955
	15.740000	5.057701
	15.742000	4.973894
	15.744000	4.938437
	15.746000	4.941660
	15.748000	4.990010
	15.750000	5.067371
	15.752000	5.115721
	15.754000	5.138285
	15.756000	5.099605
	15.758000	5.015797
	15.760000	4.902980
	15.762000	4.809502
	15.764000	4.745035
	15.766000	4.738588
	15.768000	4.767599
	15.770000	4.819172
	15.772000	4.854629
	15.774000	4.844959
	15.776000	4.793386
	15.778000	4.687015
	15.780000	4.558080
	15.782000	4.438816
	15.784000	4.374349
	15.786000	4.351785
	15.788000	4.358232
	15.790000	4.400136
	15.792000	4.425923
	15.794000	4.413029
	15.796000	4.345339
	15.798000	4.235744
	15.800000	4.100363
	15.802000	3.981099
	15.804000	3.903738
	15.806000	3.874728
	15.808000	3.884398
	15.810000	3.929525
	15.812000	3.942419
	15.814000	3.926302
	15.816000	3.861835
	15.818000	3.742570
	15.820000	3.610413
	15.822000	3.487925
	15.824000	3.404118
	15.826000	3.375108
	15.828000	3.381554
	15.830000	3.417011
	15.832000	3.439575
	15.834000	3.420235
	15.836000	3.352544
	15.838000	3.233280
	15.840000	3.091452
	15.842000	2.972188
	15.844000	2.888380
	15.846000	2.849700
	15.848000	2.856147
	15.850000	2.888380
	15.852000	2.904497
	15.854000	2.881934
	15.856000	2.811020
	15.858000	2.691755
	15.860000	2.546704
	15.862000	2.417770
	15.864000	2.340409
	15.866000	2.288836
	15.868000	2.301729
	15.870000	2.333963
	15.872000	2.346856
	15.874000	2.324293
	15.876000	2.246932
	15.878000	2.117998
	15.880000	1.976170
	15.882000	1.847235
	15.884000	1.760205
	15.886000	1.718301
	15.888000	1.727971
	15.890000	1.750535
	15.892000	1.756981
	15.894000	1.740865
	15.896000	1.660281
	15.898000	1.541016
	15.900000	1.389518
	15.902000	1.267031
	15.904000	1.180000
	15.906000	1.134873
	15.908000	1.150990
	15.910000	1.176777
	15.912000	1.196117
	15.914000	1.160660
	15.916000	1.089746
	15.918000	0.967258
	15.920000	0.828654
	15.922000	0.693273
	15.924000	0.609466
	15.926000	0.574009
	15.928000	0.580455
	15.930000	0.612689
	15.932000	0.632029
	15.934000	0.603019
	15.936000	0.532105
	15.938000	0.406394
	15.940000	0.267790
	15.942000	0.142079
	15.944000	0.058271
	15.946000	0.032484
	15.948000	0.048601
	15.950000	0.077611
	15.952000	0.100175
	15.954000	0.074388
	15.956000	0.006697
	15.958000	-0.109343
	15.960000	-0.241501
	15.962000	-0.360765
	15.964000	-0.441349
	15.966000	-0.467136
	15.968000	-0.447796
	15.970000	-0.405892
	15.972000	-0.380106
	15.974000	-0.402669
	15.976000	-0.451019
	15.978000	-0.567060
	15.980000	-0.695995
	15.982000	-0.802366
	15.984000	-0.870056
	15.986000	-0.889396
	15.988000	-0.860386
	15.990000	-0.808812
	15.992000	-0.779802
	15.994000	-0.783025
	15.996000	-0.837823
	15.998000	-0.937747
	16.000000	-1.060234
	16.002000	-1.160158
	16.004000	-1.214956
	16.006000	-1.224626
	16.008000	-1.185945
	16.010000	-1.131148
	16.012000	-1.082798
	16.014000	-1.076351
	16.016000	-1.124702
	16.018000	-1.218179
	16.020000	-1.324550
	16.022000	-1.411580
	16.024000	-1.459931
	16.026000	-1.466378
	16.028000	-1.411580
	16.030000	-1.343890
	16.032000	-1.289093
	16.034000	-1.272976
	16.036000	-1.301986
	16.038000	-1.385794
	16.040000	-1.472824
	16.042000	-1.546962
	16.044000	-1.575972
	16.046000	-1.563078
	16.048000	-1.492164
	16.050000	-1.408357
	16.052000	-1.324550
	16.054000	-1.276199
	16.056000	-1.279423
	16.058000	-1.327773
	16.060000	-1.395464
	16.062000	-1.440591
	16.064000	-1.440591
	16.066000	-1.395464
	16.068000	-1.295540
	16.070000	-1.198839
	16.072000	-1.108585
	16.074000	-1.063458
	16.076000	-1.069904
	16.078000	-1.127925
	16.080000	-1.198839
	16.082000	-1.256859
	16.084000	-1.282646
	16.086000	-1.250413
	16.088000	-1.179499
	16.090000	-1.086021
	16.092000	-1.015107
	16.094000	-0.982874
	16.096000	-1.005437
	16.098000	-1.079574
	16.100000	-1.166605
	16.102000	-1.234296
	16.104000	-1.269753
	16.106000	-1.256859
	16.108000	-1.189169
	16.110000	-1.118255
	16.112000	-1.060234
	16.114000	-1.044118
	16.116000	-1.076351
	16.118000	-1.163382
	16.120000	-1.260083
	16.122000	-1.347113
	16.124000	-1.385794
	16.126000	-1.382570
	16.128000	-1.337443
	16.130000	-1.276199
	16.132000	-1.227849
	16.134000	-1.221402
	16.136000	-1.269753
	16.138000	-1.360007
	16.140000	-1.463154
	16.142000	-1.559855
	16.144000	-1.611429
	16.146000	-1.621099
	16.148000	-1.585642
	16.150000	-1.524398
	16.152000	-1.488941
	16.154000	-1.495388
	16.156000	-1.546962
	16.158000	-1.650109
	16.160000	-1.775820
	16.162000	-1.875744
	16.164000	-1.940211
	16.166000	-1.953105
	16.168000	-1.924095
	16.170000	-1.872521
	16.172000	-1.846734
	16.174000	-1.856404
	16.176000	-1.914424
	16.178000	-2.027242
	16.180000	-2.149730
	16.182000	-2.259324
	16.184000	-2.327014
	16.186000	-2.349578
	16.188000	-2.323791
	16.190000	-2.281887
	16.192000	-2.262547
	16.194000	-2.275441
	16.196000	-2.339908
	16.198000	-2.452725
	16.200000	-2.581660
	16.202000	-2.700924
	16.204000	-2.778285
	16.206000	-2.800848
	16.208000	-2.778285
	16.210000	-2.742828
	16.212000	-2.726711
	16.214000	-2.749274
	16.216000	-2.813742
	16.218000	-2.939453
	16.220000	-3.074834
	16.222000	-3.190875
	16.224000	-3.268235
	16.226000	-3.303692
	16.228000	-3.281129
	16.230000	-3.252118
	16.232000	-3.236002
	16.234000	-3.258565
	16.236000	-3.326256
	16.238000	-3.448743
	16.240000	-3.587348
	16.242000	-3.709835
	16.244000	-3.777526
	16.246000	-3.809760
	16.248000	-3.780749
	16.250000	-3.748516
	16.252000	-3.729176
	16.254000	-3.748516
	16.256000	-3.812983
	16.258000	-3.938694
	16.260000	-4.067628
	16.262000	-4.180446
	16.264000	-4.248136
	16.266000	-4.273923
	16.268000	-4.244913
	16.270000	-4.203009
	16.272000	-4.180446
	16.274000	-4.190116
	16.276000	-4.251360
	16.278000	-4.364177
	16.280000	-4.483442
	16.282000	-4.586589
	16.284000	-4.651056
	16.286000	-4.660726
	16.288000	-4.615599
	16.290000	-4.564026
	16.292000	-4.518898
	16.294000	-4.531792
	16.296000	-4.580142
	16.298000	-4.680066
	16.300000	-4.789661
	16.302000	-4.883138
	16.304000	-4.931488
	16.306000	-4.931488
	16.308000	-4.879915
	16.310000	-4.815448
	16.312000	-4.767097
	16.314000	-4.760650
	16.316000	-4.805777
	16.318000	-4.899255
	16.320000	-4.995956
	16.322000	-5.086210
	16.324000	-5.121667
	16.326000	-5.118443
	16.328000	-5.063646
	16.330000	-4.983062
	16.332000	-4.934712
	16.334000	-4.925042
	16.336000	-4.960499
	16.338000	-5.041083
	16.340000	-5.137783
	16.342000	-5.208697
	16.344000	-5.250601
	16.346000	-5.240931
	16.348000	-5.176464
	16.350000	-5.099103
	16.352000	-5.047529
	16.354000	-5.028189
	16.356000	-5.063646
	16.358000	-5.157124
	16.360000	-5.240931
	16.362000	-5.315068
	16.364000	-5.350525
	16.366000	-5.340855
	16.368000	-5.273164
	16.370000	-5.195804
	16.372000	-5.137783
	16.374000	-5.124890
	16.376000	-5.157124
	16.378000	-5.237708
	16.380000	-5.327962
	16.382000	-5.392429
	16.384000	-5.437556
	16.386000	-5.418216
	16.388000	-5.353748
	16.390000	-5.273164
	16.392000	-5.215144
	16.394000	-5.199027
	16.396000	-5.234484
	16.398000	-5.315068
	16.400000	-5.405322
	16.402000	-5.476236
	16.404000	-5.508470
	16.406000	-5.489130
	16.408000	-5.418216
	16.410000	-5.347302
	16.412000	-5.282835
	16.414000	-5.263494
	16.416000	-5.295728
	16.418000	-5.376312
	16.420000	-5.466566
	16.422000	-5.540703
	16.424000	-5.563267
	16.426000	-5.553597
	16.428000	-5.482683
	16.430000	-5.402099
	16.432000	-5.344078
	16.434000	-5.318291
	16.436000	-5.350525
	16.438000	-5.431109
	16.440000	-5.521363
	16.442000	-5.585830
	16.444000	-5.618064
	16.446000	-5.598724
	16.448000	-5.524586
	16.450000	-5.444002
	16.452000	-5.382759
	16.454000	-5.363419
	16.456000	-5.389205
	16.458000	-5.473013
	16.460000	-5.550373
	16.462000	-5.621287
	16.464000	-5.653521
	16.466000	-5.624511
	16.468000	-5.550373
	16.470000	-5.469789
	16.472000	-5.408546
	16.474000	-5.385982
	16.476000	-5.418216
	16.478000	-5.489130
	16.480000	-5.569713
	16.482000	-5.640627
	16.484000	-5.666414
	16.486000	-5.637404
	16.488000	-5.560043
	16.490000	-5.479459
	16.492000	-5.418216
	16.494000	-5.395652
	16.496000	-5.427886
	16.498000	-5.502023
	16.500000	-5.589054
	16.502000	-5.656744
	16.504000	-5.672861
	16.506000	-5.653521
	16.508000	-5.579384
	16.510000	-5.498800
	16.512000	-5.434332
	16.514000	-5.414992
	16.516000	-5.431109
	16.518000	-5.518140
	16.520000	-5.608394
	16.522000	-5.663191
	16.524000	-5.688978
	16.526000	-5.659968
	16.528000	-5.589054
	16.530000	-5.502023
	16.532000	-5.444002
	16.534000	-5.418216
	16.536000	-5.450449
	16.538000	-5.521363
	16.540000	-5.605170
	16.542000	-5.672861
	16.544000	-5.695424
	16.546000	-5.666414
	16.548000	-5.592277
	16.550000	-5.505246
	16.552000	-5.447226
	16.554000	-5.421439
	16.556000	-5.447226
	16.558000	-5.524586
	16.560000	-5.608394
	16.562000	-5.679308
	16.564000	-5.695424
	16.566000	-5.666414
	16.568000	-5.592277
	16.570000	-5.505246
	16.572000	-5.431109
	16.574000	-5.414992
	16.576000	-5.440779
	16.578000	-5.514916
	16.580000	-5.598724
	16.582000	-5.659968
	16.584000	-5.676084
	16.586000	-5.650297
	16.588000	-5.569713
	16.590000	-5.485906
	16.592000	-5.424662
	16.594000	-5.405322
	16.596000	-5.421439
	16.598000	-5.495576
	16.600000	-5.582607
	16.602000	-5.653521
	16.604000	-5.666414
	16.606000	-5.637404
	16.608000	-5.553597
	16.610000	-5.466566
	16.612000	-5.408546
	16.614000	-5.379535
	16.616000	-5.408546
	16.618000	-5.482683
	16.620000	-5.569713
	16.622000	-5.624511
	16.624000	-5.647074
	16.626000	-5.621287
	16.628000	-5.547150
	16.630000	-5.453673
	16.632000	-5.392429
	16.634000	-5.366642
	16.636000	-5.395652
	16.638000	-5.473013
	16.640000	-5.556820
	16.642000	-5.618064
	16.644000	-5.640627
	16.646000	-5.605170
	16.648000	-5.524586
	16.650000	-5.437556
	16.652000	-5.379535
	16.654000	-5.360195
	16.656000	-5.379535
	16.658000	-5.456896
	16.660000	-5.540703
	16.662000	-5.598724
	16.664000	-5.618064
	16.666000	-5.589054
	16.668000	-5.505246
	16.670000	-5.414992
	16.672000	-5.356972
	16.674000	-5.327962
	16.676000	-5.360195
	16.678000	-5.427886
	16.680000	-5.518140
	16.682000	-5.576160
	16.684000	-5.598724
	16.686000	-5.566490
	16.688000	-5.485906
	16.690000	-5.398875
	16.692000	-5.337632
	16.694000	-5.315068
	16.696000	-5.347302
	16.698000	-5.418216
	16.700000	-5.502023
	16.702000	-5.560043
	16.704000	-5.585830
	16.706000	-5.550373
	16.708000	-5.469789
	16.710000	-5.382759
	16.712000	-5.324738
	16.714000	-5.308621
	16.716000	-5.331185
	16.718000	-5.408546
	16.720000	-5.495576
	16.722000	-5.550373
	16.724000	-5.569713
	16.726000	-5.534257
	16.728000	-5.463343
	16.730000	-5.376312
	16.732000	-5.308621
	16.734000	-5.289281
	16.736000	-5.324738
	16.738000	-5.402099
	16.740000	-5.489130
	16.742000	-5.540703
	16.744000	-5.563267
	16.746000	-5.537480
	16.748000	-5.450449
	16.750000	-5.369865
	16.752000	-5.311845
	16.754000	-5.292505
	16.756000	-5.318291
	16.758000	-5.402099
	16.760000	-5.482683
	16.762000	-5.540703
	16.764000	-5.566490
	16.766000	-5.537480
	16.768000	-5.460119
	16.770000	-5.373089
	16.772000	-5.308621
	16.774000	-5.289281
	16.776000	-5.324738
	16.778000	-5.405322
	16.780000	-5.485906
	16.782000	-5.547150
	16.784000	-5.569713
	16.786000	-5.537480
	16.788000	-5.453673
	16.790000	-5.369865
	16.792000	-5.315068
	16.794000	-5.292505
	16.796000	-5.327962
	16.798000	-5.408546
	16.800000	-5.495576
	16.802000	-5.553597
	16.804000	-5.566490
	16.806000	-5.550373
	16.808000	-5.460119
	16.810000	-5.373089
	16.812000	-5.321515
	16.814000	-5.298951
	16.816000	-5.321515
	16.818000	-5.408546
	16.820000	-5.492353
	16.822000	-5.556820
	16.824000	-5.569713
	16.826000	-5.540703
	16.828000	-5.466566
	16.830000	-5.379535
	16.832000	-5.318291
	16.834000	-5.292505
	16.836000	-5.324738
	16.838000	-5.405322
	16.840000	-5.492353
	16.842000	-5.553597
	16.844000	-5.576160
	16.846000	-5.537480
	16.848000	-5.466566
	16.850000	-5.376312
	16.852000	-5.315068
	16.854000	-5.295728
	16.856000	-5.327962
	16.858000	-5.414992
	16.860000	-5.495576
	16.862000	-5.553597
	16.864000	-5.569713
	16.866000	-5.540703
	16.868000	-5.460119
	16.870000	-5.369865
	16.872000	-5.315068
	16.874000	-5.295728
	16.876000	-5.331185
	16.878000	-5.408546
	16.880000	-5.492353
	16.882000	-5.550373
	16.884000	-5.566490
	16.886000	-5.534257
	16.888000	-5.456896
	16.890000	-5.366642
	16.892000	-5.311845
	16.894000	-5.292505
	16.896000	-5.324738
	16.898000	-5.402099
	16.900000	-5.485906
	16.902000	-5.543927
	16.904000	-5.553597
	16.906000	-5.521363
	16.908000	-5.437556
	16.910000	-5.360195
	16.912000	-5.295728
	16.914000	-5.279611
	16.916000	-5.305398
	16.918000	-5.389205
	16.920000	-5.466566
	16.922000	-5.524586
	16.924000	-5.537480
	16.926000	-5.508470
	16.928000	-5.431109
	16.930000	-5.337632
	16.932000	-5.286058
	16.934000	-5.263494
	16.936000	-5.295728
	16.938000	-5.366642
	16.940000	-5.447226
	16.942000	-5.508470
	16.944000	-5.524586
	16.946000	-5.482683
	16.948000	-5.398875
	16.950000	-5.315068
	16.952000	-5.253824
	16.954000	-5.237708
	16.956000	-5.273164
	16.958000	-5.356972
	16.960000	-5.431109
	16.962000	-5.489130
	16.964000	-5.505246
	16.966000	-5.466566
	16.968000	-5.385982
	16.970000	-5.305398
	16.972000	-5.247378
	16.974000	-5.228037
	16.976000	-5.253824
	16.978000	-5.334408
	16.980000	-5.414992
	16.982000	-5.473013
	16.984000	-5.489130
	16.986000	-5.453673
	16.988000	-5.366642
	16.990000	-5.279611
	16.992000	-5.221591
	16.994000	-5.199027
	16.996000	-5.237708
	16.998000	-5.315068
	17.000000	-5.405322
	17.002000	-5.453673
	17.004000	-5.476236
	17.006000	-5.437556
	17.008000	-5.350525
	17.010000	-5.266718
	17.012000	-5.202251
	17.014000	-5.186134
	17.016000	-5.218367
	17.018000	-5.298951
	17.020000	-5.379535
	17.022000	-5.437556
	17.024000	-5.447226
	17.026000	-5.414992
	17.028000	-5.334408
	17.030000	-5.247378
	17.032000	-5.189357
	17.034000	-5.163570
	17.036000	-5.199027
	17.038000	-5.279611
	17.040000	-5.356972
	17.042000	-5.411769
	17.044000	-5.424662
	17.046000	-5.385982
	17.048000	-5.305398
	17.050000	-5.218367
	17.052000	-5.160347
	17.054000	-5.134560
	17.056000	-5.166794
	17.058000	-5.247378
	17.060000	-5.327962
	17.062000	-5.382759
	17.064000	-5.398875
	17.066000	-5.356972
	17.068000	-5.273164
	17.070000	-5.189357
	17.072000	-5.121667
	17.074000	-5.105550
	17.076000	-5.144230
	17.078000	-5.221591
	17.080000	-5.302175
	17.082000	-5.356972
	17.084000	-5.366642
	17.086000	-5.318291
	17.088000	-5.244154
	17.090000	-5.160347
	17.092000	-5.095880
	17.094000	-5.082986
	17.096000	-5.111997
	17.098000	-5.202251
	17.100000	-5.286058
	17.102000	-5.331185
	17.104000	-5.344078
	17.106000	-5.305398
	17.108000	-5.228037
	17.110000	-5.141007
	17.112000	-5.076540
	17.114000	-5.060423
	17.116000	-5.095880
	17.118000	-5.176464
	17.120000	-5.260271
	17.122000	-5.311845
	17.124000	-5.318291
	17.126000	-5.286058
	17.128000	-5.199027
	17.130000	-5.111997
	17.132000	-5.057199
	17.134000	-5.041083
	17.136000	-5.063646
	17.138000	-5.150677
	17.140000	-5.234484
	17.142000	-5.282835
	17.144000	-5.302175
	17.146000	-5.260271
	17.148000	-5.186134
	17.150000	-5.089433
	17.152000	-5.031413
	17.154000	-5.018519
	17.156000	-5.050753
	17.158000	-5.137783
	17.160000	-5.211921
	17.162000	-5.269941
	17.164000	-5.276388
	17.166000	-5.240931
	17.168000	-5.153900
	17.170000	-5.070093
	17.172000	-5.005626
	17.174000	-4.989509
	17.176000	-5.021742
	17.178000	-5.102326
	17.180000	-5.186134
	17.182000	-5.234484
	17.184000	-5.247378
	17.186000	-5.208697
	17.188000	-5.115220
	17.190000	-5.031413
	17.192000	-4.976615
	17.194000	-4.957275
	17.196000	-4.989509
	17.198000	-5.070093
	17.200000	-5.147453
	17.202000	-5.205474
	17.204000	-5.208697
	17.206000	-5.173240
	17.208000	-5.086210
	17.210000	-5.005626
	17.212000	-4.947605
	17.214000	-4.928265
	17.216000	-4.963722
	17.218000	-5.041083
	17.220000	-5.128113
	17.222000	-5.179687
	17.224000	-5.186134
	17.226000	-5.147453
	17.228000	-5.063646
	17.230000	-4.973392
	17.232000	-4.915372
	17.234000	-4.902478
	17.236000	-4.937935
	17.238000	-5.018519
	17.240000	-5.099103
	17.242000	-5.147453
	17.244000	-5.160347
	17.246000	-5.121667
	17.248000	-5.041083
	17.250000	-4.947605
	17.252000	-4.892808
	17.254000	-4.876691
	17.256000	-4.905702
	17.258000	-4.995956
	17.260000	-5.070093
	17.262000	-5.124890
	17.264000	-5.128113
	17.266000	-5.086210
	17.268000	-5.008849
	17.270000	-4.918595
	17.272000	-4.854128
	17.274000	-4.841234
	17.276000	-4.879915
	17.278000	-4.957275
	17.280000	-5.037859
	17.282000	-5.086210
	17.284000	-5.095880
	17.286000	-5.057199
	17.288000	-4.973392
	17.290000	-4.883138
	17.292000	-4.825118
	17.294000	-4.815448
	17.296000	-4.850904
	17.298000	-4.931488
	17.300000	-5.012072
	17.302000	-5.060423
	17.304000	-5.070093
	17.306000	-5.028189
	17.308000	-4.937935
	17.310000	-4.854128
	17.312000	-4.799331
	17.314000	-4.786437
	17.316000	-4.818671
	17.318000	-4.896031
	17.320000	-4.973392
	17.322000	-5.024966
	17.324000	-5.037859
	17.326000	-4.995956
	17.328000	-4.908925
	17.330000	-4.821894
	17.332000	-4.763874
	17.334000	-4.757427
	17.336000	-4.786437
	17.338000	-4.867021
	17.340000	-4.937935
	17.342000	-4.995956
	17.344000	-5.008849
	17.346000	-4.960499
	17.348000	-4.873468
	17.350000	-4.792884
	17.352000	-4.728417
	17.354000	-4.718747
	17.356000	-4.750980
	17.358000	-4.834788
	17.360000	-4.908925
	17.362000	-4.960499
	17.364000	-4.973392
	17.366000	-4.928265
	17.368000	-4.834788
	17.370000	-4.754204
	17.372000	-4.696183
	17.374000	-4.680066
	17.376000	-4.715523
	17.378000	-4.802554
	17.380000	-4.879915
	17.382000	-4.931488
	17.384000	-4.937935
	17.386000	-4.905702
	17.388000	-4.815448
	17.390000	-4.731640
	17.392000	-4.680066
	17.394000	-4.667173
	17.396000	-4.705853
	17.398000	-4.789661
	17.400000	-4.873468
	17.402000	-4.928265
	17.404000	-4.937935
	17.406000	-4.902478
	17.408000	-4.818671
	17.410000	-4.741310
	17.412000	-4.689737
	17.414000	-4.689737
	17.416000	-4.731640
	17.418000	-4.815448
	17.420000	-4.905702
	17.422000	-4.966945
	17.424000	-4.983062
	17.426000	-4.954052
	17.428000	-4.876691
	17.430000	-4.799331
	17.432000	-4.757427
	17.434000	-4.750980
	17.436000	-4.805777
	17.438000	-4.896031
	17.440000	-4.995956
	17.442000	-5.053976
	17.444000	-5.079763
	17.446000	-5.053976
	17.448000	-4.979839
	17.450000	-4.918595
	17.452000	-4.870245
	17.454000	-4.889585
	17.456000	-4.950829
	17.458000	-5.050753
	17.460000	-5.153900
	17.462000	-5.224814
	17.464000	-5.253824
	17.466000	-5.234484
	17.468000	-5.170017
	17.470000	-5.118443
	17.472000	-5.086210
	17.474000	-5.108773
	17.476000	-5.179687
	17.478000	-5.295728
	17.480000	-5.408546
	17.482000	-5.492353
	17.484000	-5.531033
	17.486000	-5.514916
	17.488000	-5.453673
	17.490000	-5.395652
	17.492000	-5.376312
	17.494000	-5.402099
	17.496000	-5.469789
	17.498000	-5.569713
	17.500000	-5.688978
	17.502000	-5.763115
	17.504000	-5.792125
	17.506000	-5.772785
	17.508000	-5.711541
	17.510000	-5.663191
	17.512000	-5.634181
	17.514000	-5.653521
	17.516000	-5.711541
	17.518000	-5.821135
	17.520000	-5.917836
	17.522000	-5.995197
	17.524000	-6.020984
	17.526000	-6.001644
	17.528000	-5.940400
	17.530000	-5.882379
	17.532000	-5.840476
	17.534000	-5.856592
	17.536000	-5.927506
	17.538000	-6.024207
	17.540000	-6.117685
	17.542000	-6.182152
	17.544000	-6.211162
	17.546000	-6.178928
	17.548000	-6.120908
	17.550000	-6.053217
	17.552000	-6.014537
	17.554000	-6.017760
	17.556000	-6.088674
	17.558000	-6.178928
	17.560000	-6.269182
	17.562000	-6.340096
	17.564000	-6.359436
	17.566000	-6.327203
	17.568000	-6.256289
	17.570000	-6.188598
	17.572000	-6.153141
	17.574000	-6.156365
	17.576000	-6.217609
	17.578000	-6.307863
	17.580000	-6.404563
	17.582000	-6.459361
	17.584000	-6.478701
	17.586000	-6.452914
	17.588000	-6.378777
	17.590000	-6.307863
	17.592000	-6.269182
	17.594000	-6.278852
	17.596000	-6.327203
	17.598000	-6.423904
	17.600000	-6.510934
	17.602000	-6.578625
	17.604000	-6.585072
	17.606000	-6.556061
	17.608000	-6.478701
	17.610000	-6.407787
	17.612000	-6.356213
	17.614000	-6.362660
	17.616000	-6.414234
	17.618000	-6.507711
	17.620000	-6.594742
	17.622000	-6.646315
	17.624000	-6.662432
	17.626000	-6.620529
	17.628000	-6.546391
	17.630000	-6.465807
	17.632000	-6.423904
	17.634000	-6.427127
	17.636000	-6.475477
	17.638000	-6.565731
	17.640000	-6.655985
	17.642000	-6.707559
	17.644000	-6.714006
	17.646000	-6.672102
	17.648000	-6.591518
	17.650000	-6.514158
	17.652000	-6.472254
	17.654000	-6.469031
	17.656000	-6.523828
	17.658000	-6.604412
	17.660000	-6.684996
	17.662000	-6.746240
	17.664000	-6.746240
	17.666000	-6.704336
	17.668000	-6.626975
	17.670000	-6.549615
	17.672000	-6.504488
	17.674000	-6.501264
	17.676000	-6.546391
	17.678000	-6.636645
	17.680000	-6.714006
	17.682000	-6.765580
	17.684000	-6.784920
	17.686000	-6.730123
	17.688000	-6.655985
	17.690000	-6.578625
	17.692000	-6.527051
	17.694000	-6.527051
	17.696000	-6.575401
	17.698000	-6.659209
	17.700000	-6.736569
	17.702000	-6.791367
	17.704000	-6.804260
	17.706000	-6.752686
	17.708000	-6.668879
	17.710000	-6.601188
	17.712000	-6.543168
	17.714000	-6.546391
	17.716000	-6.591518
	17.718000	-6.672102
	17.720000	-6.755910
	17.722000	-6.804260
	17.724000	-6.807483
	17.726000	-6.759133
	17.728000	-6.681772
	17.730000	-6.601188
	17.732000	-6.549615
	17.734000	-6.549615
	17.736000	-6.601188
	17.738000	-6.675326
	17.740000	-6.755910
	17.742000	-6.807483
	17.744000	-6.804260
	17.746000	-6.765580
	17.748000	-6.681772
	17.750000	-6.601188
	17.752000	-6.549615
	17.754000	-6.549615
	17.756000	-6.594742
	17.758000	-6.678549
	17.760000	-6.762356
	17.762000	-6.807483
	17.764000	-6.807483
	17.766000	-6.765580
	17.768000	-6.678549
	17.770000	-6.604412
	17.772000	-6.552838
	17.774000	-6.552838
	17.776000	-6.601188
	17.778000	-6.684996
	17.780000	-6.765580
	17.782000	-6.817153
	17.784000	-6.826823
	17.786000	-6.778473
	17.788000	-6.697889
	17.790000	-6.623752
	17.792000	-6.575401
	17.794000	-6.575401
	17.796000	-6.623752
	17.798000	-6.707559
	17.800000	-6.791367
	17.802000	-6.852610
	17.804000	-6.855834
	17.806000	-6.813930
	17.808000	-6.730123
	17.810000	-6.659209
	17.812000	-6.614082
	17.814000	-6.620529
	17.816000	-6.672102
	17.818000	-6.759133
	17.820000	-6.842940
	17.822000	-6.904184
	17.824000	-6.910631
	17.826000	-6.865504
	17.828000	-6.788143
	17.830000	-6.714006
	17.832000	-6.668879
	17.834000	-6.672102
	17.836000	-6.733346
	17.838000	-6.817153
	17.840000	-6.910631
	17.842000	-6.958981
	17.844000	-6.965428
	17.846000	-6.926748
	17.848000	-6.852610
	17.850000	-6.778473
	17.852000	-6.720453
	17.854000	-6.730123
	17.856000	-6.788143
	17.858000	-6.875174
	17.860000	-6.952534
	17.862000	-7.013778
	17.864000	-7.026672
	17.866000	-6.978321
	17.868000	-6.897737
	17.870000	-6.833270
	17.872000	-6.791367
	17.874000	-6.794590
	17.876000	-6.855834
	17.878000	-6.946088
	17.880000	-7.026672
	17.882000	-7.084692
	17.884000	-7.087916
	17.886000	-7.042789
	17.888000	-6.978321
	17.890000	-6.900961
	17.892000	-6.859057
	17.894000	-6.862280
	17.896000	-6.923524
	17.898000	-7.004108
	17.900000	-7.094362
	17.902000	-7.149159
	17.904000	-7.149159
	17.906000	-7.110479
	17.908000	-7.042789
	17.910000	-6.971875
	17.912000	-6.933194
	17.914000	-6.936418
	17.916000	-6.997662
	17.918000	-7.081469
	17.920000	-7.174946
	17.922000	-7.223297
	17.924000	-7.239413
	17.926000	-7.187840
	17.928000	-7.116926
	17.930000	-7.042789
	17.932000	-7.010555
	17.934000	-7.017002
	17.936000	-7.078245
	17.938000	-7.171723
	17.940000	-7.255530
	17.942000	-7.310327
	17.944000	-7.323221
	17.946000	-7.278094
	17.948000	-7.210403
	17.950000	-7.142713
	17.952000	-7.110479
	17.954000	-7.113702
	17.956000	-7.171723
	17.958000	-7.265200
	17.960000	-7.349008
	17.962000	-7.403805
	17.964000	-7.416698
	17.966000	-7.384465
	17.968000	-7.300657
	17.970000	-7.242637
	17.972000	-7.203956
	17.974000	-7.213627
	17.976000	-7.274870
	17.978000	-7.358678
	17.980000	-7.452155
	17.982000	-7.510176
	17.984000	-7.523069
	17.986000	-7.484389
	17.988000	-7.407028
	17.990000	-7.345784
	17.992000	-7.303881
	17.994000	-7.323221
	17.996000	-7.381241
	17.998000	-7.471495
	18.000000	-7.561749
	18.002000	-7.613323
	18.004000	-7.626217
	18.006000	-7.593983
	18.008000	-7.523069
	18.010000	-7.452155
	18.012000	-7.423145
	18.014000	-7.432815
	18.016000	-7.497282
	18.018000	-7.581089
	18.020000	-7.684237
	18.022000	-7.742257
	18.024000	-7.748704
	18.026000	-7.716471
	18.028000	-7.639110
	18.030000	-7.581089
	18.032000	-7.545633
	18.034000	-7.561749
	18.036000	-7.613323
	18.038000	-7.716471
	18.040000	-7.797055
	18.042000	-7.861522
	18.044000	-7.867968
	18.046000	-7.832511
	18.048000	-7.758374
	18.050000	-7.687460
	18.052000	-7.661673
	18.054000	-7.671344
	18.056000	-7.732587
	18.058000	-7.822841
	18.060000	-7.916319
	18.062000	-7.974339
	18.064000	-7.990456
	18.066000	-7.942106
	18.068000	-7.877639
	18.070000	-7.803501
	18.072000	-7.774491
	18.074000	-7.784161
	18.076000	-7.845405
	18.078000	-7.938882
	18.080000	-8.032360
	18.082000	-8.093604
	18.084000	-8.103274
	18.086000	-8.051700
	18.088000	-7.987233
	18.090000	-7.925989
	18.092000	-7.890532
	18.094000	-7.906649
	18.096000	-7.971116
	18.098000	-8.061370
	18.100000	-8.158071
	18.102000	-8.216091
	18.104000	-8.222538
	18.106000	-8.183858
	18.108000	-8.112944
	18.110000	-8.048477
	18.112000	-8.019466
	18.114000	-8.032360
	18.116000	-8.093604
	18.118000	-8.193528
	18.120000	-8.280558
	18.122000	-8.338579
	18.124000	-8.354696
	18.126000	-8.309569
	18.128000	-8.241878
	18.130000	-8.177411
	18.132000	-8.151624
	18.134000	-8.161294
	18.136000	-8.225761
	18.138000	-8.319239
	18.140000	-8.409493
	18.142000	-8.464290
	18.144000	-8.473960
	18.146000	-8.438503
	18.148000	-8.364366
	18.150000	-8.296675
	18.152000	-8.264442
	18.154000	-8.283782
	18.156000	-8.341802
	18.158000	-8.438503
	18.160000	-8.519087
	18.162000	-8.586777
	18.164000	-8.586777
	18.166000	-8.541650
	18.168000	-8.480407
	18.170000	-8.406269
	18.172000	-8.377259
	18.174000	-8.390153
	18.176000	-8.444950
	18.178000	-8.544874
	18.180000	-8.628681
	18.182000	-8.686702
	18.184000	-8.696372
	18.186000	-8.654468
	18.188000	-8.580331
	18.190000	-8.522310
	18.192000	-8.483630
	18.194000	-8.493300
	18.196000	-8.560991
	18.198000	-8.657691
	18.200000	-8.741499
	18.202000	-8.799519
	18.204000	-8.809189
	18.206000	-8.767286
	18.208000	-8.689925
	18.210000	-8.631904
	18.212000	-8.596448
	18.214000	-8.612564
	18.216000	-8.680255
	18.218000	-8.767286
	18.220000	-8.857540
	18.222000	-8.915560
	18.224000	-8.918783
	18.226000	-8.880103
	18.228000	-8.802743
	18.230000	-8.744722
	18.232000	-8.702818
	18.234000	-8.725382
	18.236000	-8.786626
	18.238000	-8.880103
	18.240000	-8.967134
	18.242000	-9.025154
	18.244000	-9.034824
	18.246000	-8.986474
	18.248000	-8.912337
	18.250000	-8.851093
	18.252000	-8.809189
	18.254000	-8.825306
	18.256000	-8.889773
	18.258000	-8.983251
	18.260000	-9.060611
	18.262000	-9.112185
	18.264000	-9.118632
	18.266000	-9.067058
	18.268000	-8.996144
	18.270000	-8.928454
	18.272000	-8.896220
	18.274000	-8.909113
	18.276000	-8.970357
	18.278000	-9.060611
	18.280000	-9.137972
	18.282000	-9.192769
	18.284000	-9.192769
	18.286000	-9.144419
	18.288000	-9.067058
	18.290000	-8.996144
	18.292000	-8.957464
	18.294000	-8.970357
	18.296000	-9.031601
	18.298000	-9.118632
	18.300000	-9.195992
	18.302000	-9.244343
	18.304000	-9.241119
	18.306000	-9.195992
	18.308000	-9.118632
	18.310000	-9.044494
	18.312000	-9.009037
	18.314000	-9.015484
	18.316000	-9.073505
	18.318000	-9.163759
	18.320000	-9.244343
	18.322000	-9.283023
	18.324000	-9.286246
	18.326000	-9.231449
	18.328000	-9.154089
	18.330000	-9.079951
	18.332000	-9.034824
	18.334000	-9.038048
	18.336000	-9.099292
	18.338000	-9.186322
	18.340000	-9.254013
	18.342000	-9.305587
	18.344000	-9.299140
	18.346000	-9.247566
	18.348000	-9.166982
	18.350000	-9.089621
	18.352000	-9.044494
	18.354000	-9.054165
	18.356000	-9.112185
	18.358000	-9.199216
	18.360000	-9.279800
	18.362000	-9.318480
	18.364000	-9.312033
	18.366000	-9.263683
	18.368000	-9.176652
	18.370000	-9.112185
	18.372000	-9.073505
	18.374000	-9.073505
	18.376000	-9.141195
	18.378000	-9.221779
	18.380000	-9.299140
	18.382000	-9.347490
	18.384000	-9.341043
	18.386000	-9.289470
	18.388000	-9.202439
	18.390000	-9.137972
	18.392000	-9.092845
	18.394000	-9.102515
	18.396000	-9.166982
	18.398000	-9.250789
	18.400000	-9.331373
	18.402000	-9.376500
	18.404000	-9.366830
	18.406000	-9.321703
	18.408000	-9.234673
	18.410000	-9.157312
	18.412000	-9.121855
	18.414000	-9.128302
	18.416000	-9.189546
	18.418000	-9.273353
	18.420000	-9.347490
	18.422000	-9.392617
	18.424000	-9.382947
	18.426000	-9.324927
	18.428000	-9.237896
	18.430000	-9.163759
	18.432000	-9.128302
	18.434000	-9.128302
	18.436000	-9.179876
	18.438000	-9.263683
	18.440000	-9.334597
	18.442000	-9.373277
	18.444000	-9.363607
	18.446000	-9.299140
	18.448000	-9.208886
	18.450000	-9.131525
	18.452000	-9.083175
	18.454000	-9.083175
	18.456000	-9.134748
	18.458000	-9.212109
	18.460000	-9.276576
	18.462000	-9.305587
	18.464000	-9.302363
	18.466000	-9.231449
	18.468000	-9.128302
	18.470000	-9.054165
	18.472000	-8.999367
	18.474000	-9.005814
	18.476000	-9.054165
	18.478000	-9.125078
	18.480000	-9.183099
	18.482000	-9.215332
	18.484000	-9.199216
	18.486000	-9.121855
	18.488000	-9.025154
	18.490000	-8.938124
	18.492000	-8.889773
	18.494000	-8.880103
	18.496000	-8.931677
	18.498000	-8.999367
	18.500000	-9.060611
	18.502000	-9.076728
	18.504000	-9.060611
	18.506000	-8.983251
	18.508000	-8.889773
	18.510000	-8.793072
	18.512000	-8.738275
	18.514000	-8.735052
	18.516000	-8.767286
	18.518000	-8.841423
	18.520000	-8.892997
	18.522000	-8.912337
	18.524000	-8.883326
	18.526000	-8.809189
	18.528000	-8.706042
	18.530000	-8.612564
	18.532000	-8.548097
	18.534000	-8.544874
	18.536000	-8.583554
	18.538000	-8.644798
	18.540000	-8.699595
	18.542000	-8.712488
	18.544000	-8.683478
	18.546000	-8.609341
	18.548000	-8.496523
	18.550000	-8.406269
	18.552000	-8.341802
	18.554000	-8.328909
	18.556000	-8.367589
	18.558000	-8.428833
	18.560000	-8.490077
	18.562000	-8.499747
	18.564000	-8.467513
	18.566000	-8.386929
	18.568000	-8.287005
	18.570000	-8.193528
	18.572000	-8.122614
	18.574000	-8.112944
	18.576000	-8.154847
	18.578000	-8.212868
	18.580000	-8.264442
	18.582000	-8.280558
	18.584000	-8.251548
	18.586000	-8.170964
	18.588000	-8.071040
	18.590000	-7.971116
	18.592000	-7.913095
	18.594000	-7.903425
	18.596000	-7.938882
	18.598000	-8.009796
	18.600000	-8.058147
	18.602000	-8.080710
	18.604000	-8.048477
	18.606000	-7.964669
	18.608000	-7.867968
	18.610000	-7.774491
	18.612000	-7.722917
	18.614000	-7.710024
	18.616000	-7.755151
	18.618000	-7.822841
	18.620000	-7.884085
	18.622000	-7.900202
	18.624000	-7.874415
	18.626000	-7.797055
	18.628000	-7.697130
	18.630000	-7.606876
	18.632000	-7.555303
	18.634000	-7.548856
	18.636000	-7.593983
	18.638000	-7.664897
	18.640000	-7.726141
	18.642000	-7.755151
	18.644000	-7.719694
	18.646000	-7.648780
	18.648000	-7.555303
	18.650000	-7.465049
	18.652000	-7.410251
	18.654000	-7.413475
	18.656000	-7.461825
	18.658000	-7.532739
	18.660000	-7.597206
	18.662000	-7.613323
	18.664000	-7.603653
	18.666000	-7.526292
	18.668000	-7.436038
	18.670000	-7.349008
	18.672000	-7.303881
	18.674000	-7.307104
	18.676000	-7.365124
	18.678000	-7.436038
	18.680000	-7.503729
	18.682000	-7.526292
	18.684000	-7.506952
	18.686000	-7.442485
	18.688000	-7.349008
	18.690000	-7.268424
	18.692000	-7.223297
	18.694000	-7.226520
	18.696000	-7.284540
	18.698000	-7.361901
	18.700000	-7.426368
	18.702000	-7.452155
	18.704000	-7.442485
	18.706000	-7.371571
	18.708000	-7.281317
	18.710000	-7.200733
	18.712000	-7.149159
	18.714000	-7.155606
	18.716000	-7.220073
	18.718000	-7.294211
	18.720000	-7.358678
	18.722000	-7.390911
	18.724000	-7.365124
	18.726000	-7.307104
	18.728000	-7.213627
	18.730000	-7.129819
	18.732000	-7.087916
	18.734000	-7.097586
	18.736000	-7.145936
	18.738000	-7.223297
	18.740000	-7.287764
	18.742000	-7.316774
	18.744000	-7.297434
	18.746000	-7.236190
	18.748000	-7.142713
	18.750000	-7.055682
	18.752000	-7.013778
	18.754000	-7.013778
	18.756000	-7.071799
	18.758000	-7.152383
	18.760000	-7.203956
	18.762000	-7.236190
	18.764000	-7.220073
	18.766000	-7.152383
	18.768000	-7.055682
	18.770000	-6.968651
	18.772000	-6.929971
	18.774000	-6.929971
	18.776000	-6.981545
	18.778000	-7.065352
	18.780000	-7.120149
	18.782000	-7.152383
	18.784000	-7.129819
	18.786000	-7.052459
	18.788000	-6.958981
	18.790000	-6.878397
	18.792000	-6.830047
	18.794000	-6.836494
	18.796000	-6.891291
	18.798000	-6.965428
	18.800000	-7.026672
	18.802000	-7.058905
	18.804000	-7.033118
	18.806000	-6.958981
	18.808000	-6.862280
	18.810000	-6.788143
	18.812000	-6.733346
	18.814000	-6.743016
	18.816000	-6.801037
	18.818000	-6.875174
	18.820000	-6.936418
	18.822000	-6.962205
	18.824000	-6.942864
	18.826000	-6.875174
	18.828000	-6.775250
	18.830000	-6.697889
	18.832000	-6.649539
	18.834000	-6.665656
	18.836000	-6.717229
	18.838000	-6.794590
	18.840000	-6.862280
	18.842000	-6.884844
	18.844000	-6.865504
	18.846000	-6.788143
	18.848000	-6.701112
	18.850000	-6.617305
	18.852000	-6.581848
	18.854000	-6.581848
	18.856000	-6.649539
	18.858000	-6.726899
	18.860000	-6.788143
	18.862000	-6.820377
	18.864000	-6.791367
	18.866000	-6.720453
	18.868000	-6.623752
	18.870000	-6.552838
	18.872000	-6.514158
	18.874000	-6.520604
	18.876000	-6.578625
	18.878000	-6.662432
	18.880000	-6.723676
	18.882000	-6.752686
