2024/7/11 	 16:11:13 
 This file comes from Vt only measurement 	 1.000000E-1 
 Voltage Sensitivity 	 0.000000E+0 
 Sampling rate 	 200 
 Number of samples per channel 	 -1 
 No filter from Labview 	 	 	 
 	 
 ***End_of_Header*** 
 	 Time 	  Voltage 	 Filtered Voltage 	 
	0.000000	-0.989320
	0.005000	-1.066681
	0.010000	-1.105361
	0.015000	-1.034447
	0.020000	-0.989320
	0.025000	-1.057011
	0.030000	-1.098915
	0.035000	-1.034447
	0.040000	-0.989320
	0.045000	-1.053788
	0.050000	-1.102138
	0.055000	-1.024777
	0.060000	-0.986097
	0.065000	-1.057011
	0.070000	-1.098915
	0.075000	-1.031224
	0.080000	-0.986097
	0.085000	-1.053788
	0.090000	-1.095691
	0.095000	-1.024777
	0.100000	-0.979650
	0.105000	-1.053788
	0.110000	-1.089245
	0.115000	-1.028001
	0.120000	-0.982874
	0.125000	-1.053788
	0.130000	-1.095691
	0.135000	-1.024777
	0.140000	-0.973204
	0.145000	-1.047341
	0.150000	-1.095691
	0.155000	-1.021554
	0.160000	-0.976427
	0.165000	-1.040894
	0.170000	-1.086021
	0.175000	-1.024777
	0.180000	-0.973204
	0.185000	-1.040894
	0.190000	-1.086021
	0.195000	-1.018331
	0.200000	-0.973204
	0.205000	-1.037671
	0.210000	-1.086021
	0.215000	-1.021554
	0.220000	-0.966757
	0.225000	-1.031224
	0.230000	-1.076351
	0.235000	-1.011884
	0.240000	-0.963534
	0.245000	-1.031224
	0.250000	-1.073128
	0.255000	-1.008661
	0.260000	-0.963534
	0.265000	-1.031224
	0.270000	-1.076351
	0.275000	-1.002214
	0.280000	-0.957087
	0.285000	-1.028001
	0.290000	-1.066681
	0.295000	-1.002214
	0.300000	-0.953863
	0.305000	-1.018331
	0.310000	-1.073128
	0.315000	-1.002214
	0.320000	-0.953863
	0.325000	-1.018331
	0.330000	-1.066681
	0.335000	-1.005437
	0.340000	-0.947417
	0.345000	-1.011884
	0.350000	-1.073128
	0.355000	-0.992544
	0.360000	-0.947417
	0.365000	-1.011884
	0.370000	-1.060234
	0.375000	-0.992544
	0.380000	-0.944193
	0.385000	-1.011884
	0.390000	-1.060234
	0.395000	-0.986097
	0.400000	-0.947417
	0.405000	-1.005437
	0.410000	-1.060234
	0.415000	-0.992544
	0.420000	-0.940970
	0.425000	-1.002214
	0.430000	-1.053788
	0.435000	-0.986097
	0.440000	-0.937747
	0.445000	-0.998991
	0.450000	-1.047341
	0.455000	-0.979650
	0.460000	-0.934523
	0.465000	-0.995767
	0.470000	-1.047341
	0.475000	-0.979650
	0.480000	-0.931300
	0.485000	-0.998991
	0.490000	-1.037671
	0.495000	-0.986097
	0.500000	-0.934523
	0.505000	-0.992544
	0.510000	-1.044118
	0.515000	-0.979650
	0.520000	-0.934523
	0.525000	-0.989320
	0.530000	-1.040894
	0.535000	-0.986097
	0.540000	-0.928077
	0.545000	-0.992544
	0.550000	-1.037671
	0.555000	-0.979650
	0.560000	-0.924853
	0.565000	-0.992544
	0.570000	-1.037671
	0.575000	-0.976427
	0.580000	-0.921630
	0.585000	-0.986097
	0.590000	-1.040894
	0.595000	-0.976427
	0.600000	-0.921630
	0.605000	-0.973204
	0.610000	-1.034447
	0.615000	-0.969980
	0.620000	-0.915183
	0.625000	-0.976427
	0.630000	-1.028001
	0.635000	-0.963534
	0.640000	-0.908736
	0.645000	-0.973204
	0.650000	-1.024777
	0.655000	-0.957087
	0.660000	-0.905513
	0.665000	-0.966757
	0.670000	-1.021554
	0.675000	-0.953863
	0.680000	-0.899066
	0.685000	-0.966757
	0.690000	-1.015107
	0.695000	-0.950640
	0.700000	-0.899066
	0.705000	-0.957087
	0.710000	-1.015107
	0.715000	-0.953863
	0.720000	-0.895843
	0.725000	-0.957087
	0.730000	-1.005437
	0.735000	-0.947417
	0.740000	-0.889396
	0.745000	-0.953863
	0.750000	-1.005437
	0.755000	-0.940970
	0.760000	-0.886173
	0.765000	-0.944193
	0.770000	-0.998991
	0.775000	-0.937747
	0.780000	-0.876503
	0.785000	-0.940970
	0.790000	-0.995767
	0.795000	-0.934523
	0.800000	-0.879726
	0.805000	-0.937747
	0.810000	-0.992544
	0.815000	-0.934523
	0.820000	-0.870056
	0.825000	-0.937747
	0.830000	-0.986097
	0.835000	-0.924853
	0.840000	-0.870056
	0.845000	-0.928077
	0.850000	-0.979650
	0.855000	-0.918407
	0.860000	-0.863609
	0.865000	-0.921630
	0.870000	-0.973204
	0.875000	-0.911960
	0.880000	-0.857163
	0.885000	-0.908736
	0.890000	-0.973204
	0.895000	-0.905513
	0.900000	-0.853939
	0.905000	-0.905513
	0.910000	-0.960310
	0.915000	-0.899066
	0.920000	-0.837823
	0.925000	-0.902290
	0.930000	-0.957087
	0.935000	-0.892620
	0.940000	-0.834599
	0.945000	-0.895843
	0.950000	-0.950640
	0.955000	-0.886173
	0.960000	-0.831376
	0.965000	-0.889396
	0.970000	-0.940970
	0.975000	-0.882950
	0.980000	-0.828152
	0.985000	-0.879726
	0.990000	-0.934523
	0.995000	-0.879726
	1.000000	-0.812036
	1.005000	-0.866833
	1.010000	-0.924853
	1.015000	-0.870056
	1.020000	-0.821706
	1.025000	-0.870056
	1.030000	-0.921630
	1.035000	-0.870056
	1.040000	-0.799142
	1.045000	-0.866833
	1.050000	-0.918407
	1.055000	-0.857163
	1.060000	-0.795919
	1.065000	-0.857163
	1.070000	-0.911960
	1.075000	-0.853939
	1.080000	-0.799142
	1.085000	-0.844269
	1.090000	-0.902290
	1.095000	-0.844269
	1.100000	-0.786249
	1.105000	-0.837823
	1.110000	-0.892620
	1.115000	-0.837823
	1.120000	-0.773355
	1.125000	-0.828152
	1.130000	-0.889396
	1.135000	-0.821706
	1.140000	-0.766909
	1.145000	-0.818482
	1.150000	-0.870056
	1.155000	-0.808812
	1.160000	-0.750792
	1.165000	-0.802366
	1.170000	-0.860386
	1.175000	-0.792696
	1.180000	-0.737898
	1.185000	-0.779802
	1.190000	-0.834599
	1.195000	-0.779802
	1.200000	-0.718558
	1.205000	-0.763685
	1.210000	-0.821706
	1.215000	-0.766909
	1.220000	-0.689548
	1.225000	-0.744345
	1.230000	-0.792696
	1.235000	-0.731452
	1.240000	-0.670208
	1.245000	-0.718558
	1.250000	-0.770132
	1.255000	-0.699218
	1.260000	-0.637974
	1.265000	-0.683101
	1.270000	-0.731452
	1.275000	-0.666985
	1.280000	-0.605741
	1.285000	-0.641198
	1.290000	-0.689548
	1.295000	-0.625081
	1.300000	-0.563837
	1.305000	-0.599294
	1.310000	-0.641198
	1.315000	-0.576730
	1.320000	-0.502593
	1.325000	-0.544497
	1.330000	-0.599294
	1.335000	-0.525157
	1.340000	-0.463913
	1.345000	-0.505817
	1.350000	-0.557390
	1.355000	-0.496147
	1.360000	-0.434903
	1.365000	-0.480030
	1.370000	-0.534827
	1.375000	-0.476806
	1.380000	-0.422009
	1.385000	-0.460690
	1.390000	-0.518710
	1.395000	-0.467136
	1.400000	-0.405892
	1.405000	-0.454243
	1.410000	-0.512263
	1.415000	-0.463913
	1.420000	-0.399446
	1.425000	-0.454243
	1.430000	-0.512263
	1.435000	-0.460690
	1.440000	-0.402669
	1.445000	-0.454243
	1.450000	-0.512263
	1.455000	-0.463913
	1.460000	-0.399446
	1.465000	-0.454243
	1.470000	-0.509040
	1.475000	-0.457466
	1.480000	-0.405892
	1.485000	-0.454243
	1.490000	-0.509040
	1.495000	-0.460690
	1.500000	-0.405892
	1.505000	-0.451019
	1.510000	-0.512263
	1.515000	-0.463913
	1.520000	-0.399446
	1.525000	-0.447796
	1.530000	-0.521933
	1.535000	-0.480030
	1.540000	-0.409116
	1.545000	-0.463913
	1.550000	-0.518710
	1.555000	-0.476806
	1.560000	-0.422009
	1.565000	-0.473583
	1.570000	-0.534827
	1.575000	-0.489700
	1.580000	-0.434903
	1.585000	-0.486476
	1.590000	-0.560614
	1.595000	-0.521933
	1.600000	-0.467136
	1.605000	-0.525157
	1.610000	-0.599294
	1.615000	-0.554167
	1.620000	-0.515487
	1.625000	-0.576730
	1.630000	-0.650868
	1.635000	-0.615411
	1.640000	-0.570284
	1.645000	-0.625081
	1.650000	-0.692771
	1.655000	-0.657314
	1.660000	-0.599294
	1.665000	-0.654091
	1.670000	-0.721782
	1.675000	-0.673431
	1.680000	-0.618634
	1.685000	-0.666985
	1.690000	-0.731452
	1.695000	-0.683101
	1.700000	-0.621858
	1.705000	-0.673431
	1.710000	-0.734675
	1.715000	-0.683101
	1.720000	-0.618634
	1.725000	-0.663761
	1.730000	-0.734675
	1.735000	-0.689548
	1.740000	-0.621858
	1.745000	-0.666985
	1.750000	-0.725005
	1.755000	-0.679878
	1.760000	-0.615411
	1.765000	-0.663761
	1.770000	-0.734675
	1.775000	-0.676655
	1.780000	-0.615411
	1.785000	-0.660538
	1.790000	-0.721782
	1.795000	-0.676655
	1.800000	-0.608964
	1.805000	-0.650868
	1.810000	-0.718558
	1.815000	-0.670208
	1.820000	-0.602517
	1.825000	-0.647644
	1.830000	-0.715335
	1.835000	-0.663761
	1.840000	-0.605741
	1.845000	-0.644421
	1.850000	-0.712112
	1.855000	-0.666985
	1.860000	-0.596071
	1.865000	-0.644421
	1.870000	-0.705665
	1.875000	-0.657314
	1.880000	-0.589624
	1.885000	-0.637974
	1.890000	-0.702441
	1.895000	-0.660538
	1.900000	-0.599294
	1.905000	-0.637974
	1.910000	-0.695995
	1.915000	-0.650868
	1.920000	-0.589624
	1.925000	-0.634751
	1.930000	-0.695995
	1.935000	-0.657314
	1.940000	-0.592847
	1.945000	-0.628304
	1.950000	-0.695995
	1.955000	-0.650868
	1.960000	-0.592847
	1.965000	-0.631528
	1.970000	-0.699218
	1.975000	-0.650868
	1.980000	-0.583177
	1.985000	-0.631528
	1.990000	-0.689548
	1.995000	-0.647644
	2.000000	-0.586401
	2.005000	-0.625081
	2.010000	-0.695995
	2.015000	-0.647644
	2.020000	-0.586401
	2.025000	-0.625081
	2.030000	-0.692771
	2.035000	-0.647644
	2.040000	-0.579954
	2.045000	-0.625081
	2.050000	-0.689548
	2.055000	-0.647644
	2.060000	-0.573507
	2.065000	-0.621858
	2.070000	-0.695995
	2.075000	-0.647644
	2.080000	-0.579954
	2.085000	-0.625081
	2.090000	-0.692771
	2.095000	-0.647644
	2.100000	-0.583177
	2.105000	-0.625081
	2.110000	-0.699218
	2.115000	-0.644421
	2.120000	-0.579954
	2.125000	-0.625081
	2.130000	-0.695995
	2.135000	-0.650868
	2.140000	-0.583177
	2.145000	-0.631528
	2.150000	-0.702441
	2.155000	-0.647644
	2.160000	-0.589624
	2.165000	-0.628304
	2.170000	-0.702441
	2.175000	-0.660538
	2.180000	-0.592847
	2.185000	-0.634751
	2.190000	-0.695995
	2.195000	-0.650868
	2.200000	-0.589624
	2.205000	-0.628304
	2.210000	-0.695995
	2.215000	-0.650868
	2.220000	-0.583177
	2.225000	-0.625081
	2.230000	-0.695995
	2.235000	-0.657314
	2.240000	-0.579954
	2.245000	-0.625081
	2.250000	-0.692771
	2.255000	-0.654091
	2.260000	-0.579954
	2.265000	-0.621858
	2.270000	-0.689548
	2.275000	-0.650868
	2.280000	-0.583177
	2.285000	-0.618634
	2.290000	-0.689548
	2.295000	-0.650868
	2.300000	-0.573507
	2.305000	-0.615411
	2.310000	-0.686325
	2.315000	-0.641198
	2.320000	-0.579954
	2.325000	-0.618634
	2.330000	-0.689548
	2.335000	-0.647644
	2.340000	-0.576730
	2.345000	-0.612187
	2.350000	-0.689548
	2.355000	-0.644421
	2.360000	-0.576730
	2.365000	-0.618634
	2.370000	-0.686325
	2.375000	-0.644421
	2.380000	-0.570284
	2.385000	-0.608964
	2.390000	-0.676655
	2.395000	-0.637974
	2.400000	-0.567060
	2.405000	-0.605741
	2.410000	-0.673431
	2.415000	-0.634751
	2.420000	-0.567060
	2.425000	-0.602517
	2.430000	-0.670208
	2.435000	-0.625081
	2.440000	-0.563837
	2.445000	-0.589624
	2.450000	-0.666985
	2.455000	-0.625081
	2.460000	-0.557390
	2.465000	-0.592847
	2.470000	-0.666985
	2.475000	-0.621858
	2.480000	-0.550944
	2.485000	-0.586401
	2.490000	-0.660538
	2.495000	-0.618634
	2.500000	-0.550944
	2.505000	-0.592847
	2.510000	-0.657314
	2.515000	-0.618634
	2.520000	-0.544497
	2.525000	-0.586401
	2.530000	-0.647644
	2.535000	-0.612187
	2.540000	-0.541274
	2.545000	-0.576730
	2.550000	-0.647644
	2.555000	-0.605741
	2.560000	-0.541274
	2.565000	-0.576730
	2.570000	-0.641198
	2.575000	-0.605741
	2.580000	-0.541274
	2.585000	-0.573507
	2.590000	-0.644421
	2.595000	-0.602517
	2.600000	-0.531603
	2.605000	-0.570284
	2.610000	-0.634751
	2.615000	-0.599294
	2.620000	-0.525157
	2.625000	-0.560614
	2.630000	-0.634751
	2.635000	-0.596071
	2.640000	-0.518710
	2.645000	-0.567060
	2.650000	-0.631528
	2.655000	-0.586401
	2.660000	-0.521933
	2.665000	-0.554167
	2.670000	-0.625081
	2.675000	-0.589624
	2.680000	-0.515487
	2.685000	-0.550944
	2.690000	-0.621858
	2.695000	-0.583177
	2.700000	-0.509040
	2.705000	-0.544497
	2.710000	-0.618634
	2.715000	-0.579954
	2.720000	-0.505817
	2.725000	-0.544497
	2.730000	-0.618634
	2.735000	-0.567060
	2.740000	-0.509040
	2.745000	-0.538050
	2.750000	-0.605741
	2.755000	-0.573507
	2.760000	-0.499370
	2.765000	-0.528380
	2.770000	-0.602517
	2.775000	-0.570284
	2.780000	-0.492923
	2.785000	-0.528380
	2.790000	-0.602517
	2.795000	-0.567060
	2.800000	-0.496147
	2.805000	-0.528380
	2.810000	-0.599294
	2.815000	-0.567060
	2.820000	-0.489700
	2.825000	-0.525157
	2.830000	-0.592847
	2.835000	-0.554167
	2.840000	-0.483253
	2.845000	-0.515487
	2.850000	-0.592847
	2.855000	-0.554167
	2.860000	-0.473583
	2.865000	-0.512263
	2.870000	-0.583177
	2.875000	-0.550944
	2.880000	-0.476806
	2.885000	-0.509040
	2.890000	-0.579954
	2.895000	-0.544497
	2.900000	-0.467136
	2.905000	-0.505817
	2.910000	-0.579954
	2.915000	-0.538050
	2.920000	-0.467136
	2.925000	-0.499370
	2.930000	-0.576730
	2.935000	-0.531603
	2.940000	-0.463913
	2.945000	-0.492923
	2.950000	-0.567060
	2.955000	-0.531603
	2.960000	-0.454243
	2.965000	-0.486476
	2.970000	-0.557390
	2.975000	-0.518710
	2.980000	-0.444573
	2.985000	-0.473583
	2.990000	-0.554167
	2.995000	-0.515487
	3.000000	-0.438126
	3.005000	-0.476806
	3.010000	-0.544497
	3.015000	-0.509040
	3.020000	-0.434903
	3.025000	-0.467136
	3.030000	-0.538050
	3.035000	-0.502593
	3.040000	-0.431679
	3.045000	-0.454243
	3.050000	-0.534827
	3.055000	-0.499370
	3.060000	-0.415563
	3.065000	-0.447796
	3.070000	-0.525157
	3.075000	-0.489700
	3.080000	-0.409116
	3.085000	-0.438126
	3.090000	-0.518710
	3.095000	-0.483253
	3.100000	-0.402669
	3.105000	-0.434903
	3.110000	-0.502593
	3.115000	-0.473583
	3.120000	-0.402669
	3.125000	-0.431679
	3.130000	-0.496147
	3.135000	-0.467136
	3.140000	-0.392999
	3.145000	-0.425233
	3.150000	-0.496147
	3.155000	-0.467136
	3.160000	-0.389776
	3.165000	-0.412339
	3.170000	-0.492923
	3.175000	-0.463913
	3.180000	-0.376882
	3.185000	-0.412339
	3.190000	-0.483253
	3.195000	-0.451019
	3.200000	-0.373659
	3.205000	-0.402669
	3.210000	-0.483253
	3.215000	-0.444573
	3.220000	-0.367212
	3.225000	-0.396222
	3.230000	-0.470360
	3.235000	-0.438126
	3.240000	-0.363989
	3.245000	-0.392999
	3.250000	-0.463913
	3.255000	-0.438126
	3.260000	-0.363989
	3.265000	-0.386552
	3.270000	-0.463913
	3.275000	-0.434903
	3.280000	-0.360765
	3.285000	-0.380106
	3.290000	-0.460690
	3.295000	-0.428456
	3.300000	-0.354319
	3.305000	-0.376882
	3.310000	-0.451019
	3.315000	-0.425233
	3.320000	-0.354319
	3.325000	-0.370436
	3.330000	-0.444573
	3.335000	-0.422009
	3.340000	-0.341425
	3.345000	-0.367212
	3.350000	-0.444573
	3.355000	-0.405892
	3.360000	-0.344649
	3.365000	-0.360765
	3.370000	-0.428456
	3.375000	-0.412339
	3.380000	-0.334979
	3.385000	-0.351095
	3.390000	-0.422009
	3.395000	-0.399446
	3.400000	-0.318862
	3.405000	-0.338202
	3.410000	-0.402669
	3.415000	-0.363989
	3.420000	-0.289852
	3.425000	-0.302745
	3.430000	-0.373659
	3.435000	-0.338202
	3.440000	-0.251171
	3.445000	-0.273735
	3.450000	-0.338202
	3.455000	-0.302745
	3.460000	-0.225384
	3.465000	-0.238278
	3.470000	-0.302745
	3.475000	-0.273735
	3.480000	-0.193151
	3.485000	-0.206044
	3.490000	-0.273735
	3.495000	-0.244725
	3.500000	-0.164141
	3.505000	-0.177034
	3.510000	-0.247948
	3.515000	-0.218938
	3.520000	-0.135130
	3.525000	-0.160917
	3.530000	-0.228608
	3.535000	-0.199597
	3.540000	-0.115790
	3.545000	-0.141577
	3.550000	-0.215714
	3.555000	-0.189927
	3.560000	-0.102897
	3.565000	-0.138354
	3.570000	-0.209268
	3.575000	-0.183481
	3.580000	-0.106120
	3.585000	-0.138354
	3.590000	-0.209268
	3.595000	-0.183481
	3.600000	-0.109343
	3.605000	-0.128684
	3.610000	-0.209268
	3.615000	-0.189927
	3.620000	-0.109343
	3.625000	-0.138354
	3.630000	-0.212491
	3.635000	-0.189927
	3.640000	-0.115790
	3.645000	-0.138354
	3.650000	-0.212491
	3.655000	-0.199597
	3.660000	-0.119014
	3.665000	-0.148024
	3.670000	-0.225384
	3.675000	-0.202821
	3.680000	-0.135130
	3.685000	-0.167364
	3.690000	-0.238278
	3.695000	-0.218938
	3.700000	-0.141577
	3.705000	-0.167364
	3.710000	-0.254395
	3.715000	-0.238278
	3.720000	-0.167364
	3.725000	-0.199597
	3.730000	-0.270511
	3.735000	-0.251171
	3.740000	-0.193151
	3.745000	-0.212491
	3.750000	-0.296298
	3.755000	-0.283405
	3.760000	-0.212491
	3.765000	-0.238278
	3.770000	-0.318862
	3.775000	-0.305968
	3.780000	-0.231831
	3.785000	-0.260841
	3.790000	-0.334979
	3.795000	-0.315638
	3.800000	-0.238278
	3.805000	-0.260841
	3.810000	-0.338202
	3.815000	-0.325308
	3.820000	-0.244725
	3.825000	-0.257618
	3.830000	-0.334979
	3.835000	-0.318862
	3.840000	-0.238278
	3.845000	-0.260841
	3.850000	-0.347872
	3.855000	-0.318862
	3.860000	-0.251171
	3.865000	-0.267288
	3.870000	-0.341425
	3.875000	-0.318862
	3.880000	-0.247948
	3.885000	-0.260841
	3.890000	-0.338202
	3.895000	-0.322085
	3.900000	-0.241501
	3.905000	-0.267288
	3.910000	-0.341425
	3.915000	-0.325308
	3.920000	-0.247948
	3.925000	-0.257618
	3.930000	-0.331755
	3.935000	-0.318862
	3.940000	-0.235054
	3.945000	-0.260841
	3.950000	-0.334979
	3.955000	-0.309192
	3.960000	-0.238278
	3.965000	-0.251171
	3.970000	-0.331755
	3.975000	-0.309192
	3.980000	-0.231831
	3.985000	-0.244725
	3.990000	-0.325308
	3.995000	-0.305968
	4.000000	-0.228608
	4.005000	-0.244725
	4.010000	-0.331755
	4.015000	-0.309192
	4.020000	-0.235054
	4.025000	-0.247948
	4.030000	-0.325308
	4.035000	-0.309192
	4.040000	-0.238278
	4.045000	-0.257618
	4.050000	-0.328532
	4.055000	-0.312415
	4.060000	-0.238278
	4.065000	-0.264065
	4.070000	-0.331755
	4.075000	-0.318862
	4.080000	-0.244725
	4.085000	-0.260841
	4.090000	-0.344649
	4.095000	-0.328532
	4.100000	-0.251171
	4.105000	-0.260841
	4.110000	-0.344649
	4.115000	-0.331755
	4.120000	-0.251171
	4.125000	-0.264065
	4.130000	-0.351095
	4.135000	-0.328532
	4.140000	-0.251171
	4.145000	-0.264065
	4.150000	-0.341425
	4.155000	-0.325308
	4.160000	-0.244725
	4.165000	-0.260841
	4.170000	-0.344649
	4.175000	-0.318862
	4.180000	-0.247948
	4.185000	-0.260841
	4.190000	-0.338202
	4.195000	-0.325308
	4.200000	-0.247948
	4.205000	-0.264065
	4.210000	-0.334979
	4.215000	-0.325308
	4.220000	-0.241501
	4.225000	-0.260841
	4.230000	-0.341425
	4.235000	-0.322085
	4.240000	-0.235054
	4.245000	-0.254395
	4.250000	-0.331755
	4.255000	-0.312415
	4.260000	-0.241501
	4.265000	-0.247948
	4.270000	-0.334979
	4.275000	-0.318862
	4.280000	-0.235054
	4.285000	-0.251171
	4.290000	-0.328532
	4.295000	-0.312415
	4.300000	-0.238278
	4.305000	-0.251171
	4.310000	-0.331755
	4.315000	-0.312415
	4.320000	-0.231831
	4.325000	-0.244725
	4.330000	-0.331755
	4.335000	-0.318862
	4.340000	-0.235054
	4.345000	-0.244725
	4.350000	-0.328532
	4.355000	-0.325308
	4.360000	-0.238278
	4.365000	-0.247948
	4.370000	-0.331755
	4.375000	-0.325308
	4.380000	-0.235054
	4.385000	-0.247948
	4.390000	-0.331755
	4.395000	-0.315638
	4.400000	-0.238278
	4.405000	-0.247948
	4.410000	-0.322085
	4.415000	-0.315638
	4.420000	-0.235054
	4.425000	-0.247948
	4.430000	-0.322085
	4.435000	-0.312415
	4.440000	-0.231831
	4.445000	-0.241501
	4.450000	-0.318862
	4.455000	-0.309192
	4.460000	-0.231831
	4.465000	-0.244725
	4.470000	-0.315638
	4.475000	-0.305968
	4.480000	-0.231831
	4.485000	-0.238278
	4.490000	-0.318862
	4.495000	-0.299522
	4.500000	-0.231831
	4.505000	-0.231831
	4.510000	-0.315638
	4.515000	-0.296298
	4.520000	-0.225384
	4.525000	-0.228608
	4.530000	-0.312415
	4.535000	-0.299522
	4.540000	-0.218938
	4.545000	-0.225384
	4.550000	-0.305968
	4.555000	-0.289852
	4.560000	-0.218938
	4.565000	-0.225384
	4.570000	-0.302745
	4.575000	-0.299522
	4.580000	-0.218938
	4.585000	-0.228608
	4.590000	-0.305968
	4.595000	-0.299522
	4.600000	-0.215714
	4.605000	-0.228608
	4.610000	-0.309192
	4.615000	-0.296298
	4.620000	-0.215714
	4.625000	-0.222161
	4.630000	-0.302745
	4.635000	-0.293075
	4.640000	-0.215714
	4.645000	-0.222161
	4.650000	-0.299522
	4.655000	-0.296298
	4.660000	-0.215714
	4.665000	-0.222161
	4.670000	-0.302745
	4.675000	-0.289852
	4.680000	-0.212491
	4.685000	-0.215714
	4.690000	-0.293075
	4.695000	-0.280181
	4.700000	-0.202821
	4.705000	-0.212491
	4.710000	-0.293075
	4.715000	-0.283405
	4.720000	-0.206044
	4.725000	-0.218938
	4.730000	-0.289852
	4.735000	-0.280181
	4.740000	-0.202821
	4.745000	-0.206044
	4.750000	-0.286628
	4.755000	-0.276958
	4.760000	-0.199597
	4.765000	-0.202821
	4.770000	-0.280181
	4.775000	-0.267288
	4.780000	-0.196374
	4.785000	-0.199597
	4.790000	-0.283405
	4.795000	-0.270511
	4.800000	-0.186704
	4.805000	-0.193151
	4.810000	-0.276958
	4.815000	-0.270511
	4.820000	-0.189927
	4.825000	-0.193151
	4.830000	-0.276958
	4.835000	-0.264065
	4.840000	-0.180257
	4.845000	-0.193151
	4.850000	-0.270511
	4.855000	-0.264065
	4.860000	-0.183481
	4.865000	-0.189927
	4.870000	-0.270511
	4.875000	-0.260841
	4.880000	-0.180257
	4.885000	-0.183481
	4.890000	-0.267288
	4.895000	-0.260841
	4.900000	-0.180257
	4.905000	-0.186704
	4.910000	-0.260841
	4.915000	-0.247948
	4.920000	-0.180257
	4.925000	-0.170587
	4.930000	-0.264065
	4.935000	-0.254395
	4.940000	-0.167364
	4.945000	-0.177034
	4.950000	-0.251171
	4.955000	-0.247948
	4.960000	-0.167364
	4.965000	-0.164141
	4.970000	-0.251171
	4.975000	-0.241501
	4.980000	-0.167364
	4.985000	-0.164141
	4.990000	-0.247948
	4.995000	-0.241501
	5.000000	-0.164141
	5.005000	-0.160917
	5.010000	-0.244725
	5.015000	-0.235054
	5.020000	-0.164141
	5.025000	-0.157694
	5.030000	-0.241501
	5.035000	-0.235054
	5.040000	-0.157694
	5.045000	-0.157694
	5.050000	-0.238278
	5.055000	-0.238278
	5.060000	-0.151247
	5.065000	-0.160917
	5.070000	-0.238278
	5.075000	-0.235054
	5.080000	-0.151247
	5.085000	-0.148024
	5.090000	-0.231831
	5.095000	-0.228608
	5.100000	-0.148024
	5.105000	-0.148024
	5.110000	-0.228608
	5.115000	-0.222161
	5.120000	-0.144800
	5.125000	-0.144800
	5.130000	-0.225384
	5.135000	-0.225384
	5.140000	-0.148024
	5.145000	-0.148024
	5.150000	-0.225384
	5.155000	-0.218938
	5.160000	-0.138354
	5.165000	-0.141577
	5.170000	-0.225384
	5.175000	-0.225384
	5.180000	-0.138354
	5.185000	-0.144800
	5.190000	-0.225384
	5.195000	-0.218938
	5.200000	-0.141577
	5.205000	-0.141577
	5.210000	-0.222161
	5.215000	-0.225384
	5.220000	-0.138354
	5.225000	-0.135130
	5.230000	-0.218938
	5.235000	-0.218938
	5.240000	-0.141577
	5.245000	-0.135130
	5.250000	-0.215714
	5.255000	-0.215714
	5.260000	-0.135130
	5.265000	-0.128684
	5.270000	-0.209268
	5.275000	-0.212491
	5.280000	-0.125460
	5.285000	-0.128684
	5.290000	-0.206044
	5.295000	-0.199597
	5.300000	-0.125460
	5.305000	-0.112567
	5.310000	-0.193151
	5.315000	-0.196374
	5.320000	-0.115790
	5.325000	-0.109343
	5.330000	-0.193151
	5.335000	-0.189927
	5.340000	-0.112567
	5.345000	-0.106120
	5.350000	-0.180257
	5.355000	-0.186704
	5.360000	-0.093227
	5.365000	-0.096450
	5.370000	-0.177034
	5.375000	-0.173811
	5.380000	-0.090003
	5.385000	-0.090003
	5.390000	-0.167364
	5.395000	-0.167364
	5.400000	-0.090003
	5.405000	-0.083557
	5.410000	-0.164141
	5.415000	-0.164141
	5.420000	-0.083557
	5.425000	-0.073886
	5.430000	-0.160917
	5.435000	-0.151247
	5.440000	-0.073886
	5.445000	-0.077110
	5.450000	-0.151247
	5.455000	-0.160917
	5.460000	-0.080333
	5.465000	-0.073886
	5.470000	-0.151247
	5.475000	-0.154470
	5.480000	-0.070663
	5.485000	-0.070663
	5.490000	-0.141577
	5.495000	-0.148024
	5.500000	-0.064216
	5.505000	-0.051323
	5.510000	-0.125460
	5.515000	-0.135130
	5.520000	-0.048100
	5.525000	-0.044876
	5.530000	-0.119014
	5.535000	-0.119014
	5.540000	-0.025536
	5.545000	-0.009419
	5.550000	-0.080333
	5.555000	-0.080333
	5.560000	0.003474
	5.565000	0.016368
	5.570000	-0.041653
	5.575000	-0.038430
	5.580000	0.055048
	5.585000	0.064718
	5.590000	0.000251
	5.595000	0.003474
	5.600000	0.093728
	5.605000	0.113068
	5.610000	0.045378
	5.615000	0.048601
	5.620000	0.129185
	5.625000	0.148525
	5.630000	0.074388
	5.635000	0.074388
	5.640000	0.158195
	5.645000	0.167865
	5.650000	0.093728
	5.655000	0.103398
	5.660000	0.177536
	5.665000	0.187206
	5.670000	0.113068
	5.675000	0.109845
	5.680000	0.187206
	5.685000	0.200099
	5.690000	0.119515
	5.695000	0.119515
	5.700000	0.193652
	5.705000	0.206546
	5.710000	0.125962
	5.715000	0.113068
	5.720000	0.190429
	5.725000	0.196876
	5.730000	0.125962
	5.735000	0.113068
	5.740000	0.193652
	5.745000	0.193652
	5.750000	0.119515
	5.755000	0.106622
	5.760000	0.174312
	5.765000	0.187206
	5.770000	0.109845
	5.775000	0.100175
	5.780000	0.171089
	5.785000	0.180759
	5.790000	0.093728
	5.795000	0.090505
	5.800000	0.161419
	5.805000	0.171089
	5.810000	0.087281
	5.815000	0.077611
	5.820000	0.151749
	5.825000	0.164642
	5.830000	0.080835
	5.835000	0.077611
	5.840000	0.142079
	5.845000	0.145302
	5.850000	0.067941
	5.855000	0.051825
	5.860000	0.129185
	5.865000	0.135632
	5.870000	0.051825
	5.875000	0.035708
	5.880000	0.113068
	5.885000	0.113068
	5.890000	0.032484
	5.895000	0.013144
	5.900000	0.084058
	5.905000	0.084058
	5.910000	-0.006196
	5.915000	-0.019089
	5.920000	0.051825
	5.925000	0.061495
	5.930000	-0.022313
	5.935000	-0.038430
	5.940000	0.035708
	5.945000	0.035708
	5.950000	-0.038430
	5.955000	-0.054546
	5.960000	0.026038
	5.965000	0.026038
	5.970000	-0.048100
	5.975000	-0.057770
	5.980000	0.009921
	5.985000	0.019591
	5.990000	-0.054546
	5.995000	-0.067440
	6.000000	0.009921
	6.005000	0.022814
	6.010000	-0.057770
	6.015000	-0.073886
	6.020000	0.003474
	6.025000	0.016368
	6.030000	-0.064216
	6.035000	-0.073886
	6.040000	0.000251
	6.045000	0.013144
	6.050000	-0.060993
	6.055000	-0.077110
	6.060000	0.000251
	6.065000	0.013144
	6.070000	-0.067440
	6.075000	-0.077110
	6.080000	-0.002973
	6.085000	0.009921
	6.090000	-0.060993
	6.095000	-0.077110
	6.100000	-0.006196
	6.105000	0.016368
	6.110000	-0.060993
	6.115000	-0.080333
	6.120000	0.003474
	6.125000	0.019591
	6.130000	-0.064216
	6.135000	-0.077110
	6.140000	0.000251
	6.145000	0.019591
	6.150000	-0.060993
	6.155000	-0.070663
	6.160000	0.003474
	6.165000	0.022814
	6.170000	-0.057770
	6.175000	-0.073886
	6.180000	0.006697
	6.185000	0.022814
	6.190000	-0.054546
	6.195000	-0.070663
	6.200000	0.006697
	6.205000	0.019591
	6.210000	-0.054546
	6.215000	-0.070663
	6.220000	0.006697
	6.225000	0.019591
	6.230000	-0.057770
	6.235000	-0.077110
	6.240000	0.003474
	6.245000	0.009921
	6.250000	-0.060993
	6.255000	-0.073886
	6.260000	-0.009419
	6.265000	0.009921
	6.270000	-0.070663
	6.275000	-0.086780
	6.280000	-0.006196
	6.285000	0.009921
	6.290000	-0.070663
	6.295000	-0.080333
	6.300000	-0.012643
	6.305000	0.013144
	6.310000	-0.070663
	6.315000	-0.086780
	6.320000	-0.012643
	6.325000	0.003474
	6.330000	-0.067440
	6.335000	-0.090003
	6.340000	-0.012643
	6.345000	0.006697
	6.350000	-0.070663
	6.355000	-0.090003
	6.360000	-0.009419
	6.365000	0.009921
	6.370000	-0.067440
	6.375000	-0.077110
	6.380000	-0.015866
	6.385000	0.003474
	6.390000	-0.067440
	6.395000	-0.086780
	6.400000	-0.006196
	6.405000	0.006697
	6.410000	-0.067440
	6.415000	-0.090003
	6.420000	-0.015866
	6.425000	0.009921
	6.430000	-0.077110
	6.435000	-0.090003
	6.440000	-0.015866
	6.445000	0.003474
	6.450000	-0.070663
	6.455000	-0.090003
	6.460000	-0.015866
	6.465000	0.003474
	6.470000	-0.077110
	6.475000	-0.086780
	6.480000	-0.019089
	6.485000	0.003474
	6.490000	-0.070663
	6.495000	-0.090003
	6.500000	-0.025536
	6.505000	0.000251
	6.510000	-0.073886
	6.515000	-0.093227
	6.520000	-0.025536
	6.525000	-0.006196
	6.530000	-0.077110
	6.535000	-0.096450
	6.540000	-0.022313
	6.545000	0.000251
	6.550000	-0.077110
	6.555000	-0.096450
	6.560000	-0.019089
	6.565000	-0.006196
	6.570000	-0.073886
	6.575000	-0.093227
	6.580000	-0.022313
	6.585000	0.000251
	6.590000	-0.077110
	6.595000	-0.099673
	6.600000	-0.022313
	6.605000	0.000251
	6.610000	-0.073886
	6.615000	-0.099673
	6.620000	-0.022313
	6.625000	0.000251
	6.630000	-0.073886
	6.635000	-0.099673
	6.640000	-0.022313
	6.645000	0.006697
	6.650000	-0.080333
	6.655000	-0.099673
	6.660000	-0.022313
	6.665000	-0.006196
	6.670000	-0.077110
	6.675000	-0.099673
	6.680000	-0.022313
	6.685000	0.000251
	6.690000	-0.080333
	6.695000	-0.096450
	6.700000	-0.019089
	6.705000	0.003474
	6.710000	-0.077110
	6.715000	-0.096450
	6.720000	-0.019089
	6.725000	0.003474
	6.730000	-0.073886
	6.735000	-0.093227
	6.740000	-0.022313
	6.745000	0.000251
	6.750000	-0.070663
	6.755000	-0.099673
	6.760000	-0.019089
	6.765000	0.009921
	6.770000	-0.070663
	6.775000	-0.096450
	6.780000	-0.009419
	6.785000	0.009921
	6.790000	-0.064216
	6.795000	-0.096450
	6.800000	-0.019089
	6.805000	0.013144
	6.810000	-0.070663
	6.815000	-0.093227
	6.820000	-0.019089
	6.825000	0.009921
	6.830000	-0.057770
	6.835000	-0.093227
	6.840000	-0.019089
	6.845000	0.009921
	6.850000	-0.070663
	6.855000	-0.086780
	6.860000	-0.015866
	6.865000	0.009921
	6.870000	-0.070663
	6.875000	-0.090003
	6.880000	-0.019089
	6.885000	0.006697
	6.890000	-0.060993
	6.895000	-0.093227
	6.900000	-0.015866
	6.905000	0.006697
	6.910000	-0.060993
	6.915000	-0.090003
	6.920000	-0.015866
	6.925000	0.009921
	6.930000	-0.064216
	6.935000	-0.090003
	6.940000	-0.019089
	6.945000	0.013144
	6.950000	-0.060993
	6.955000	-0.093227
	6.960000	-0.022313
	6.965000	0.009921
	6.970000	-0.064216
	6.975000	-0.090003
	6.980000	-0.012643
	6.985000	0.013144
	6.990000	-0.057770
	6.995000	-0.090003
	7.000000	-0.019089
	7.005000	0.013144
	7.010000	-0.064216
	7.015000	-0.083557
	7.020000	-0.009419
	7.025000	0.016368
	7.030000	-0.054546
	7.035000	-0.080333
	7.040000	-0.006196
	7.045000	0.019591
	7.050000	-0.051323
	7.055000	-0.080333
	7.060000	-0.009419
	7.065000	0.019591
	7.070000	-0.054546
	7.075000	-0.080333
	7.080000	-0.002973
	7.085000	0.016368
	7.090000	-0.051323
	7.095000	-0.080333
	7.100000	-0.006196
	7.105000	0.019591
	7.110000	-0.051323
	7.115000	-0.080333
	7.120000	-0.009419
	7.125000	0.026038
	7.130000	-0.048100
	7.135000	-0.073886
	7.140000	-0.002973
	7.145000	0.032484
	7.150000	-0.041653
	7.155000	-0.064216
	7.160000	0.006697
	7.165000	0.026038
	7.170000	-0.035206
	7.175000	-0.067440
	7.180000	0.000251
	7.185000	0.042154
	7.190000	-0.035206
	7.195000	-0.057770
	7.200000	0.013144
	7.205000	0.042154
	7.210000	-0.028759
	7.215000	-0.067440
	7.220000	0.009921
	7.225000	0.042154
	7.230000	-0.031983
	7.235000	-0.054546
	7.240000	0.016368
	7.245000	0.045378
	7.250000	-0.035206
	7.255000	-0.057770
	7.260000	0.016368
	7.265000	0.048601
	7.270000	-0.028759
	7.275000	-0.051323
	7.280000	0.016368
	7.285000	0.045378
	7.290000	-0.031983
	7.295000	-0.051323
	7.300000	0.022814
	7.305000	0.051825
	7.310000	-0.015866
	7.315000	-0.048100
	7.320000	0.019591
	7.325000	0.055048
	7.330000	-0.022313
	7.335000	-0.051323
	7.340000	0.022814
	7.345000	0.055048
	7.350000	-0.025536
	7.355000	-0.051323
	7.360000	0.019591
	7.365000	0.051825
	7.370000	-0.009419
	7.375000	-0.048100
	7.380000	0.016368
	7.385000	0.055048
	7.390000	-0.015866
	7.395000	-0.051323
	7.400000	0.022814
	7.405000	0.055048
	7.410000	-0.015866
	7.415000	-0.048100
	7.420000	0.022814
	7.425000	0.064718
	7.430000	-0.006196
	7.435000	-0.048100
	7.440000	0.022814
	7.445000	0.058271
	7.450000	-0.012643
	7.455000	-0.044876
	7.460000	0.029261
	7.465000	0.064718
	7.470000	-0.009419
	7.475000	-0.041653
	7.480000	0.032484
	7.485000	0.061495
	7.490000	-0.006196
	7.495000	-0.038430
	7.500000	0.029261
	7.505000	0.064718
	7.510000	-0.002973
	7.515000	-0.038430
	7.520000	0.029261
	7.525000	0.061495
	7.530000	-0.002973
	7.535000	-0.035206
	7.540000	0.032484
	7.545000	0.071165
	7.550000	-0.006196
	7.555000	-0.035206
	7.560000	0.032484
	7.565000	0.067941
	7.570000	-0.006196
	7.575000	-0.038430
	7.580000	0.026038
	7.585000	0.067941
	7.590000	-0.006196
	7.595000	-0.038430
	7.600000	0.029261
	7.605000	0.067941
	7.610000	0.000251
	7.615000	-0.041653
	7.620000	0.026038
	7.625000	0.064718
	7.630000	0.003474
	7.635000	-0.041653
	7.640000	0.026038
	7.645000	0.064718
	7.650000	-0.002973
	7.655000	-0.031983
	7.660000	0.026038
	7.665000	0.067941
	7.670000	-0.002973
	7.675000	-0.035206
	7.680000	0.038931
	7.685000	0.071165
	7.690000	0.013144
	7.695000	-0.035206
	7.700000	0.048601
	7.705000	0.077611
	7.710000	0.013144
	7.715000	-0.019089
	7.720000	0.045378
	7.725000	0.090505
	7.730000	0.026038
	7.735000	-0.009419
	7.740000	0.061495
	7.745000	0.096952
	7.750000	0.035708
	7.755000	-0.002973
	7.760000	0.071165
	7.765000	0.109845
	7.770000	0.048601
	7.775000	0.009921
	7.780000	0.084058
	7.785000	0.119515
	7.790000	0.051825
	7.795000	0.026038
	7.800000	0.087281
	7.805000	0.122738
	7.810000	0.061495
	7.815000	0.029261
	7.820000	0.103398
	7.825000	0.138855
	7.830000	0.080835
	7.835000	0.051825
	7.840000	0.122738
	7.845000	0.161419
	7.850000	0.106622
	7.855000	0.071165
	7.860000	0.148525
	7.865000	0.193652
	7.870000	0.129185
	7.875000	0.103398
	7.880000	0.183982
	7.885000	0.222663
	7.890000	0.167865
	7.895000	0.132408
	7.900000	0.209769
	7.905000	0.258119
	7.910000	0.190429
	7.915000	0.158195
	7.920000	0.235556
	7.925000	0.271013
	7.930000	0.219439
	7.935000	0.177536
	7.940000	0.251673
	7.945000	0.296800
	7.950000	0.245226
	7.955000	0.209769
	7.960000	0.271013
	7.965000	0.312917
	7.970000	0.254896
	7.975000	0.216216
	7.980000	0.280683
	7.985000	0.325810
	7.990000	0.264566
	7.995000	0.229109
	8.000000	0.290353
	8.005000	0.329033
	8.010000	0.261343
	8.015000	0.222663
	8.020000	0.293576
	8.025000	0.329033
	8.030000	0.264566
	8.035000	0.225886
	8.040000	0.283906
	8.045000	0.329033
	8.050000	0.258119
	8.055000	0.216216
	8.060000	0.280683
	8.065000	0.316140
	8.070000	0.258119
	8.075000	0.209769
	8.080000	0.267790
	8.085000	0.306470
	8.090000	0.229109
	8.095000	0.187206
	8.100000	0.248449
	8.105000	0.283906
	8.110000	0.212992
	8.115000	0.167865
	8.120000	0.225886
	8.125000	0.261343
	8.130000	0.190429
	8.135000	0.132408
	8.140000	0.193652
	8.145000	0.225886
	8.150000	0.154972
	8.155000	0.093728
	8.160000	0.154972
	8.165000	0.190429
	8.170000	0.119515
	8.175000	0.064718
	8.180000	0.135632
	8.185000	0.171089
	8.190000	0.103398
	8.195000	0.058271
	8.200000	0.116292
	8.205000	0.151749
	8.210000	0.093728
	8.215000	0.055048
	8.220000	0.116292
	8.225000	0.154972
	8.230000	0.087281
	8.235000	0.045378
	8.240000	0.109845
	8.245000	0.154972
	8.250000	0.093728
	8.255000	0.048601
	8.260000	0.119515
	8.265000	0.154972
	8.270000	0.096952
	8.275000	0.055048
	8.280000	0.116292
	8.285000	0.158195
	8.290000	0.096952
	8.295000	0.051825
	8.300000	0.119515
	8.305000	0.161419
	8.310000	0.106622
	8.315000	0.058271
	8.320000	0.116292
	8.325000	0.174312
	8.330000	0.100175
	8.335000	0.058271
	8.340000	0.125962
	8.345000	0.164642
	8.350000	0.100175
	8.355000	0.058271
	8.360000	0.129185
	8.365000	0.167865
	8.370000	0.106622
	8.375000	0.061495
	8.380000	0.125962
	8.385000	0.171089
	8.390000	0.109845
	8.395000	0.064718
	8.400000	0.125962
	8.405000	0.174312
	8.410000	0.113068
	8.415000	0.064718
	8.420000	0.129185
	8.425000	0.174312
	8.430000	0.106622
	8.435000	0.071165
	8.440000	0.129185
	8.445000	0.174312
	8.450000	0.109845
	8.455000	0.064718
	8.460000	0.129185
	8.465000	0.171089
	8.470000	0.116292
	8.475000	0.064718
	8.480000	0.132408
	8.485000	0.174312
	8.490000	0.113068
	8.495000	0.074388
	8.500000	0.132408
	8.505000	0.180759
	8.510000	0.113068
	8.515000	0.064718
	8.520000	0.129185
	8.525000	0.174312
	8.530000	0.113068
	8.535000	0.061495
	8.540000	0.122738
	8.545000	0.167865
	8.550000	0.106622
	8.555000	0.058271
	8.560000	0.119515
	8.565000	0.164642
	8.570000	0.100175
	8.575000	0.055048
	8.580000	0.109845
	8.585000	0.154972
	8.590000	0.090505
	8.595000	0.045378
	8.600000	0.109845
	8.605000	0.158195
	8.610000	0.090505
	8.615000	0.045378
	8.620000	0.106622
	8.625000	0.151749
	8.630000	0.090505
	8.635000	0.038931
	8.640000	0.103398
	8.645000	0.145302
	8.650000	0.084058
	8.655000	0.035708
	8.660000	0.090505
	8.665000	0.145302
	8.670000	0.077611
	8.675000	0.022814
	8.680000	0.090505
	8.685000	0.138855
	8.690000	0.064718
	8.695000	0.026038
	8.700000	0.087281
	8.705000	0.138855
	8.710000	0.067941
	8.715000	0.016368
	8.720000	0.077611
	8.725000	0.129185
	8.730000	0.067941
	8.735000	0.016368
	8.740000	0.080835
	8.745000	0.122738
	8.750000	0.064718
	8.755000	0.016368
	8.760000	0.077611
	8.765000	0.122738
	8.770000	0.064718
	8.775000	0.013144
	8.780000	0.074388
	8.785000	0.129185
	8.790000	0.058271
	8.795000	0.019591
	8.800000	0.077611
	8.805000	0.122738
	8.810000	0.061495
	8.815000	0.009921
	8.820000	0.077611
	8.825000	0.125962
	8.830000	0.067941
	8.835000	0.022814
	8.840000	0.080835
	8.845000	0.122738
	8.850000	0.067941
	8.855000	0.016368
	8.860000	0.080835
	8.865000	0.125962
	8.870000	0.067941
	8.875000	0.022814
	8.880000	0.080835
	8.885000	0.132408
	8.890000	0.071165
	8.895000	0.019591
	8.900000	0.077611
	8.905000	0.125962
	8.910000	0.071165
	8.915000	0.016368
	8.920000	0.077611
	8.925000	0.122738
	8.930000	0.071165
	8.935000	0.026038
	8.940000	0.077611
	8.945000	0.132408
	8.950000	0.071165
	8.955000	0.019591
	8.960000	0.080835
	8.965000	0.129185
	8.970000	0.071165
	8.975000	0.022814
	8.980000	0.084058
	8.985000	0.125962
	8.990000	0.071165
	8.995000	0.019591
	9.000000	0.077611
	9.005000	0.135632
	9.010000	0.071165
	9.015000	0.026038
	9.020000	0.080835
	9.025000	0.135632
	9.030000	0.074388
	9.035000	0.026038
	9.040000	0.077611
	9.045000	0.132408
	9.050000	0.074388
	9.055000	0.022814
	9.060000	0.077611
	9.065000	0.129185
	9.070000	0.071165
	9.075000	0.019591
	9.080000	0.074388
	9.085000	0.132408
	9.090000	0.067941
	9.095000	0.019591
	9.100000	0.080835
	9.105000	0.125962
	9.110000	0.067941
	9.115000	0.022814
	9.120000	0.080835
	9.125000	0.132408
	9.130000	0.074388
	9.135000	0.019591
	9.140000	0.080835
	9.145000	0.125962
	9.150000	0.074388
	9.155000	0.026038
	9.160000	0.077611
	9.165000	0.132408
	9.170000	0.074388
	9.175000	0.026038
	9.180000	0.084058
	9.185000	0.132408
	9.190000	0.080835
	9.195000	0.026038
	9.200000	0.087281
	9.205000	0.142079
	9.210000	0.077611
	9.215000	0.022814
	9.220000	0.087281
	9.225000	0.135632
	9.230000	0.080835
	9.235000	0.029261
	9.240000	0.087281
	9.245000	0.142079
	9.250000	0.087281
	9.255000	0.032484
	9.260000	0.090505
	9.265000	0.135632
	9.270000	0.084058
	9.275000	0.032484
	9.280000	0.087281
	9.285000	0.145302
	9.290000	0.090505
	9.295000	0.035708
	9.300000	0.096952
	9.305000	0.145302
	9.310000	0.093728
	9.315000	0.038931
	9.320000	0.093728
	9.325000	0.145302
	9.330000	0.100175
	9.335000	0.045378
	9.340000	0.096952
	9.345000	0.148525
	9.350000	0.093728
	9.355000	0.038931
	9.360000	0.103398
	9.365000	0.151749
	9.370000	0.103398
	9.375000	0.042154
	9.380000	0.100175
	9.385000	0.148525
	9.390000	0.100175
	9.395000	0.048601
	9.400000	0.100175
	9.405000	0.158195
	9.410000	0.103398
	9.415000	0.045378
	9.420000	0.103398
	9.425000	0.161419
	9.430000	0.103398
	9.435000	0.045378
	9.440000	0.100175
	9.445000	0.161419
	9.450000	0.103398
	9.455000	0.048601
	9.460000	0.103398
	9.465000	0.164642
	9.470000	0.106622
	9.475000	0.048601
	9.480000	0.100175
	9.485000	0.161419
	9.490000	0.103398
	9.495000	0.055048
	9.500000	0.106622
	9.505000	0.164642
	9.510000	0.106622
	9.515000	0.051825
	9.520000	0.109845
	9.525000	0.161419
	9.530000	0.103398
	9.535000	0.051825
	9.540000	0.109845
	9.545000	0.164642
	9.550000	0.109845
	9.555000	0.051825
	9.560000	0.103398
	9.565000	0.161419
	9.570000	0.109845
	9.575000	0.051825
	9.580000	0.106622
	9.585000	0.171089
	9.590000	0.106622
	9.595000	0.055048
	9.600000	0.106622
	9.605000	0.164642
	9.610000	0.116292
	9.615000	0.061495
	9.620000	0.113068
	9.625000	0.164642
	9.630000	0.116292
	9.635000	0.058271
	9.640000	0.106622
	9.645000	0.174312
	9.650000	0.109845
	9.655000	0.061495
	9.660000	0.106622
	9.665000	0.171089
	9.670000	0.113068
	9.675000	0.055048
	9.680000	0.113068
	9.685000	0.167865
	9.690000	0.109845
	9.695000	0.055048
	9.700000	0.109845
	9.705000	0.174312
	9.710000	0.125962
	9.715000	0.061495
	9.720000	0.109845
	9.725000	0.167865
	9.730000	0.119515
	9.735000	0.061495
	9.740000	0.119515
	9.745000	0.171089
	9.750000	0.122738
	9.755000	0.064718
	9.760000	0.119515
	9.765000	0.180759
	9.770000	0.122738
	9.775000	0.067941
	9.780000	0.116292
	9.785000	0.171089
	9.790000	0.122738
	9.795000	0.061495
	9.800000	0.116292
	9.805000	0.180759
	9.810000	0.119515
	9.815000	0.064718
	9.820000	0.122738
	9.825000	0.177536
	9.830000	0.132408
	9.835000	0.064718
	9.840000	0.122738
	9.845000	0.180759
	9.850000	0.129185
	9.855000	0.074388
	9.860000	0.122738
	9.865000	0.180759
	9.870000	0.125962
	9.875000	0.071165
	9.880000	0.116292
	9.885000	0.183982
	9.890000	0.132408
	9.895000	0.067941
	9.900000	0.119515
	9.905000	0.187206
	9.910000	0.135632
	9.915000	0.061495
	9.920000	0.125962
	9.925000	0.190429
	9.930000	0.129185
	9.935000	0.074388
	9.940000	0.129185
	9.945000	0.190429
	9.950000	0.135632
	9.955000	0.074388
	9.960000	0.129185
	9.965000	0.187206
	9.970000	0.135632
	9.975000	0.077611
	9.980000	0.132408
	9.985000	0.187206
	9.990000	0.135632
	9.995000	0.074388
	10.000000	0.129185
	10.005000	0.190429
	10.010000	0.145302
	10.015000	0.084058
	10.020000	0.135632
	10.025000	0.196876
	10.030000	0.142079
	10.035000	0.084058
	10.040000	0.135632
	10.045000	0.193652
	10.050000	0.148525
	10.055000	0.084058
	10.060000	0.138855
	10.065000	0.193652
	10.070000	0.148525
	10.075000	0.090505
	10.080000	0.132408
	10.085000	0.200099
	10.090000	0.142079
	10.095000	0.087281
	10.100000	0.138855
	10.105000	0.193652
	10.110000	0.148525
	10.115000	0.087281
	10.120000	0.138855
	10.125000	0.193652
	10.130000	0.138855
	10.135000	0.084058
	10.140000	0.132408
	10.145000	0.196876
	10.150000	0.142079
	10.155000	0.084058
	10.160000	0.132408
	10.165000	0.196876
	10.170000	0.145302
	10.175000	0.080835
	10.180000	0.132408
	10.185000	0.196876
	10.190000	0.138855
	10.195000	0.080835
	10.200000	0.132408
	10.205000	0.190429
	10.210000	0.145302
	10.215000	0.084058
	10.220000	0.132408
	10.225000	0.190429
	10.230000	0.142079
	10.235000	0.080835
	10.240000	0.129185
	10.245000	0.196876
	10.250000	0.148525
	10.255000	0.087281
	10.260000	0.138855
	10.265000	0.203322
	10.270000	0.151749
	10.275000	0.090505
	10.280000	0.138855
	10.285000	0.206546
	10.290000	0.154972
	10.295000	0.093728
	10.300000	0.138855
	10.305000	0.206546
	10.310000	0.158195
	10.315000	0.093728
	10.320000	0.142079
	10.325000	0.206546
	10.330000	0.167865
	10.335000	0.106622
	10.340000	0.148525
	10.345000	0.209769
	10.350000	0.171089
	10.355000	0.106622
	10.360000	0.154972
	10.365000	0.222663
	10.370000	0.180759
	10.375000	0.113068
	10.380000	0.158195
	10.385000	0.229109
	10.390000	0.183982
	10.395000	0.122738
	10.400000	0.171089
	10.405000	0.238779
	10.410000	0.193652
	10.415000	0.132408
	10.420000	0.180759
	10.425000	0.238779
	10.430000	0.203322
	10.435000	0.138855
	10.440000	0.183982
	10.445000	0.258119
	10.450000	0.216216
	10.455000	0.164642
	10.460000	0.219439
	10.465000	0.283906
	10.470000	0.254896
	10.475000	0.200099
	10.480000	0.261343
	10.485000	0.332257
	10.490000	0.296800
	10.495000	0.248449
	10.500000	0.303247
	10.505000	0.383830
	10.510000	0.335480
	10.515000	0.277460
	10.520000	0.332257
	10.525000	0.406394
	10.530000	0.361267
	10.535000	0.306470
	10.540000	0.354820
	10.545000	0.425734
	10.550000	0.380607
	10.555000	0.322587
	10.560000	0.367714
	10.565000	0.435404
	10.570000	0.396724
	10.575000	0.332257
	10.580000	0.377384
	10.585000	0.445074
	10.590000	0.403171
	10.595000	0.338703
	10.600000	0.383830
	10.605000	0.445074
	10.610000	0.406394
	10.615000	0.348374
	10.620000	0.387054
	10.625000	0.445074
	10.630000	0.399947
	10.635000	0.338703
	10.640000	0.380607
	10.645000	0.445074
	10.650000	0.399947
	10.655000	0.335480
	10.660000	0.370937
	10.665000	0.435404
	10.670000	0.387054
	10.675000	0.322587
	10.680000	0.361267
	10.685000	0.425734
	10.690000	0.377384
	10.695000	0.306470
	10.700000	0.348374
	10.705000	0.406394
	10.710000	0.354820
	10.715000	0.296800
	10.720000	0.329033
	10.725000	0.390277
	10.730000	0.345150
	10.735000	0.274236
	10.740000	0.309693
	10.745000	0.364490
	10.750000	0.329033
	10.755000	0.248449
	10.760000	0.283906
	10.765000	0.338703
	10.770000	0.290353
	10.775000	0.212992
	10.780000	0.238779
	10.785000	0.293576
	10.790000	0.242003
	10.795000	0.167865
	10.800000	0.200099
	10.805000	0.254896
	10.810000	0.212992
	10.815000	0.145302
	10.820000	0.174312
	10.825000	0.245226
	10.830000	0.200099
	10.835000	0.135632
	10.840000	0.167865
	10.845000	0.232333
	10.850000	0.190429
	10.855000	0.125962
	10.860000	0.167865
	10.865000	0.232333
	10.870000	0.190429
	10.875000	0.129185
	10.880000	0.164642
	10.885000	0.225886
	10.890000	0.193652
	10.895000	0.122738
	10.900000	0.161419
	10.905000	0.222663
	10.910000	0.187206
	10.915000	0.119515
	10.920000	0.158195
	10.925000	0.225886
	10.930000	0.193652
	10.935000	0.122738
	10.940000	0.161419
	10.945000	0.229109
	10.950000	0.190429
	10.955000	0.122738
	10.960000	0.161419
	10.965000	0.229109
	10.970000	0.196876
	10.975000	0.122738
	10.980000	0.164642
	10.985000	0.232333
	10.990000	0.193652
	10.995000	0.129185
	11.000000	0.164642
	11.005000	0.232333
	11.010000	0.200099
	11.015000	0.132408
	11.020000	0.167865
	11.025000	0.232333
	11.030000	0.193652
	11.035000	0.125962
	11.040000	0.164642
	11.045000	0.222663
	11.050000	0.196876
	11.055000	0.119515
	11.060000	0.167865
	11.065000	0.232333
	11.070000	0.200099
	11.075000	0.122738
	11.080000	0.158195
	11.085000	0.225886
	11.090000	0.187206
	11.095000	0.125962
	11.100000	0.161419
	11.105000	0.229109
	11.110000	0.196876
	11.115000	0.125962
	11.120000	0.164642
	11.125000	0.229109
	11.130000	0.190429
	11.135000	0.119515
	11.140000	0.158195
	11.145000	0.225886
	11.150000	0.193652
	11.155000	0.116292
	11.160000	0.158195
	11.165000	0.229109
	11.170000	0.187206
	11.175000	0.119515
	11.180000	0.154972
	11.185000	0.225886
	11.190000	0.187206
	11.195000	0.119515
	11.200000	0.154972
	11.205000	0.225886
	11.210000	0.187206
	11.215000	0.119515
	11.220000	0.148525
	11.225000	0.219439
	11.230000	0.183982
	11.235000	0.116292
	11.240000	0.151749
	11.245000	0.216216
	11.250000	0.190429
	11.255000	0.113068
	11.260000	0.145302
	11.265000	0.216216
	11.270000	0.187206
	11.275000	0.109845
	11.280000	0.148525
	11.285000	0.216216
	11.290000	0.183982
	11.295000	0.106622
	11.300000	0.148525
	11.305000	0.212992
	11.310000	0.183982
	11.315000	0.109845
	11.320000	0.145302
	11.325000	0.216216
	11.330000	0.177536
	11.335000	0.103398
	11.340000	0.148525
	11.345000	0.216216
	11.350000	0.180759
	11.355000	0.109845
	11.360000	0.142079
	11.365000	0.216216
	11.370000	0.180759
	11.375000	0.109845
	11.380000	0.148525
	11.385000	0.216216
	11.390000	0.183982
	11.395000	0.109845
	11.400000	0.142079
	11.405000	0.219439
	11.410000	0.183982
	11.415000	0.116292
	11.420000	0.142079
	11.425000	0.212992
	11.430000	0.177536
	11.435000	0.109845
	11.440000	0.142079
	11.445000	0.216216
	11.450000	0.180759
	11.455000	0.106622
	11.460000	0.142079
	11.465000	0.212992
	11.470000	0.183982
	11.475000	0.109845
	11.480000	0.142079
	11.485000	0.212992
	11.490000	0.177536
	11.495000	0.109845
	11.500000	0.142079
	11.505000	0.209769
	11.510000	0.180759
	11.515000	0.116292
	11.520000	0.151749
	11.525000	0.216216
	11.530000	0.180759
	11.535000	0.119515
	11.540000	0.151749
	11.545000	0.219439
	11.550000	0.187206
	11.555000	0.119515
	11.560000	0.151749
	11.565000	0.216216
	11.570000	0.183982
	11.575000	0.109845
	11.580000	0.148525
	11.585000	0.212992
	11.590000	0.180759
	11.595000	0.116292
	11.600000	0.148525
	11.605000	0.222663
	11.610000	0.183982
	11.615000	0.113068
	11.620000	0.142079
	11.625000	0.219439
	11.630000	0.187206
	11.635000	0.113068
	11.640000	0.142079
	11.645000	0.219439
	11.650000	0.183982
	11.655000	0.109845
	11.660000	0.142079
	11.665000	0.219439
	11.670000	0.183982
	11.675000	0.113068
	11.680000	0.145302
	11.685000	0.216216
	11.690000	0.183982
	11.695000	0.116292
	11.700000	0.145302
	11.705000	0.222663
	11.710000	0.187206
	11.715000	0.113068
	11.720000	0.145302
	11.725000	0.216216
	11.730000	0.190429
	11.735000	0.113068
	11.740000	0.142079
	11.745000	0.222663
	11.750000	0.187206
	11.755000	0.116292
	11.760000	0.148525
	11.765000	0.219439
	11.770000	0.190429
	11.775000	0.113068
	11.780000	0.148525
	11.785000	0.219439
	11.790000	0.183982
	11.795000	0.122738
	11.800000	0.148525
	11.805000	0.225886
	11.810000	0.187206
	11.815000	0.119515
	11.820000	0.148525
	11.825000	0.216216
	11.830000	0.190429
	11.835000	0.119515
	11.840000	0.151749
	11.845000	0.219439
	11.850000	0.190429
	11.855000	0.122738
	11.860000	0.154972
	11.865000	0.219439
	11.870000	0.193652
	11.875000	0.109845
	11.880000	0.148525
	11.885000	0.219439
	11.890000	0.193652
	11.895000	0.119515
	11.900000	0.151749
	11.905000	0.222663
	11.910000	0.190429
	11.915000	0.122738
	11.920000	0.154972
	11.925000	0.219439
	11.930000	0.196876
	11.935000	0.129185
	11.940000	0.151749
	11.945000	0.232333
	11.950000	0.200099
	11.955000	0.122738
	11.960000	0.154972
	11.965000	0.225886
	11.970000	0.200099
	11.975000	0.122738
	11.980000	0.148525
	11.985000	0.229109
	11.990000	0.206546
	11.995000	0.129185
	12.000000	0.158195
	12.005000	0.229109
	12.010000	0.196876
	12.015000	0.129185
	12.020000	0.151749
	12.025000	0.229109
	12.030000	0.200099
	12.035000	0.129185
	12.040000	0.154972
	12.045000	0.229109
	12.050000	0.196876
	12.055000	0.122738
	12.060000	0.158195
	12.065000	0.229109
	12.070000	0.203322
	12.075000	0.132408
	12.080000	0.164642
	12.085000	0.229109
	12.090000	0.203322
	12.095000	0.132408
	12.100000	0.158195
	12.105000	0.232333
	12.110000	0.206546
	12.115000	0.135632
	12.120000	0.161419
	12.125000	0.235556
	12.130000	0.206546
	12.135000	0.135632
	12.140000	0.151749
	12.145000	0.238779
	12.150000	0.212992
	12.155000	0.138855
	12.160000	0.161419
	12.165000	0.242003
	12.170000	0.216216
	12.175000	0.138855
	12.180000	0.164642
	12.185000	0.245226
	12.190000	0.212992
	12.195000	0.138855
	12.200000	0.171089
	12.205000	0.242003
	12.210000	0.212992
	12.215000	0.138855
	12.220000	0.171089
	12.225000	0.242003
	12.230000	0.216216
	12.235000	0.145302
	12.240000	0.171089
	12.245000	0.245226
	12.250000	0.219439
	12.255000	0.148525
	12.260000	0.164642
	12.265000	0.242003
	12.270000	0.222663
	12.275000	0.145302
	12.280000	0.171089
	12.285000	0.245226
	12.290000	0.225886
	12.295000	0.145302
	12.300000	0.171089
	12.305000	0.245226
	12.310000	0.219439
	12.315000	0.145302
	12.320000	0.171089
	12.325000	0.245226
	12.330000	0.219439
	12.335000	0.138855
	12.340000	0.167865
	12.345000	0.235556
	12.350000	0.219439
	12.355000	0.135632
	12.360000	0.158195
	12.365000	0.235556
	12.370000	0.212992
	12.375000	0.142079
	12.380000	0.158195
	12.385000	0.235556
	12.390000	0.219439
	12.395000	0.138855
	12.400000	0.158195
	12.405000	0.232333
	12.410000	0.212992
	12.415000	0.142079
	12.420000	0.158195
	12.425000	0.232333
	12.430000	0.216216
	12.435000	0.129185
	12.440000	0.161419
	12.445000	0.235556
	12.450000	0.206546
	12.455000	0.132408
	12.460000	0.161419
	12.465000	0.232333
	12.470000	0.209769
	12.475000	0.135632
	12.480000	0.158195
	12.485000	0.229109
	12.490000	0.209769
	12.495000	0.138855
	12.500000	0.154972
	12.505000	0.235556
	12.510000	0.212992
	12.515000	0.142079
	12.520000	0.161419
	12.525000	0.232333
	12.530000	0.212992
	12.535000	0.138855
	12.540000	0.154972
	12.545000	0.235556
	12.550000	0.212992
	12.555000	0.142079
	12.560000	0.154972
	12.565000	0.232333
	12.570000	0.219439
	12.575000	0.135632
	12.580000	0.158195
	12.585000	0.238779
	12.590000	0.212992
	12.595000	0.138855
	12.600000	0.158195
	12.605000	0.242003
	12.610000	0.212992
	12.615000	0.135632
	12.620000	0.161419
	12.625000	0.238779
	12.630000	0.216216
	12.635000	0.142079
	12.640000	0.161419
	12.645000	0.232333
	12.650000	0.216216
	12.655000	0.142079
	12.660000	0.161419
	12.665000	0.238779
	12.670000	0.225886
	12.675000	0.151749
	12.680000	0.167865
	12.685000	0.238779
	12.690000	0.219439
	12.695000	0.154972
	12.700000	0.164642
	12.705000	0.245226
	12.710000	0.229109
	12.715000	0.154972
	12.720000	0.171089
	12.725000	0.251673
	12.730000	0.229109
	12.735000	0.158195
	12.740000	0.177536
	12.745000	0.254896
	12.750000	0.238779
	12.755000	0.164642
	12.760000	0.183982
	12.765000	0.254896
	12.770000	0.245226
	12.775000	0.164642
	12.780000	0.183982
	12.785000	0.258119
	12.790000	0.245226
	12.795000	0.171089
	12.800000	0.190429
	12.805000	0.277460
	12.810000	0.258119
	12.815000	0.190429
	12.820000	0.209769
	12.825000	0.290353
	12.830000	0.280683
	12.835000	0.216216
	12.840000	0.245226
	12.845000	0.322587
	12.850000	0.325810
	12.855000	0.258119
	12.860000	0.290353
	12.865000	0.374160
	12.870000	0.367714
	12.875000	0.300023
	12.880000	0.316140
	12.885000	0.396724
	12.890000	0.396724
	12.895000	0.325810
	12.900000	0.354820
	12.905000	0.432181
	12.910000	0.419287
	12.915000	0.345150
	12.920000	0.370937
	12.925000	0.448298
	12.930000	0.441851
	12.935000	0.364490
	12.940000	0.387054
	12.945000	0.461191
	12.950000	0.445074
	12.955000	0.380607
	12.960000	0.390277
	12.965000	0.464414
	12.970000	0.448298
	12.975000	0.377384
	12.980000	0.390277
	12.985000	0.467638
	12.990000	0.448298
	12.995000	0.380607
	13.000000	0.387054
	13.005000	0.457968
	13.010000	0.448298
	13.015000	0.374160
	13.020000	0.383830
	13.025000	0.451521
	13.030000	0.438628
	13.035000	0.364490
	13.040000	0.374160
	13.045000	0.441851
	13.050000	0.416064
	13.055000	0.338703
	13.060000	0.338703
	13.065000	0.416064
	13.070000	0.387054
	13.075000	0.303247
	13.080000	0.306470
	13.085000	0.370937
	13.090000	0.345150
	13.095000	0.264566
	13.100000	0.261343
	13.105000	0.322587
	13.110000	0.303247
	13.115000	0.216216
	13.120000	0.219439
	13.125000	0.283906
	13.130000	0.261343
	13.135000	0.180759
	13.140000	0.183982
	13.145000	0.254896
	13.150000	0.242003
	13.155000	0.161419
	13.160000	0.174312
	13.165000	0.245226
	13.170000	0.229109
	13.175000	0.151749
	13.180000	0.154972
	13.185000	0.235556
	13.190000	0.219439
	13.195000	0.142079
	13.200000	0.151749
	13.205000	0.232333
	13.210000	0.212992
	13.215000	0.145302
	13.220000	0.154972
	13.225000	0.229109
	13.230000	0.219439
	13.235000	0.138855
	13.240000	0.148525
	13.245000	0.232333
	13.250000	0.216216
	13.255000	0.138855
	13.260000	0.151749
	13.265000	0.229109
	13.270000	0.216216
	13.275000	0.135632
	13.280000	0.145302
	13.285000	0.225886
	13.290000	0.219439
	13.295000	0.138855
	13.300000	0.145302
	13.305000	0.222663
	13.310000	0.209769
	13.315000	0.138855
	13.320000	0.145302
	13.325000	0.225886
	13.330000	0.212992
	13.335000	0.129185
	13.340000	0.142079
	13.345000	0.216216
	13.350000	0.209769
	13.355000	0.129185
	13.360000	0.142079
	13.365000	0.222663
	13.370000	0.203322
	13.375000	0.125962
	13.380000	0.142079
	13.385000	0.212992
	13.390000	0.212992
	13.395000	0.125962
	13.400000	0.138855
	13.405000	0.212992
	13.410000	0.206546
	13.415000	0.122738
	13.420000	0.135632
	13.425000	0.209769
	13.430000	0.206546
	13.435000	0.122738
	13.440000	0.132408
	13.445000	0.206546
	13.450000	0.203322
	13.455000	0.125962
	13.460000	0.132408
	13.465000	0.206546
	13.470000	0.200099
	13.475000	0.113068
	13.480000	0.125962
	13.485000	0.209769
	13.490000	0.196876
	13.495000	0.113068
	13.500000	0.119515
	13.505000	0.203322
	13.510000	0.193652
	13.515000	0.116292
	13.520000	0.125962
	13.525000	0.200099
	13.530000	0.196876
	13.535000	0.113068
	13.540000	0.119515
	13.545000	0.196876
	13.550000	0.190429
	13.555000	0.109845
	13.560000	0.122738
	13.565000	0.200099
	13.570000	0.193652
	13.575000	0.119515
	13.580000	0.119515
	13.585000	0.200099
	13.590000	0.193652
	13.595000	0.113068
	13.600000	0.119515
	13.605000	0.190429
	13.610000	0.193652
	13.615000	0.113068
	13.620000	0.116292
	13.625000	0.190429
	13.630000	0.187206
	13.635000	0.106622
	13.640000	0.116292
	13.645000	0.193652
	13.650000	0.183982
	13.655000	0.109845
	13.660000	0.109845
	13.665000	0.193652
	13.670000	0.190429
	13.675000	0.106622
	13.680000	0.113068
	13.685000	0.193652
	13.690000	0.180759
	13.695000	0.109845
	13.700000	0.113068
	13.705000	0.190429
	13.710000	0.187206
	13.715000	0.103398
	13.720000	0.116292
	13.725000	0.187206
	13.730000	0.187206
	13.735000	0.100175
	13.740000	0.109845
	13.745000	0.187206
	13.750000	0.180759
	13.755000	0.100175
	13.760000	0.106622
	13.765000	0.187206
	13.770000	0.183982
	13.775000	0.096952
	13.780000	0.106622
	13.785000	0.187206
	13.790000	0.183982
	13.795000	0.100175
	13.800000	0.106622
	13.805000	0.187206
	13.810000	0.187206
	13.815000	0.096952
	13.820000	0.106622
	13.825000	0.180759
	13.830000	0.183982
	13.835000	0.100175
	13.840000	0.100175
	13.845000	0.183982
	13.850000	0.177536
	13.855000	0.100175
	13.860000	0.103398
	13.865000	0.183982
	13.870000	0.177536
	13.875000	0.096952
	13.880000	0.100175
	13.885000	0.177536
	13.890000	0.183982
	13.895000	0.096952
	13.900000	0.103398
	13.905000	0.183982
	13.910000	0.187206
	13.915000	0.106622
	13.920000	0.106622
	13.925000	0.183982
	13.930000	0.187206
	13.935000	0.096952
	13.940000	0.103398
	13.945000	0.183982
	13.950000	0.180759
	13.955000	0.103398
	13.960000	0.106622
	13.965000	0.187206
	13.970000	0.183982
	13.975000	0.100175
	13.980000	0.103398
	13.985000	0.187206
	13.990000	0.177536
	13.995000	0.106622
	14.000000	0.103398
	14.005000	0.180759
	14.010000	0.183982
	14.015000	0.106622
	14.020000	0.109845
	14.025000	0.183982
	14.030000	0.183982
	14.035000	0.100175
	14.040000	0.100175
	14.045000	0.177536
	14.050000	0.183982
	14.055000	0.103398
	14.060000	0.106622
	14.065000	0.180759
	14.070000	0.183982
	14.075000	0.106622
	14.080000	0.106622
	14.085000	0.183982
	14.090000	0.183982
	14.095000	0.109845
	14.100000	0.100175
	14.105000	0.177536
	14.110000	0.187206
	14.115000	0.103398
	14.120000	0.109845
	14.125000	0.180759
	14.130000	0.180759
	14.135000	0.106622
	14.140000	0.106622
	14.145000	0.183982
	14.150000	0.193652
	14.155000	0.113068
	14.160000	0.106622
	14.165000	0.187206
	14.170000	0.193652
	14.175000	0.109845
	14.180000	0.113068
	14.185000	0.190429
	14.190000	0.193652
	14.195000	0.113068
	14.200000	0.119515
	14.205000	0.196876
	14.210000	0.187206
	14.215000	0.113068
	14.220000	0.106622
	14.225000	0.193652
	14.230000	0.187206
	14.235000	0.113068
	14.240000	0.113068
	14.245000	0.187206
	14.250000	0.190429
	14.255000	0.116292
	14.260000	0.109845
	14.265000	0.190429
	14.270000	0.190429
	14.275000	0.109845
	14.280000	0.109845
	14.285000	0.183982
	14.290000	0.190429
	14.295000	0.113068
	14.300000	0.109845
	14.305000	0.187206
	14.310000	0.196876
	14.315000	0.116292
	14.320000	0.109845
	14.325000	0.187206
	14.330000	0.196876
	14.335000	0.113068
	14.340000	0.113068
	14.345000	0.187206
	14.350000	0.196876
	14.355000	0.113068
	14.360000	0.103398
	14.365000	0.187206
	14.370000	0.193652
	14.375000	0.116292
	14.380000	0.119515
	14.385000	0.193652
	14.390000	0.193652
	14.395000	0.113068
	14.400000	0.109845
	14.405000	0.187206
	14.410000	0.196876
	14.415000	0.119515
	14.420000	0.109845
	14.425000	0.190429
	14.430000	0.190429
	14.435000	0.113068
	14.440000	0.113068
	14.445000	0.187206
	14.450000	0.193652
	14.455000	0.113068
	14.460000	0.106622
	14.465000	0.183982
	14.470000	0.193652
	14.475000	0.113068
	14.480000	0.113068
	14.485000	0.190429
	14.490000	0.193652
	14.495000	0.113068
	14.500000	0.106622
	14.505000	0.183982
	14.510000	0.196876
	14.515000	0.116292
	14.520000	0.103398
	14.525000	0.187206
	14.530000	0.193652
	14.535000	0.116292
	14.540000	0.116292
	14.545000	0.187206
	14.550000	0.200099
	14.555000	0.119515
	14.560000	0.119515
	14.565000	0.187206
	14.570000	0.200099
	14.575000	0.119515
	14.580000	0.109845
	14.585000	0.190429
	14.590000	0.203322
	14.595000	0.119515
	14.600000	0.109845
	14.605000	0.187206
	14.610000	0.196876
	14.615000	0.116292
	14.620000	0.113068
	14.625000	0.190429
	14.630000	0.200099
	14.635000	0.116292
	14.640000	0.106622
	14.645000	0.187206
	14.650000	0.200099
	14.655000	0.122738
	14.660000	0.109845
	14.665000	0.187206
	14.670000	0.200099
	14.675000	0.119515
	14.680000	0.109845
	14.685000	0.187206
	14.690000	0.203322
	14.695000	0.122738
	14.700000	0.109845
	14.705000	0.187206
	14.710000	0.190429
	14.715000	0.119515
	14.720000	0.109845
	14.725000	0.183982
	14.730000	0.193652
	14.735000	0.122738
	14.740000	0.103398
	14.745000	0.193652
	14.750000	0.196876
	14.755000	0.116292
	14.760000	0.113068
	14.765000	0.180759
	14.770000	0.200099
	14.775000	0.116292
	14.780000	0.106622
	14.785000	0.180759
	14.790000	0.196876
	14.795000	0.116292
	14.800000	0.109845
	14.805000	0.180759
	14.810000	0.200099
	14.815000	0.119515
	14.820000	0.103398
	14.825000	0.183982
	14.830000	0.200099
	14.835000	0.122738
	14.840000	0.113068
	14.845000	0.187206
	14.850000	0.203322
	14.855000	0.125962
	14.860000	0.113068
	14.865000	0.193652
	14.870000	0.209769
	14.875000	0.122738
	14.880000	0.116292
	14.885000	0.193652
	14.890000	0.209769
	14.895000	0.129185
	14.900000	0.109845
	14.905000	0.193652
	14.910000	0.209769
	14.915000	0.129185
	14.920000	0.119515
	14.925000	0.196876
	14.930000	0.212992
	14.935000	0.135632
	14.940000	0.113068
	14.945000	0.200099
	14.950000	0.209769
	14.955000	0.132408
	14.960000	0.116292
	14.965000	0.193652
	14.970000	0.216216
	14.975000	0.132408
	14.980000	0.119515
	14.985000	0.200099
	14.990000	0.216216
	14.995000	0.138855
	15.000000	0.116292
	15.005000	0.203322
	15.010000	0.212992
	15.015000	0.138855
	15.020000	0.125962
	15.025000	0.206546
	15.030000	0.222663
	15.035000	0.142079
	15.040000	0.129185
	15.045000	0.206546
	15.050000	0.225886
	15.055000	0.145302
	15.060000	0.132408
	15.065000	0.203322
	15.070000	0.216216
	15.075000	0.148525
	15.080000	0.129185
	15.085000	0.206546
	15.090000	0.225886
	15.095000	0.145302
	15.100000	0.129185
	15.105000	0.206546
	15.110000	0.225886
	15.115000	0.148525
	15.120000	0.132408
	15.125000	0.209769
	15.130000	0.232333
	15.135000	0.151749
	15.140000	0.135632
	15.145000	0.219439
	15.150000	0.232333
	15.155000	0.161419
	15.160000	0.145302
	15.165000	0.229109
	15.170000	0.242003
	15.175000	0.171089
	15.180000	0.161419
	15.185000	0.238779
	15.190000	0.258119
	15.195000	0.190429
	15.200000	0.183982
	15.205000	0.254896
	15.210000	0.280683
	15.215000	0.209769
	15.220000	0.203322
	15.225000	0.277460
	15.230000	0.306470
	15.235000	0.235556
	15.240000	0.219439
	15.245000	0.300023
	15.250000	0.322587
	15.255000	0.251673
	15.260000	0.242003
	15.265000	0.316140
	15.270000	0.338703
	15.275000	0.267790
	15.280000	0.248449
	15.285000	0.322587
	15.290000	0.345150
	15.295000	0.267790
	15.300000	0.251673
	15.305000	0.329033
	15.310000	0.345150
	15.315000	0.274236
	15.320000	0.258119
	15.325000	0.329033
	15.330000	0.348374
	15.335000	0.267790
	15.340000	0.254896
	15.345000	0.322587
	15.350000	0.341927
	15.355000	0.264566
	15.360000	0.248449
	15.365000	0.319363
	15.370000	0.332257
	15.375000	0.258119
	15.380000	0.235556
	15.385000	0.300023
	15.390000	0.325810
	15.395000	0.248449
	15.400000	0.222663
	15.405000	0.296800
	15.410000	0.303247
	15.415000	0.238779
	15.420000	0.209769
	15.425000	0.271013
	15.430000	0.287130
	15.435000	0.216216
	15.440000	0.190429
	15.445000	0.254896
	15.450000	0.267790
	15.455000	0.190429
	15.460000	0.164642
	15.465000	0.232333
	15.470000	0.248449
	15.475000	0.174312
	15.480000	0.145302
	15.485000	0.212992
	15.490000	0.232333
	15.495000	0.154972
	15.500000	0.132408
	15.505000	0.209769
	15.510000	0.222663
	15.515000	0.151749
	15.520000	0.122738
	15.525000	0.203322
	15.530000	0.219439
	15.535000	0.138855
	15.540000	0.119515
	15.545000	0.196876
	15.550000	0.216216
	15.555000	0.138855
	15.560000	0.119515
	15.565000	0.190429
	15.570000	0.212992
	15.575000	0.132408
	15.580000	0.109845
	15.585000	0.187206
	15.590000	0.206546
	15.595000	0.135632
	15.600000	0.106622
	15.605000	0.180759
	15.610000	0.209769
	15.615000	0.129185
	15.620000	0.109845
	15.625000	0.180759
	15.630000	0.196876
	15.635000	0.129185
	15.640000	0.096952
	15.645000	0.167865
	15.650000	0.196876
	15.655000	0.119515
	15.660000	0.096952
	15.665000	0.174312
	15.670000	0.196876
	15.675000	0.125962
	15.680000	0.100175
	15.685000	0.167865
	15.690000	0.193652
	15.695000	0.119515
	15.700000	0.096952
	15.705000	0.171089
	15.710000	0.193652
	15.715000	0.119515
	15.720000	0.093728
	15.725000	0.164642
	15.730000	0.187206
	15.735000	0.116292
	15.740000	0.090505
	15.745000	0.158195
	15.750000	0.183982
	15.755000	0.116292
	15.760000	0.087281
	15.765000	0.158195
	15.770000	0.187206
	15.775000	0.109845
	15.780000	0.084058
	15.785000	0.154972
	15.790000	0.180759
	15.795000	0.103398
	15.800000	0.077611
	15.805000	0.148525
	15.810000	0.174312
	15.815000	0.100175
	15.820000	0.071165
	15.825000	0.145302
	15.830000	0.177536
	15.835000	0.096952
	15.840000	0.074388
	15.845000	0.145302
	15.850000	0.164642
	15.855000	0.100175
	15.860000	0.067941
	15.865000	0.138855
	15.870000	0.167865
	15.875000	0.093728
	15.880000	0.071165
	15.885000	0.138855
	15.890000	0.164642
	15.895000	0.087281
	15.900000	0.064718
	15.905000	0.135632
	15.910000	0.164642
	15.915000	0.093728
	15.920000	0.061495
	15.925000	0.135632
	15.930000	0.158195
	15.935000	0.090505
	15.940000	0.061495
	15.945000	0.135632
	15.950000	0.164642
	15.955000	0.087281
	15.960000	0.058271
	15.965000	0.135632
	15.970000	0.154972
	15.975000	0.080835
	15.980000	0.061495
	15.985000	0.132408
	15.990000	0.158195
	15.995000	0.087281
	16.000000	0.058271
	16.005000	0.125962
	16.010000	0.167865
	16.015000	0.087281
	16.020000	0.055048
	16.025000	0.129185
	16.030000	0.158195
	16.035000	0.084058
	16.040000	0.058271
	16.045000	0.132408
	16.050000	0.158195
	16.055000	0.084058
	16.060000	0.058271
	16.065000	0.135632
	16.070000	0.158195
	16.075000	0.084058
	16.080000	0.051825
	16.085000	0.122738
	16.090000	0.148525
	16.095000	0.084058
	16.100000	0.055048
	16.105000	0.129185
	16.110000	0.154972
	16.115000	0.090505
	16.120000	0.058271
	16.125000	0.135632
	16.130000	0.158195
	16.135000	0.080835
	16.140000	0.055048
	16.145000	0.125962
	16.150000	0.158195
	16.155000	0.084058
	16.160000	0.055048
	16.165000	0.125962
	16.170000	0.154972
	16.175000	0.080835
	16.180000	0.051825
	16.185000	0.122738
	16.190000	0.151749
	16.195000	0.077611
	16.200000	0.051825
	16.205000	0.119515
	16.210000	0.158195
	16.215000	0.077611
	16.220000	0.051825
	16.225000	0.122738
	16.230000	0.151749
	16.235000	0.080835
	16.240000	0.048601
	16.245000	0.116292
	16.250000	0.151749
	16.255000	0.080835
	16.260000	0.051825
	16.265000	0.122738
	16.270000	0.151749
	16.275000	0.077611
	16.280000	0.051825
	16.285000	0.119515
	16.290000	0.148525
	16.295000	0.077611
	16.300000	0.048601
	16.305000	0.122738
	16.310000	0.142079
	16.315000	0.080835
	16.320000	0.045378
	16.325000	0.119515
	16.330000	0.151749
	16.335000	0.084058
	16.340000	0.048601
	16.345000	0.116292
	16.350000	0.148525
	16.355000	0.074388
	16.360000	0.045378
	16.365000	0.116292
	16.370000	0.148525
	16.375000	0.077611
	16.380000	0.042154
	16.385000	0.113068
	16.390000	0.151749
	16.395000	0.077611
	16.400000	0.048601
	16.405000	0.119515
	16.410000	0.148525
	16.415000	0.074388
	16.420000	0.045378
	16.425000	0.116292
	16.430000	0.148525
	16.435000	0.080835
	16.440000	0.038931
	16.445000	0.113068
	16.450000	0.148525
	16.455000	0.071165
	16.460000	0.038931
	16.465000	0.113068
	16.470000	0.151749
	16.475000	0.071165
	16.480000	0.042154
	16.485000	0.109845
	16.490000	0.145302
	16.495000	0.077611
	16.500000	0.042154
	16.505000	0.109845
	16.510000	0.148525
	16.515000	0.077611
	16.520000	0.045378
	16.525000	0.106622
	16.530000	0.145302
	16.535000	0.074388
	16.540000	0.042154
	16.545000	0.116292
	16.550000	0.148525
	16.555000	0.077611
	16.560000	0.042154
	16.565000	0.109845
	16.570000	0.148525
	16.575000	0.080835
	16.580000	0.048601
	16.585000	0.109845
	16.590000	0.142079
	16.595000	0.077611
	16.600000	0.045378
	16.605000	0.113068
	16.610000	0.148525
	16.615000	0.077611
	16.620000	0.035708
	16.625000	0.109845
	16.630000	0.148525
	16.635000	0.074388
	16.640000	0.048601
	16.645000	0.113068
	16.650000	0.148525
	16.655000	0.077611
	16.660000	0.045378
	16.665000	0.113068
	16.670000	0.148525
	16.675000	0.084058
	16.680000	0.035708
	16.685000	0.109845
	16.690000	0.148525
	16.695000	0.074388
	16.700000	0.042154
	16.705000	0.109845
	16.710000	0.145302
	16.715000	0.080835
	16.720000	0.038931
	16.725000	0.109845
	16.730000	0.145302
	16.735000	0.074388
	16.740000	0.042154
	16.745000	0.109845
	16.750000	0.145302
	16.755000	0.084058
	16.760000	0.042154
	16.765000	0.106622
	16.770000	0.142079
	16.775000	0.080835
	16.780000	0.042154
	16.785000	0.109845
	16.790000	0.148525
	16.795000	0.077611
	16.800000	0.038931
	16.805000	0.109845
	16.810000	0.148525
	16.815000	0.074388
	16.820000	0.045378
	16.825000	0.109845
	16.830000	0.148525
	16.835000	0.084058
	16.840000	0.042154
	16.845000	0.109845
	16.850000	0.154972
	16.855000	0.087281
	16.860000	0.045378
	16.865000	0.113068
	16.870000	0.151749
	16.875000	0.090505
	16.880000	0.042154
	16.885000	0.116292
	16.890000	0.154972
	16.895000	0.080835
	16.900000	0.045378
	16.905000	0.109845
	16.910000	0.151749
	16.915000	0.084058
	16.920000	0.038931
	16.925000	0.116292
	16.930000	0.142079
	16.935000	0.080835
	16.940000	0.042154
	16.945000	0.113068
	16.950000	0.151749
	16.955000	0.084058
	16.960000	0.042154
	16.965000	0.106622
	16.970000	0.151749
	16.975000	0.080835
	16.980000	0.042154
	16.985000	0.109845
	16.990000	0.148525
	16.995000	0.084058
	17.000000	0.042154
	17.005000	0.109845
	17.010000	0.154972
	17.015000	0.084058
	17.020000	0.042154
	17.025000	0.106622
	17.030000	0.151749
	17.035000	0.080835
	17.040000	0.038931
	17.045000	0.109845
	17.050000	0.142079
	17.055000	0.080835
	17.060000	0.042154
	17.065000	0.100175
	17.070000	0.154972
	17.075000	0.077611
	17.080000	0.042154
	17.085000	0.109845
	17.090000	0.145302
	17.095000	0.084058
	17.100000	0.042154
	17.105000	0.106622
	17.110000	0.145302
	17.115000	0.077611
	17.120000	0.038931
	17.125000	0.109845
	17.130000	0.145302
	17.135000	0.087281
	17.140000	0.035708
	17.145000	0.113068
	17.150000	0.142079
	17.155000	0.084058
	17.160000	0.045378
	17.165000	0.106622
	17.170000	0.138855
	17.175000	0.074388
	17.180000	0.032484
	17.185000	0.100175
	17.190000	0.148525
	17.195000	0.077611
	17.200000	0.038931
	17.205000	0.100175
	17.210000	0.138855
	17.215000	0.080835
	17.220000	0.032484
	17.225000	0.090505
	17.230000	0.142079
	17.235000	0.074388
	17.240000	0.032484
	17.245000	0.096952
	17.250000	0.145302
	17.255000	0.074388
	17.260000	0.029261
	17.265000	0.090505
	17.270000	0.142079
	17.275000	0.074388
	17.280000	0.038931
	17.285000	0.100175
	17.290000	0.145302
	17.295000	0.084058
	17.300000	0.035708
	17.305000	0.100175
	17.310000	0.145302
	17.315000	0.087281
	17.320000	0.045378
	17.325000	0.103398
	17.330000	0.154972
	17.335000	0.090505
	17.340000	0.045378
	17.345000	0.113068
	17.350000	0.164642
	17.355000	0.100175
	17.360000	0.061495
	17.365000	0.122738
	17.370000	0.174312
	17.375000	0.106622
	17.380000	0.067941
	17.385000	0.135632
	17.390000	0.177536
	17.395000	0.116292
	17.400000	0.080835
	17.405000	0.132408
	17.410000	0.177536
	17.415000	0.129185
	17.420000	0.087281
	17.425000	0.158195
	17.430000	0.200099
	17.435000	0.154972
	17.440000	0.113068
	17.445000	0.180759
	17.450000	0.235556
	17.455000	0.187206
	17.460000	0.142079
	17.465000	0.212992
	17.470000	0.264566
	17.475000	0.209769
	17.480000	0.177536
	17.485000	0.238779
	17.490000	0.293576
	17.495000	0.242003
	17.500000	0.200099
	17.505000	0.271013
	17.510000	0.319363
	17.515000	0.267790
	17.520000	0.219439
	17.525000	0.287130
	17.530000	0.335480
	17.535000	0.277460
	17.540000	0.235556
	17.545000	0.303247
	17.550000	0.345150
	17.555000	0.296800
	17.560000	0.248449
	17.565000	0.309693
	17.570000	0.354820
	17.575000	0.306470
	17.580000	0.258119
	17.585000	0.312917
	17.590000	0.364490
	17.595000	0.300023
	17.600000	0.258119
	17.605000	0.316140
	17.610000	0.361267
	17.615000	0.303247
	17.620000	0.251673
	17.625000	0.303247
	17.630000	0.348374
	17.635000	0.290353
	17.640000	0.232333
	17.645000	0.296800
	17.650000	0.332257
	17.655000	0.271013
	17.660000	0.222663
	17.665000	0.271013
	17.670000	0.319363
	17.675000	0.258119
	17.680000	0.196876
	17.685000	0.245226
	17.690000	0.287130
	17.695000	0.219439
	17.700000	0.164642
	17.705000	0.222663
	17.710000	0.258119
	17.715000	0.190429
	17.720000	0.138855
	17.725000	0.183982
	17.730000	0.225886
	17.735000	0.158195
	17.740000	0.100175
	17.745000	0.151749
	17.750000	0.190429
	17.755000	0.129185
	17.760000	0.067941
	17.765000	0.129185
	17.770000	0.167865
	17.775000	0.106622
	17.780000	0.058271
	17.785000	0.113068
	17.790000	0.158195
	17.795000	0.096952
	17.800000	0.045378
	17.805000	0.106622
	17.810000	0.148525
	17.815000	0.087281
	17.820000	0.045378
	17.825000	0.093728
	17.830000	0.138855
	17.835000	0.090505
	17.840000	0.045378
	17.845000	0.093728
	17.850000	0.142079
	17.855000	0.087281
	17.860000	0.038931
	17.865000	0.096952
	17.870000	0.138855
	17.875000	0.084058
	17.880000	0.032484
	17.885000	0.093728
	17.890000	0.138855
	17.895000	0.080835
	17.900000	0.029261
	17.905000	0.090505
	17.910000	0.142079
	17.915000	0.077611
	17.920000	0.022814
	17.925000	0.087281
	17.930000	0.132408
	17.935000	0.074388
	17.940000	0.032484
	17.945000	0.087281
	17.950000	0.138855
	17.955000	0.074388
	17.960000	0.026038
	17.965000	0.080835
	17.970000	0.135632
	17.975000	0.077611
	17.980000	0.022814
	17.985000	0.077611
	17.990000	0.132408
	17.995000	0.071165
	18.000000	0.026038
	18.005000	0.080835
	18.010000	0.122738
	18.015000	0.074388
	18.020000	0.019591
	18.025000	0.077611
	18.030000	0.129185
	18.035000	0.071165
	18.040000	0.022814
	18.045000	0.071165
	18.050000	0.125962
	18.055000	0.064718
	18.060000	0.013144
	18.065000	0.071165
	18.070000	0.113068
	18.075000	0.064718
	18.080000	0.003474
	18.085000	0.064718
	18.090000	0.109845
	18.095000	0.055048
	18.100000	0.003474
	18.105000	0.061495
	18.110000	0.106622
	18.115000	0.048601
	18.120000	0.000251
	18.125000	0.061495
	18.130000	0.113068
	18.135000	0.051825
	18.140000	-0.006196
	18.145000	0.058271
	18.150000	0.109845
	18.155000	0.051825
	18.160000	-0.002973
	18.165000	0.051825
	18.170000	0.103398
	18.175000	0.051825
	18.180000	-0.009419
	18.185000	0.048601
	18.190000	0.106622
	18.195000	0.048601
	18.200000	-0.002973
	18.205000	0.051825
	18.210000	0.106622
	18.215000	0.045378
	18.220000	-0.006196
	18.225000	0.048601
	18.230000	0.100175
	18.235000	0.042154
	18.240000	-0.012643
	18.245000	0.048601
	18.250000	0.093728
	18.255000	0.042154
	18.260000	-0.009419
	18.265000	0.038931
	18.270000	0.090505
	18.275000	0.045378
	18.280000	-0.019089
	18.285000	0.045378
	18.290000	0.090505
	18.295000	0.035708
	18.300000	-0.019089
	18.305000	0.042154
	18.310000	0.090505
	18.315000	0.035708
	18.320000	-0.025536
	18.325000	0.029261
	18.330000	0.084058
	18.335000	0.029261
	18.340000	-0.019089
	18.345000	0.032484
	18.350000	0.084058
	18.355000	0.032484
	18.360000	-0.022313
	18.365000	0.026038
	18.370000	0.087281
	18.375000	0.029261
	18.380000	-0.022313
	18.385000	0.029261
	18.390000	0.087281
	18.395000	0.029261
	18.400000	-0.025536
	18.405000	0.032484
	18.410000	0.080835
	18.415000	0.029261
	18.420000	-0.028759
	18.425000	0.029261
	18.430000	0.084058
	18.435000	0.032484
	18.440000	-0.028759
	18.445000	0.026038
	18.450000	0.080835
	18.455000	0.029261
	18.460000	-0.025536
	18.465000	0.026038
	18.470000	0.084058
	18.475000	0.029261
	18.480000	-0.031983
	18.485000	0.019591
	18.490000	0.087281
	18.495000	0.022814
	18.500000	-0.028759
	18.505000	0.022814
	18.510000	0.080835
	18.515000	0.022814
	18.520000	-0.031983
	18.525000	0.019591
	18.530000	0.084058
	18.535000	0.022814
	18.540000	-0.028759
	18.545000	0.026038
	18.550000	0.080835
	18.555000	0.019591
	18.560000	-0.031983
	18.565000	0.026038
	18.570000	0.080835
	18.575000	0.019591
	18.580000	-0.028759
	18.585000	0.026038
	18.590000	0.080835
	18.595000	0.026038
	18.600000	-0.031983
	18.605000	0.022814
	18.610000	0.084058
	18.615000	0.026038
	18.620000	-0.031983
	18.625000	0.022814
	18.630000	0.084058
	18.635000	0.019591
	18.640000	-0.031983
	18.645000	0.022814
	18.650000	0.077611
	18.655000	0.026038
	18.660000	-0.035206
	18.665000	0.019591
	18.670000	0.080835
	18.675000	0.019591
	18.680000	-0.038430
	18.685000	0.019591
	18.690000	0.084058
	18.695000	0.022814
	18.700000	-0.031983
	18.705000	0.016368
	18.710000	0.074388
	18.715000	0.026038
	18.720000	-0.035206
	18.725000	0.016368
	18.730000	0.074388
	18.735000	0.029261
	18.740000	-0.041653
	18.745000	0.016368
	18.750000	0.071165
	18.755000	0.026038
	18.760000	-0.035206
	18.765000	0.009921
	18.770000	0.074388
	18.775000	0.022814
	18.780000	-0.031983
	18.785000	0.016368
	18.790000	0.067941
	18.795000	0.022814
	18.800000	-0.038430
	18.805000	0.009921
	18.810000	0.077611
	18.815000	0.019591
	18.820000	-0.038430
	18.825000	0.016368
	18.830000	0.074388
	18.835000	0.019591
	18.840000	-0.038430
	18.845000	0.013144
	18.850000	0.071165
	18.855000	0.032484
	18.860000	-0.031983
	18.865000	0.009921
	18.870000	0.074388
	18.875000	0.022814
	18.880000	-0.035206
	18.885000	0.013144
	18.890000	0.074388
	18.895000	0.029261
	18.900000	-0.031983
	18.905000	0.016368
	18.910000	0.080835
	18.915000	0.019591
	18.920000	-0.031983
	18.925000	0.016368
	18.930000	0.074388
	18.935000	0.026038
	18.940000	-0.031983
	18.945000	0.013144
	18.950000	0.077611
	18.955000	0.022814
	18.960000	-0.035206
	18.965000	0.019591
	18.970000	0.067941
	18.975000	0.026038
	18.980000	-0.041653
	18.985000	0.009921
	18.990000	0.077611
	18.995000	0.026038
	19.000000	-0.035206
	19.005000	0.009921
	19.010000	0.074388
	19.015000	0.026038
	19.020000	-0.035206
	19.025000	0.009921
	19.030000	0.074388
	19.035000	0.019591
	19.040000	-0.035206
	19.045000	0.019591
	19.050000	0.067941
	19.055000	0.026038
	19.060000	-0.031983
	19.065000	0.013144
	19.070000	0.071165
	19.075000	0.022814
	19.080000	-0.041653
	19.085000	0.009921
	19.090000	0.071165
	19.095000	0.026038
	19.100000	-0.035206
	19.105000	0.013144
	19.110000	0.067941
	19.115000	0.026038
	19.120000	-0.035206
	19.125000	0.009921
	19.130000	0.067941
	19.135000	0.029261
	19.140000	-0.035206
	19.145000	0.013144
	19.150000	0.071165
	19.155000	0.022814
	19.160000	-0.044876
	19.165000	0.013144
	19.170000	0.074388
	19.175000	0.022814
	19.180000	-0.041653
	19.185000	0.009921
	19.190000	0.074388
	19.195000	0.026038
	19.200000	-0.041653
	19.205000	0.006697
	19.210000	0.071165
	19.215000	0.029261
	19.220000	-0.038430
	19.225000	0.013144
	19.230000	0.067941
	19.235000	0.026038
	19.240000	-0.038430
	19.245000	0.006697
	19.250000	0.071165
	19.255000	0.029261
	19.260000	-0.038430
	19.265000	0.006697
	19.270000	0.071165
	19.275000	0.016368
	19.280000	-0.041653
	19.285000	0.009921
	19.290000	0.067941
	19.295000	0.022814
	19.300000	-0.041653
	19.305000	0.006697
	19.310000	0.071165
	19.315000	0.016368
	19.320000	-0.038430
	19.325000	0.006697
	19.330000	0.064718
	19.335000	0.022814
	19.340000	-0.041653
	19.345000	0.000251
	19.350000	0.077611
	19.355000	0.022814
	19.360000	-0.041653
	19.365000	0.003474
	19.370000	0.061495
	19.375000	0.029261
	19.380000	-0.041653
	19.385000	0.000251
	19.390000	0.064718
	19.395000	0.022814
	19.400000	-0.044876
	19.405000	0.000251
	19.410000	0.064718
	19.415000	0.016368
	19.420000	-0.044876
	19.425000	0.000251
	19.430000	0.061495
	19.435000	0.019591
	19.440000	-0.051323
	19.445000	-0.009419
	19.450000	0.061495
	19.455000	0.016368
	19.460000	-0.048100
	19.465000	-0.006196
	19.470000	0.058271
	19.475000	0.013144
	19.480000	-0.044876
	19.485000	-0.002973
	19.490000	0.058271
	19.495000	0.016368
	19.500000	-0.048100
	19.505000	0.003474
	19.510000	0.064718
	19.515000	0.022814
	19.520000	-0.035206
	19.525000	0.000251
	19.530000	0.071165
	19.535000	0.032484
	19.540000	-0.038430
	19.545000	0.009921
	19.550000	0.077611
	19.555000	0.029261
	19.560000	-0.028759
	19.565000	0.016368
	19.570000	0.084058
	19.575000	0.038931
	19.580000	-0.028759
	19.585000	0.019591
	19.590000	0.087281
	19.595000	0.048601
	19.600000	-0.019089
	19.605000	0.026038
	19.610000	0.093728
	19.615000	0.048601
	19.620000	-0.012643
	19.625000	0.029261
	19.630000	0.096952
	19.635000	0.055048
	19.640000	-0.009419
	19.645000	0.038931
	19.650000	0.113068
	19.655000	0.071165
	19.660000	0.019591
	19.665000	0.071165
	19.670000	0.142079
	19.675000	0.109845
	19.680000	0.055048
	19.685000	0.109845
	19.690000	0.177536
	19.695000	0.154972
	19.700000	0.090505
	19.705000	0.142079
	19.710000	0.209769
	19.715000	0.180759
	19.720000	0.113068
	19.725000	0.161419
	19.730000	0.232333
	19.735000	0.196876
	19.740000	0.142079
	19.745000	0.180759
	19.750000	0.245226
	19.755000	0.216216
	19.760000	0.154972
	19.765000	0.196876
	19.770000	0.261343
	19.775000	0.225886
	19.780000	0.161419
	19.785000	0.209769
	19.790000	0.274236
	19.795000	0.238779
	19.800000	0.171089
	19.805000	0.216216
	19.810000	0.277460
	19.815000	0.238779
	19.820000	0.171089
	19.825000	0.206546
	19.830000	0.267790
	19.835000	0.232333
	19.840000	0.164642
	19.845000	0.193652
	19.850000	0.258119
	19.855000	0.219439
	19.860000	0.145302
	19.865000	0.180759
	19.870000	0.238779
	19.875000	0.196876
	19.880000	0.119515
	19.885000	0.158195
	19.890000	0.209769
	19.895000	0.167865
	19.900000	0.087281
	19.905000	0.122738
	19.910000	0.183982
	19.915000	0.135632
	19.920000	0.058271
	19.925000	0.090505
	19.930000	0.135632
	19.935000	0.090505
	19.940000	0.013144
	19.945000	0.042154
	19.950000	0.106622
	19.955000	0.064718
	19.960000	-0.019089
	19.965000	0.019591
	19.970000	0.077611
	19.975000	0.038931
	19.980000	-0.038430
	19.985000	0.003474
	19.990000	0.061495
	19.995000	0.029261
	20.000000	-0.035206
	20.005000	-0.006196
	20.010000	0.055048
	20.015000	0.022814
	20.020000	-0.048100
	20.025000	-0.009419
	20.030000	0.058271
	20.035000	0.022814
	20.040000	-0.048100
	20.045000	-0.015866
	20.050000	0.051825
	20.055000	0.016368
	20.060000	-0.057770
	20.065000	-0.015866
	20.070000	0.048601
	20.075000	0.006697
	20.080000	-0.060993
	20.085000	-0.022313
	20.090000	0.042154
	20.095000	0.009921
	20.100000	-0.064216
	20.105000	-0.022313
	20.110000	0.042154
	20.115000	0.006697
	20.120000	-0.064216
	20.125000	-0.028759
	20.130000	0.042154
	20.135000	0.003474
	20.140000	-0.073886
	20.145000	-0.031983
	20.150000	0.038931
	20.155000	-0.002973
	20.160000	-0.077110
	20.165000	-0.038430
	20.170000	0.029261
	20.175000	-0.002973
	20.180000	-0.073886
	20.185000	-0.038430
	20.190000	0.029261
	20.195000	-0.006196
	20.200000	-0.077110
	20.205000	-0.038430
	20.210000	0.026038
	20.215000	-0.002973
	20.220000	-0.080333
	20.225000	-0.038430
	20.230000	0.022814
	20.235000	-0.006196
	20.240000	-0.080333
	20.245000	-0.038430
	20.250000	0.026038
	20.255000	-0.006196
	20.260000	-0.077110
	20.265000	-0.041653
	20.270000	0.032484
	20.275000	-0.012643
	20.280000	-0.080333
	20.285000	-0.041653
	20.290000	0.019591
	20.295000	-0.015866
	20.300000	-0.083557
	20.305000	-0.044876
	20.310000	0.022814
	20.315000	-0.009419
	20.320000	-0.080333
	20.325000	-0.041653
	20.330000	0.026038
	20.335000	-0.006196
	20.340000	-0.080333
	20.345000	-0.048100
	20.350000	0.019591
	20.355000	-0.006196
	20.360000	-0.083557
	20.365000	-0.044876
	20.370000	0.026038
	20.375000	-0.009419
	20.380000	-0.080333
	20.385000	-0.044876
	20.390000	0.019591
	20.395000	-0.019089
	20.400000	-0.086780
	20.405000	-0.051323
	20.410000	0.022814
	20.415000	-0.015866
	20.420000	-0.083557
	20.425000	-0.051323
	20.430000	0.019591
	20.435000	-0.006196
	20.440000	-0.086780
	20.445000	-0.048100
	20.450000	0.019591
	20.455000	-0.015866
	20.460000	-0.080333
	20.465000	-0.051323
	20.470000	0.022814
	20.475000	-0.006196
	20.480000	-0.080333
	20.485000	-0.057770
	20.490000	0.016368
	20.495000	-0.015866
	20.500000	-0.086780
	20.505000	-0.060993
	20.510000	0.019591
	20.515000	-0.012643
	20.520000	-0.086780
	20.525000	-0.057770
	20.530000	0.019591
	20.535000	-0.012643
	20.540000	-0.090003
	20.545000	-0.054546
	20.550000	0.013144
	20.555000	-0.012643
	20.560000	-0.086780
	20.565000	-0.060993
	20.570000	0.016368
	20.575000	-0.019089
	20.580000	-0.090003
	20.585000	-0.060993
	20.590000	0.013144
	20.595000	-0.022313
	20.600000	-0.099673
	20.605000	-0.060993
	20.610000	0.013144
	20.615000	-0.019089
	20.620000	-0.093227
	20.625000	-0.070663
	20.630000	0.009921
	20.635000	-0.022313
	20.640000	-0.096450
	20.645000	-0.064216
	20.650000	0.013144
	20.655000	-0.019089
	20.660000	-0.096450
	20.665000	-0.060993
	20.670000	0.009921
	20.675000	-0.012643
	20.680000	-0.093227
	20.685000	-0.064216
	20.690000	0.003474
	20.695000	-0.019089
	20.700000	-0.093227
	20.705000	-0.064216
	20.710000	0.006697
	20.715000	-0.025536
	20.720000	-0.099673
	20.725000	-0.064216
	20.730000	0.009921
	20.735000	-0.022313
	20.740000	-0.102897
	20.745000	-0.057770
	20.750000	0.013144
	20.755000	-0.022313
	20.760000	-0.096450
	20.765000	-0.070663
	20.770000	0.006697
	20.775000	-0.019089
	20.780000	-0.096450
	20.785000	-0.064216
	20.790000	0.013144
	20.795000	-0.015866
	20.800000	-0.099673
	20.805000	-0.070663
	20.810000	0.003474
	20.815000	-0.025536
	20.820000	-0.093227
	20.825000	-0.067440
	20.830000	0.003474
	20.835000	-0.022313
	20.840000	-0.096450
	20.845000	-0.064216
	20.850000	0.006697
	20.855000	-0.019089
	20.860000	-0.099673
	20.865000	-0.073886
	20.870000	0.006697
	20.875000	-0.025536
	20.880000	-0.096450
	20.885000	-0.070663
	20.890000	0.000251
	20.895000	-0.019089
	20.900000	-0.099673
	20.905000	-0.070663
	20.910000	0.006697
	20.915000	-0.028759
	20.920000	-0.093227
	20.925000	-0.070663
	20.930000	0.003474
	20.935000	-0.025536
	20.940000	-0.096450
	20.945000	-0.073886
	20.950000	-0.002973
	20.955000	-0.025536
	20.960000	-0.093227
	20.965000	-0.070663
	20.970000	0.000251
	20.975000	-0.022313
	20.980000	-0.099673
	20.985000	-0.077110
	20.990000	0.000251
	20.995000	-0.019089
	21.000000	-0.096450
	21.005000	-0.080333
	21.010000	0.000251
	21.015000	-0.022313
	21.020000	-0.096450
	21.025000	-0.070663
	21.030000	0.003474
	21.035000	-0.022313
	21.040000	-0.093227
	21.045000	-0.077110
	21.050000	0.003474
	21.055000	-0.022313
	21.060000	-0.099673
	21.065000	-0.077110
	21.070000	0.003474
	21.075000	-0.025536
	21.080000	-0.096450
	21.085000	-0.070663
	21.090000	0.003474
	21.095000	-0.025536
	21.100000	-0.093227
	21.105000	-0.077110
	21.110000	0.003474
	21.115000	-0.028759
	21.120000	-0.099673
	21.125000	-0.067440
	21.130000	0.000251
	21.135000	-0.025536
	21.140000	-0.093227
	21.145000	-0.070663
	21.150000	0.003474
	21.155000	-0.022313
	21.160000	-0.096450
	21.165000	-0.073886
	21.170000	0.003474
	21.175000	-0.022313
	21.180000	-0.096450
	21.185000	-0.070663
	21.190000	-0.002973
	21.195000	-0.022313
	21.200000	-0.096450
	21.205000	-0.077110
	21.210000	0.006697
	21.215000	-0.015866
	21.220000	-0.096450
	21.225000	-0.073886
	21.230000	-0.002973
	21.235000	-0.025536
	21.240000	-0.096450
	21.245000	-0.077110
	21.250000	0.000251
	21.255000	-0.028759
	21.260000	-0.102897
	21.265000	-0.077110
	21.270000	0.003474
	21.275000	-0.028759
	21.280000	-0.106120
	21.285000	-0.080333
	21.290000	-0.002973
	21.295000	-0.025536
	21.300000	-0.102897
	21.305000	-0.080333
	21.310000	-0.006196
	21.315000	-0.025536
	21.320000	-0.102897
	21.325000	-0.083557
	21.330000	-0.009419
	21.335000	-0.028759
	21.340000	-0.106120
	21.345000	-0.083557
	21.350000	-0.009419
	21.355000	-0.022313
	21.360000	-0.109343
	21.365000	-0.086780
	21.370000	-0.006196
	21.375000	-0.028759
	21.380000	-0.102897
	21.385000	-0.086780
	21.390000	-0.009419
	21.395000	-0.025536
	21.400000	-0.106120
	21.405000	-0.086780
	21.410000	-0.012643
	21.415000	-0.035206
	21.420000	-0.109343
	21.425000	-0.090003
	21.430000	-0.012643
	21.435000	-0.031983
	21.440000	-0.109343
	21.445000	-0.090003
	21.450000	-0.012643
	21.455000	-0.031983
	21.460000	-0.106120
	21.465000	-0.086780
	21.470000	-0.015866
	21.475000	-0.025536
	21.480000	-0.109343
	21.485000	-0.086780
	21.490000	-0.015866
	21.495000	-0.035206
	21.500000	-0.106120
	21.505000	-0.093227
	21.510000	-0.015866
	21.515000	-0.028759
	21.520000	-0.109343
	21.525000	-0.093227
	21.530000	-0.019089
	21.535000	-0.031983
	21.540000	-0.109343
	21.545000	-0.090003
	21.550000	-0.015866
	21.555000	-0.031983
	21.560000	-0.112567
	21.565000	-0.096450
	21.570000	-0.019089
	21.575000	-0.035206
	21.580000	-0.109343
	21.585000	-0.090003
	21.590000	-0.022313
	21.595000	-0.031983
	21.600000	-0.109343
	21.605000	-0.099673
	21.610000	-0.019089
	21.615000	-0.041653
	21.620000	-0.109343
	21.625000	-0.096450
	21.630000	-0.022313
	21.635000	-0.038430
	21.640000	-0.115790
	21.645000	-0.096450
	21.650000	-0.022313
	21.655000	-0.031983
	21.660000	-0.109343
	21.665000	-0.093227
	21.670000	-0.022313
	21.675000	-0.031983
	21.680000	-0.115790
	21.685000	-0.096450
	21.690000	-0.019089
	21.695000	-0.028759
	21.700000	-0.109343
	21.705000	-0.086780
	21.710000	-0.015866
	21.715000	-0.028759
	21.720000	-0.102897
	21.725000	-0.090003
	21.730000	-0.015866
	21.735000	-0.025536
	21.740000	-0.099673
	21.745000	-0.090003
	21.750000	-0.006196
	21.755000	-0.025536
	21.760000	-0.096450
	21.765000	-0.083557
	21.770000	-0.002973
	21.775000	-0.015866
	21.780000	-0.096450
	21.785000	-0.083557
	21.790000	-0.006196
	21.795000	-0.009419
	21.800000	-0.093227
	21.805000	-0.067440
	21.810000	0.009921
	21.815000	0.006697
	21.820000	-0.067440
	21.825000	-0.051323
	21.830000	0.019591
	21.835000	0.022814
	21.840000	-0.048100
	21.845000	-0.031983
	21.850000	0.045378
	21.855000	0.045378
	21.860000	-0.025536
	21.865000	-0.006196
	21.870000	0.074388
	21.875000	0.071165
	21.880000	0.003474
	21.885000	0.022814
	21.890000	0.096952
	21.895000	0.087281
	21.900000	0.016368
	21.905000	0.038931
	21.910000	0.116292
	21.915000	0.109845
	21.920000	0.035708
	21.925000	0.048601
	21.930000	0.129185
	21.935000	0.116292
	21.940000	0.048601
	21.945000	0.061495
	21.950000	0.135632
	21.955000	0.125962
	21.960000	0.045378
	21.965000	0.067941
	21.970000	0.142079
	21.975000	0.122738
	21.980000	0.051825
	21.985000	0.061495
	21.990000	0.135632
	21.995000	0.122738
	22.000000	0.045378
	22.005000	0.058271
	22.010000	0.129185
	22.015000	0.116292
	22.020000	0.029261
	22.025000	0.045378
	22.030000	0.106622
	22.035000	0.100175
	22.040000	0.026038
	22.045000	0.026038
	22.050000	0.096952
	22.055000	0.087281
	22.060000	0.006697
	22.065000	0.006697
	22.070000	0.074388
	22.075000	0.058271
	22.080000	-0.022313
	22.085000	-0.019089
	22.090000	0.042154
	22.095000	0.029261
	22.100000	-0.054546
	22.105000	-0.054546
	22.110000	0.019591
	22.115000	0.006697
	22.120000	-0.077110
	22.125000	-0.077110
	22.130000	-0.006196
	22.135000	-0.022313
	22.140000	-0.102897
	22.145000	-0.099673
	22.150000	-0.019089
	22.155000	-0.038430
	22.160000	-0.112567
	22.165000	-0.106120
	22.170000	-0.035206
	22.175000	-0.044876
	22.180000	-0.119014
	22.185000	-0.109343
	22.190000	-0.031983
	22.195000	-0.038430
	22.200000	-0.115790
	22.205000	-0.102897
	22.210000	-0.031983
	22.215000	-0.038430
	22.220000	-0.119014
	22.225000	-0.102897
	22.230000	-0.035206
	22.235000	-0.035206
	22.240000	-0.115790
	22.245000	-0.109343
	22.250000	-0.028759
	22.255000	-0.031983
	22.260000	-0.112567
	22.265000	-0.102897
	22.270000	-0.025536
	22.275000	-0.031983
	22.280000	-0.112567
	22.285000	-0.106120
	22.290000	-0.025536
	22.295000	-0.031983
	22.300000	-0.109343
	22.305000	-0.109343
	22.310000	-0.022313
	22.315000	-0.031983
	22.320000	-0.115790
	22.325000	-0.102897
	22.330000	-0.025536
	22.335000	-0.041653
	22.340000	-0.109343
	22.345000	-0.102897
	22.350000	-0.031983
	22.355000	-0.035206
	22.360000	-0.115790
	22.365000	-0.109343
	22.370000	-0.031983
	22.375000	-0.041653
	22.380000	-0.112567
	22.385000	-0.109343
	22.390000	-0.031983
	22.395000	-0.041653
	22.400000	-0.122237
	22.405000	-0.115790
	22.410000	-0.038430
	22.415000	-0.048100
	22.420000	-0.122237
	22.425000	-0.122237
	22.430000	-0.041653
	22.435000	-0.044876
	22.440000	-0.125460
	22.445000	-0.115790
	22.450000	-0.044876
	22.455000	-0.048100
	22.460000	-0.128684
	22.465000	-0.119014
	22.470000	-0.041653
	22.475000	-0.051323
	22.480000	-0.128684
	22.485000	-0.122237
	22.490000	-0.044876
	22.495000	-0.051323
	22.500000	-0.128684
	22.505000	-0.119014
	22.510000	-0.038430
	22.515000	-0.048100
	22.520000	-0.122237
	22.525000	-0.122237
	22.530000	-0.041653
	22.535000	-0.048100
	22.540000	-0.125460
	22.545000	-0.119014
	22.550000	-0.044876
	22.555000	-0.048100
	22.560000	-0.122237
	22.565000	-0.125460
	22.570000	-0.048100
	22.575000	-0.051323
	22.580000	-0.135130
	22.585000	-0.125460
	22.590000	-0.044876
	22.595000	-0.051323
	22.600000	-0.135130
	22.605000	-0.131907
	22.610000	-0.051323
	22.615000	-0.057770
	22.620000	-0.135130
	22.625000	-0.138354
	22.630000	-0.057770
	22.635000	-0.064216
	22.640000	-0.131907
	22.645000	-0.141577
	22.650000	-0.057770
	22.655000	-0.060993
	22.660000	-0.144800
	22.665000	-0.138354
	22.670000	-0.057770
	22.675000	-0.070663
	22.680000	-0.138354
	22.685000	-0.141577
	22.690000	-0.060993
	22.695000	-0.064216
	22.700000	-0.151247
	22.705000	-0.151247
	22.710000	-0.064216
	22.715000	-0.067440
	22.720000	-0.144800
	22.725000	-0.151247
	22.730000	-0.064216
	22.735000	-0.070663
	22.740000	-0.148024
	22.745000	-0.154470
	22.750000	-0.064216
	22.755000	-0.073886
	22.760000	-0.144800
	22.765000	-0.151247
	22.770000	-0.064216
	22.775000	-0.067440
	22.780000	-0.154470
	22.785000	-0.151247
	22.790000	-0.064216
	22.795000	-0.070663
	22.800000	-0.148024
	22.805000	-0.151247
	22.810000	-0.070663
	22.815000	-0.067440
	22.820000	-0.151247
	22.825000	-0.148024
	22.830000	-0.073886
	22.835000	-0.070663
	22.840000	-0.154470
	22.845000	-0.157694
	22.850000	-0.073886
	22.855000	-0.077110
	22.860000	-0.157694
	22.865000	-0.160917
	22.870000	-0.073886
	22.875000	-0.080333
	22.880000	-0.160917
	22.885000	-0.154470
	22.890000	-0.080333
	22.895000	-0.077110
	22.900000	-0.157694
	22.905000	-0.157694
	22.910000	-0.080333
	22.915000	-0.077110
	22.920000	-0.154470
	22.925000	-0.157694
	22.930000	-0.083557
	22.935000	-0.083557
	22.940000	-0.167364
	22.945000	-0.164141
	22.950000	-0.090003
	22.955000	-0.083557
	22.960000	-0.167364
	22.965000	-0.167364
	22.970000	-0.083557
	22.975000	-0.083557
	22.980000	-0.160917
	22.985000	-0.170587
	22.990000	-0.083557
	22.995000	-0.083557
	23.000000	-0.167364
	23.005000	-0.180257
	23.010000	-0.093227
	23.015000	-0.083557
	23.020000	-0.170587
	23.025000	-0.170587
	23.030000	-0.090003
	23.035000	-0.086780
	23.040000	-0.170587
	23.045000	-0.170587
	23.050000	-0.096450
	23.055000	-0.090003
	23.060000	-0.170587
	23.065000	-0.173811
	23.070000	-0.093227
	23.075000	-0.093227
	23.080000	-0.173811
	23.085000	-0.177034
	23.090000	-0.096450
	23.095000	-0.090003
	23.100000	-0.180257
	23.105000	-0.177034
	23.110000	-0.102897
	23.115000	-0.096450
	23.120000	-0.180257
	23.125000	-0.177034
	23.130000	-0.102897
	23.135000	-0.096450
	23.140000	-0.177034
	23.145000	-0.183481
	23.150000	-0.102897
	23.155000	-0.096450
	23.160000	-0.173811
	23.165000	-0.180257
	23.170000	-0.106120
	23.175000	-0.099673
	23.180000	-0.173811
	23.185000	-0.177034
	23.190000	-0.096450
	23.195000	-0.096450
	23.200000	-0.177034
	23.205000	-0.180257
	23.210000	-0.102897
	23.215000	-0.090003
	23.220000	-0.170587
	23.225000	-0.173811
	23.230000	-0.106120
	23.235000	-0.090003
	23.240000	-0.177034
	23.245000	-0.173811
	23.250000	-0.096450
	23.255000	-0.096450
	23.260000	-0.173811
	23.265000	-0.180257
	23.270000	-0.106120
	23.275000	-0.086780
	23.280000	-0.173811
	23.285000	-0.183481
	23.290000	-0.096450
	23.295000	-0.093227
	23.300000	-0.177034
	23.305000	-0.177034
	23.310000	-0.096450
	23.315000	-0.086780
	23.320000	-0.164141
	23.325000	-0.173811
	23.330000	-0.096450
	23.335000	-0.086780
	23.340000	-0.177034
	23.345000	-0.177034
	23.350000	-0.102897
	23.355000	-0.090003
	23.360000	-0.170587
	23.365000	-0.183481
	23.370000	-0.102897
	23.375000	-0.086780
	23.380000	-0.167364
	23.385000	-0.173811
	23.390000	-0.096450
	23.395000	-0.093227
	23.400000	-0.177034
	23.405000	-0.180257
	23.410000	-0.102897
	23.415000	-0.090003
	23.420000	-0.170587
	23.425000	-0.183481
	23.430000	-0.109343
	23.435000	-0.096450
	23.440000	-0.177034
	23.445000	-0.186704
	23.450000	-0.109343
	23.455000	-0.096450
	23.460000	-0.177034
	23.465000	-0.186704
	23.470000	-0.112567
	23.475000	-0.102897
	23.480000	-0.177034
	23.485000	-0.189927
	23.490000	-0.109343
	23.495000	-0.102897
	23.500000	-0.180257
	23.505000	-0.193151
	23.510000	-0.109343
	23.515000	-0.096450
	23.520000	-0.180257
	23.525000	-0.186704
	23.530000	-0.112567
	23.535000	-0.106120
	23.540000	-0.183481
	23.545000	-0.186704
	23.550000	-0.102897
	23.555000	-0.099673
	23.560000	-0.177034
	23.565000	-0.193151
	23.570000	-0.112567
	23.575000	-0.106120
	23.580000	-0.186704
	23.585000	-0.196374
	23.590000	-0.119014
	23.595000	-0.099673
	23.600000	-0.183481
	23.605000	-0.199597
	23.610000	-0.119014
	23.615000	-0.102897
	23.620000	-0.186704
	23.625000	-0.199597
	23.630000	-0.119014
	23.635000	-0.106120
	23.640000	-0.186704
	23.645000	-0.199597
	23.650000	-0.115790
	23.655000	-0.102897
	23.660000	-0.189927
	23.665000	-0.199597
	23.670000	-0.122237
	23.675000	-0.106120
	23.680000	-0.189927
	23.685000	-0.199597
	23.690000	-0.122237
	23.695000	-0.109343
	23.700000	-0.189927
	23.705000	-0.196374
	23.710000	-0.119014
	23.715000	-0.106120
	23.720000	-0.183481
	23.725000	-0.196374
	23.730000	-0.119014
	23.735000	-0.109343
	23.740000	-0.186704
	23.745000	-0.199597
	23.750000	-0.125460
	23.755000	-0.099673
	23.760000	-0.183481
	23.765000	-0.202821
	23.770000	-0.125460
	23.775000	-0.106120
	23.780000	-0.183481
	23.785000	-0.202821
	23.790000	-0.122237
	23.795000	-0.112567
	23.800000	-0.186704
	23.805000	-0.202821
	23.810000	-0.119014
	23.815000	-0.112567
	23.820000	-0.189927
	23.825000	-0.196374
	23.830000	-0.125460
	23.835000	-0.102897
	23.840000	-0.186704
	23.845000	-0.202821
	23.850000	-0.125460
	23.855000	-0.106120
	23.860000	-0.186704
	23.865000	-0.206044
	23.870000	-0.122237
	23.875000	-0.106120
	23.880000	-0.189927
	23.885000	-0.206044
	23.890000	-0.122237
	23.895000	-0.112567
	23.900000	-0.193151
	23.905000	-0.202821
	23.910000	-0.128684
	23.915000	-0.109343
	23.920000	-0.186704
	23.925000	-0.202821
	23.930000	-0.125460
	23.935000	-0.102897
	23.940000	-0.186704
	23.945000	-0.206044
	23.950000	-0.125460
	23.955000	-0.106120
	23.960000	-0.183481
	23.965000	-0.196374
	23.970000	-0.122237
	23.975000	-0.109343
	23.980000	-0.180257
	23.985000	-0.202821
	23.990000	-0.128684
	23.995000	-0.102897
	24.000000	-0.183481
	24.005000	-0.202821
	24.010000	-0.119014
	24.015000	-0.099673
	24.020000	-0.180257
	24.025000	-0.186704
	24.030000	-0.115790
	24.035000	-0.099673
	24.040000	-0.173811
	24.045000	-0.193151
	24.050000	-0.115790
	24.055000	-0.090003
	24.060000	-0.177034
	24.065000	-0.186704
	24.070000	-0.112567
	24.075000	-0.090003
	24.080000	-0.170587
	24.085000	-0.189927
	24.090000	-0.112567
	24.095000	-0.090003
	24.100000	-0.167364
	24.105000	-0.183481
	24.110000	-0.109343
	24.115000	-0.090003
	24.120000	-0.167364
	24.125000	-0.183481
	24.130000	-0.096450
	24.135000	-0.086780
	24.140000	-0.160917
	24.145000	-0.183481
	24.150000	-0.109343
	24.155000	-0.083557
	24.160000	-0.148024
	24.165000	-0.170587
	24.170000	-0.096450
	24.175000	-0.070663
	24.180000	-0.144800
	24.185000	-0.151247
	24.190000	-0.080333
	24.195000	-0.048100
	24.200000	-0.119014
	24.205000	-0.128684
	24.210000	-0.048100
	24.215000	-0.019089
	24.220000	-0.096450
	24.225000	-0.109343
	24.230000	-0.031983
	24.235000	-0.002973
	24.240000	-0.067440
	24.245000	-0.086780
	24.250000	-0.009419
	24.255000	0.022814
	24.260000	-0.048100
	24.265000	-0.057770
	24.270000	0.013144
	24.275000	0.038931
	24.280000	-0.035206
	24.285000	-0.048100
	24.290000	0.026038
	24.295000	0.045378
	24.300000	-0.028759
	24.305000	-0.044876
	24.310000	0.029261
	24.315000	0.051825
	24.320000	-0.022313
	24.325000	-0.041653
	24.330000	0.029261
	24.335000	0.051825
	24.340000	-0.025536
	24.345000	-0.044876
	24.350000	0.026038
	24.355000	0.045378
	24.360000	-0.025536
	24.365000	-0.048100
	24.370000	0.019591
	24.375000	0.035708
	24.380000	-0.038430
	24.385000	-0.064216
	24.390000	0.006697
	24.395000	0.032484
	24.400000	-0.051323
	24.405000	-0.073886
	24.410000	-0.002973
	24.415000	0.019591
	24.420000	-0.054546
	24.425000	-0.080333
	24.430000	-0.019089
	24.435000	0.006697
	24.440000	-0.080333
	24.445000	-0.102897
	24.450000	-0.035206
	24.455000	-0.022313
	24.460000	-0.106120
	24.465000	-0.128684
	24.470000	-0.070663
	24.475000	-0.051323
	24.480000	-0.128684
	24.485000	-0.164141
	24.490000	-0.090003
	24.495000	-0.067440
	24.500000	-0.154470
	24.505000	-0.189927
	24.510000	-0.115790
	24.515000	-0.090003
	24.520000	-0.173811
	24.525000	-0.193151
	24.530000	-0.131907
	24.535000	-0.106120
	24.540000	-0.180257
	24.545000	-0.215714
	24.550000	-0.138354
	24.555000	-0.109343
	24.560000	-0.189927
	24.565000	-0.212491
	24.570000	-0.138354
	24.575000	-0.119014
	24.580000	-0.186704
	24.585000	-0.215714
	24.590000	-0.144800
	24.595000	-0.115790
	24.600000	-0.189927
	24.605000	-0.215714
	24.610000	-0.144800
	24.615000	-0.119014
	24.620000	-0.193151
	24.625000	-0.215714
	24.630000	-0.135130
	24.635000	-0.122237
	24.640000	-0.189927
	24.645000	-0.212491
	24.650000	-0.138354
	24.655000	-0.112567
	24.660000	-0.186704
	24.665000	-0.202821
	24.670000	-0.131907
	24.675000	-0.102897
	24.680000	-0.173811
	24.685000	-0.199597
	24.690000	-0.125460
	24.695000	-0.099673
	24.700000	-0.170587
	24.705000	-0.193151
	24.710000	-0.119014
	24.715000	-0.086780
	24.720000	-0.157694
	24.725000	-0.186704
	24.730000	-0.112567
	24.735000	-0.090003
	24.740000	-0.151247
	24.745000	-0.186704
	24.750000	-0.106120
	24.755000	-0.080333
	24.760000	-0.151247
	24.765000	-0.183481
	24.770000	-0.106120
	24.775000	-0.080333
	24.780000	-0.154470
	24.785000	-0.177034
	24.790000	-0.102897
	24.795000	-0.073886
	24.800000	-0.148024
	24.805000	-0.177034
	24.810000	-0.102897
	24.815000	-0.070663
	24.820000	-0.148024
	24.825000	-0.183481
	24.830000	-0.106120
	24.835000	-0.077110
	24.840000	-0.148024
	24.845000	-0.180257
	24.850000	-0.115790
	24.855000	-0.083557
	24.860000	-0.154470
	24.865000	-0.183481
	24.870000	-0.119014
	24.875000	-0.096450
	24.880000	-0.160917
	24.885000	-0.199597
	24.890000	-0.131907
	24.895000	-0.102897
	24.900000	-0.177034
	24.905000	-0.212491
	24.910000	-0.138354
	24.915000	-0.106120
	24.920000	-0.186704
	24.925000	-0.218938
	24.930000	-0.151247
	24.935000	-0.115790
	24.940000	-0.189927
	24.945000	-0.218938
	24.950000	-0.154470
	24.955000	-0.128684
	24.960000	-0.199597
	24.965000	-0.231831
	24.970000	-0.160917
	24.975000	-0.122237
	24.980000	-0.212491
	24.985000	-0.231831
	24.990000	-0.164141
	24.995000	-0.135130
	25.000000	-0.209268
	25.005000	-0.244725
	25.010000	-0.167364
	25.015000	-0.135130
	25.020000	-0.212491
	25.025000	-0.244725
	25.030000	-0.170587
	25.035000	-0.141577
	25.040000	-0.215714
	25.045000	-0.241501
	25.050000	-0.170587
	25.055000	-0.141577
	25.060000	-0.215714
	25.065000	-0.244725
	25.070000	-0.173811
	25.075000	-0.138354
	25.080000	-0.215714
	25.085000	-0.244725
	25.090000	-0.170587
	25.095000	-0.148024
	25.100000	-0.212491
	25.105000	-0.244725
	25.110000	-0.180257
	25.115000	-0.148024
	25.120000	-0.218938
	25.125000	-0.251171
	25.130000	-0.177034
	25.135000	-0.151247
	25.140000	-0.222161
	25.145000	-0.254395
	25.150000	-0.177034
	25.155000	-0.144800
	25.160000	-0.218938
	25.165000	-0.254395
	25.170000	-0.177034
	25.175000	-0.144800
	25.180000	-0.222161
	25.185000	-0.254395
	25.190000	-0.177034
	25.195000	-0.144800
	25.200000	-0.209268
	25.205000	-0.244725
	25.210000	-0.177034
	25.215000	-0.141577
	25.220000	-0.215714
	25.225000	-0.247948
	25.230000	-0.177034
	25.235000	-0.138354
	25.240000	-0.206044
	25.245000	-0.241501
	25.250000	-0.170587
	25.255000	-0.131907
	25.260000	-0.206044
	25.265000	-0.241501
	25.270000	-0.164141
	25.275000	-0.141577
	25.280000	-0.209268
	25.285000	-0.241501
	25.290000	-0.173811
	25.295000	-0.138354
	25.300000	-0.206044
	25.305000	-0.241501
	25.310000	-0.177034
	25.315000	-0.144800
	25.320000	-0.209268
	25.325000	-0.244725
	25.330000	-0.173811
	25.335000	-0.138354
	25.340000	-0.209268
	25.345000	-0.247948
	25.350000	-0.170587
	25.355000	-0.135130
	25.360000	-0.209268
	25.365000	-0.244725
	25.370000	-0.170587
	25.375000	-0.131907
	25.380000	-0.202821
	25.385000	-0.241501
	25.390000	-0.173811
	25.395000	-0.141577
	25.400000	-0.202821
	25.405000	-0.244725
	25.410000	-0.177034
	25.415000	-0.141577
	25.420000	-0.206044
	25.425000	-0.244725
	25.430000	-0.177034
	25.435000	-0.138354
	25.440000	-0.202821
	25.445000	-0.241501
	25.450000	-0.177034
	25.455000	-0.135130
	25.460000	-0.206044
	25.465000	-0.241501
	25.470000	-0.170587
	25.475000	-0.141577
	25.480000	-0.209268
	25.485000	-0.244725
	25.490000	-0.177034
	25.495000	-0.138354
	25.500000	-0.206044
	25.505000	-0.247948
	25.510000	-0.180257
	25.515000	-0.141577
	25.520000	-0.209268
	25.525000	-0.244725
	25.530000	-0.177034
	25.535000	-0.138354
	25.540000	-0.212491
	25.545000	-0.247948
	25.550000	-0.183481
	25.555000	-0.144800
	25.560000	-0.218938
	25.565000	-0.244725
	25.570000	-0.183481
	25.575000	-0.138354
	25.580000	-0.206044
	25.585000	-0.251171
	25.590000	-0.183481
	25.595000	-0.144800
	25.600000	-0.209268
	25.605000	-0.247948
	25.610000	-0.180257
	25.615000	-0.144800
	25.620000	-0.218938
	25.625000	-0.254395
	25.630000	-0.183481
	25.635000	-0.148024
	25.640000	-0.215714
	25.645000	-0.260841
	25.650000	-0.186704
	25.655000	-0.148024
	25.660000	-0.218938
	25.665000	-0.257618
	25.670000	-0.189927
	25.675000	-0.151247
	25.680000	-0.218938
	25.685000	-0.260841
	25.690000	-0.193151
	25.695000	-0.151247
	25.700000	-0.218938
	25.705000	-0.264065
	25.710000	-0.193151
	25.715000	-0.148024
	25.720000	-0.222161
	25.725000	-0.264065
	25.730000	-0.196374
	25.735000	-0.154470
	25.740000	-0.222161
	25.745000	-0.260841
	25.750000	-0.199597
	25.755000	-0.157694
	25.760000	-0.225384
	25.765000	-0.267288
	25.770000	-0.199597
	25.775000	-0.157694
	25.780000	-0.228608
	25.785000	-0.267288
	25.790000	-0.209268
	25.795000	-0.157694
	25.800000	-0.228608
	25.805000	-0.273735
	25.810000	-0.199597
	25.815000	-0.160917
	25.820000	-0.231831
	25.825000	-0.270511
	25.830000	-0.212491
	25.835000	-0.160917
	25.840000	-0.235054
	25.845000	-0.270511
	25.850000	-0.206044
	25.855000	-0.160917
	25.860000	-0.231831
	25.865000	-0.280181
	25.870000	-0.206044
	25.875000	-0.164141
	25.880000	-0.235054
	25.885000	-0.273735
	25.890000	-0.212491
	25.895000	-0.164141
	25.900000	-0.231831
	25.905000	-0.273735
	25.910000	-0.209268
	25.915000	-0.170587
	25.920000	-0.235054
	25.925000	-0.280181
	25.930000	-0.212491
	25.935000	-0.164141
	25.940000	-0.238278
	25.945000	-0.276958
	25.950000	-0.212491
	25.955000	-0.170587
	25.960000	-0.241501
	25.965000	-0.276958
	25.970000	-0.215714
	25.975000	-0.167364
	25.980000	-0.238278
	25.985000	-0.286628
	25.990000	-0.225384
	25.995000	-0.177034
	26.000000	-0.238278
	26.005000	-0.289852
	26.010000	-0.231831
	26.015000	-0.177034
	26.020000	-0.241501
	26.025000	-0.280181
	26.030000	-0.225384
	26.035000	-0.177034
	26.040000	-0.244725
	26.045000	-0.296298
	26.050000	-0.222161
	26.055000	-0.180257
	26.060000	-0.251171
	26.065000	-0.293075
	26.070000	-0.235054
	26.075000	-0.180257
	26.080000	-0.247948
	26.085000	-0.299522
	26.090000	-0.231831
	26.095000	-0.186704
	26.100000	-0.257618
	26.105000	-0.299522
	26.110000	-0.235054
	26.115000	-0.189927
	26.120000	-0.254395
	26.125000	-0.299522
	26.130000	-0.235054
	26.135000	-0.183481
	26.140000	-0.254395
	26.145000	-0.296298
	26.150000	-0.235054
	26.155000	-0.189927
	26.160000	-0.257618
	26.165000	-0.299522
	26.170000	-0.235054
	26.175000	-0.196374
	26.180000	-0.260841
	26.185000	-0.309192
	26.190000	-0.241501
	26.195000	-0.196374
	26.200000	-0.267288
	26.205000	-0.312415
	26.210000	-0.238278
	26.215000	-0.199597
	26.220000	-0.264065
	26.225000	-0.309192
	26.230000	-0.251171
	26.235000	-0.199597
	26.240000	-0.270511
	26.245000	-0.312415
	26.250000	-0.251171
	26.255000	-0.202821
	26.260000	-0.273735
	26.265000	-0.318862
	26.270000	-0.251171
	26.275000	-0.206044
	26.280000	-0.273735
	26.285000	-0.312415
	26.290000	-0.260841
	26.295000	-0.215714
	26.300000	-0.273735
	26.305000	-0.322085
	26.310000	-0.254395
	26.315000	-0.212491
	26.320000	-0.276958
	26.325000	-0.318862
	26.330000	-0.260841
	26.335000	-0.218938
	26.340000	-0.283405
	26.345000	-0.331755
	26.350000	-0.264065
	26.355000	-0.212491
	26.360000	-0.280181
	26.365000	-0.328532
	26.370000	-0.264065
	26.375000	-0.212491
	26.380000	-0.280181
	26.385000	-0.318862
	26.390000	-0.260841
	26.395000	-0.218938
	26.400000	-0.276958
	26.405000	-0.325308
	26.410000	-0.267288
	26.415000	-0.212491
	26.420000	-0.283405
	26.425000	-0.328532
	26.430000	-0.267288
	26.435000	-0.212491
	26.440000	-0.280181
	26.445000	-0.322085
	26.450000	-0.260841
	26.455000	-0.212491
	26.460000	-0.280181
	26.465000	-0.328532
	26.470000	-0.270511
	26.475000	-0.215714
	26.480000	-0.273735
	26.485000	-0.328532
	26.490000	-0.264065
	26.495000	-0.218938
	26.500000	-0.270511
	26.505000	-0.322085
	26.510000	-0.260841
	26.515000	-0.212491
	26.520000	-0.276958
	26.525000	-0.322085
	26.530000	-0.257618
	26.535000	-0.215714
	26.540000	-0.267288
	26.545000	-0.315638
	26.550000	-0.247948
	26.555000	-0.199597
	26.560000	-0.244725
	26.565000	-0.296298
	26.570000	-0.225384
	26.575000	-0.180257
	26.580000	-0.231831
	26.585000	-0.267288
	26.590000	-0.202821
	26.595000	-0.148024
	26.600000	-0.199597
	26.605000	-0.241501
	26.610000	-0.177034
	26.615000	-0.119014
	26.620000	-0.173811
	26.625000	-0.218938
	26.630000	-0.154470
	26.635000	-0.096450
	26.640000	-0.154470
	26.645000	-0.199597
	26.650000	-0.135130
	26.655000	-0.083557
	26.660000	-0.135130
	26.665000	-0.193151
	26.670000	-0.125460
	26.675000	-0.073886
	26.680000	-0.128684
	26.685000	-0.186704
	26.690000	-0.122237
	26.695000	-0.070663
	26.700000	-0.125460
	26.705000	-0.170587
	26.710000	-0.115790
	26.715000	-0.073886
	26.720000	-0.125460
	26.725000	-0.173811
	26.730000	-0.122237
	26.735000	-0.070663
	26.740000	-0.131907
	26.745000	-0.183481
	26.750000	-0.119014
	26.755000	-0.080333
	26.760000	-0.131907
	26.765000	-0.183481
	26.770000	-0.128684
	26.775000	-0.080333
	26.780000	-0.141577
	26.785000	-0.193151
	26.790000	-0.138354
	26.795000	-0.080333
	26.800000	-0.144800
	26.805000	-0.202821
	26.810000	-0.141577
	26.815000	-0.096450
	26.820000	-0.148024
	26.825000	-0.209268
	26.830000	-0.151247
	26.835000	-0.102897
	26.840000	-0.164141
	26.845000	-0.225384
	26.850000	-0.170587
	26.855000	-0.122237
	26.860000	-0.186704
	26.865000	-0.235054
	26.870000	-0.186704
	26.875000	-0.141577
	26.880000	-0.206044
	26.885000	-0.264065
	26.890000	-0.212491
	26.895000	-0.167364
	26.900000	-0.222161
	26.905000	-0.270511
	26.910000	-0.225384
	26.915000	-0.183481
	26.920000	-0.241501
	26.925000	-0.296298
	26.930000	-0.244725
	26.935000	-0.196374
	26.940000	-0.260841
	26.945000	-0.318862
	26.950000	-0.270511
	26.955000	-0.222161
	26.960000	-0.280181
	26.965000	-0.334979
	26.970000	-0.280181
	26.975000	-0.238278
	26.980000	-0.296298
	26.985000	-0.351095
	26.990000	-0.296298
	26.995000	-0.251171
	27.000000	-0.302745
	27.005000	-0.360765
	27.010000	-0.302745
	27.015000	-0.251171
	27.020000	-0.312415
	27.025000	-0.363989
	27.030000	-0.309192
	27.035000	-0.264065
	27.040000	-0.305968
	27.045000	-0.367212
	27.050000	-0.312415
	27.055000	-0.267288
	27.060000	-0.318862
	27.065000	-0.373659
	27.070000	-0.318862
	27.075000	-0.260841
	27.080000	-0.322085
	27.085000	-0.380106
	27.090000	-0.322085
	27.095000	-0.273735
	27.100000	-0.325308
	27.105000	-0.376882
	27.110000	-0.328532
	27.115000	-0.270511
	27.120000	-0.325308
	27.125000	-0.383329
	27.130000	-0.328532
	27.135000	-0.273735
	27.140000	-0.328532
	27.145000	-0.380106
	27.150000	-0.331755
	27.155000	-0.273735
	27.160000	-0.331755
	27.165000	-0.383329
	27.170000	-0.325308
	27.175000	-0.276958
	27.180000	-0.334979
	27.185000	-0.389776
	27.190000	-0.331755
	27.195000	-0.280181
	27.200000	-0.334979
	27.205000	-0.386552
	27.210000	-0.338202
	27.215000	-0.286628
	27.220000	-0.341425
	27.225000	-0.396222
	27.230000	-0.338202
	27.235000	-0.280181
	27.240000	-0.338202
	27.245000	-0.392999
	27.250000	-0.341425
	27.255000	-0.289852
	27.260000	-0.344649
	27.265000	-0.392999
	27.270000	-0.334979
	27.275000	-0.293075
	27.280000	-0.341425
	27.285000	-0.392999
	27.290000	-0.341425
	27.295000	-0.289852
	27.300000	-0.341425
	27.305000	-0.399446
	27.310000	-0.344649
	27.315000	-0.283405
	27.320000	-0.344649
	27.325000	-0.399446
	27.330000	-0.341425
	27.335000	-0.286628
	27.340000	-0.341425
	27.345000	-0.399446
	27.350000	-0.344649
	27.355000	-0.286628
	27.360000	-0.344649
	27.365000	-0.399446
	27.370000	-0.341425
	27.375000	-0.289852
	27.380000	-0.347872
	27.385000	-0.402669
	27.390000	-0.347872
	27.395000	-0.296298
	27.400000	-0.347872
	27.405000	-0.399446
	27.410000	-0.347872
	27.415000	-0.296298
	27.420000	-0.347872
	27.425000	-0.405892
	27.430000	-0.357542
	27.435000	-0.296298
	27.440000	-0.351095
	27.445000	-0.405892
	27.450000	-0.351095
	27.455000	-0.296298
	27.460000	-0.354319
	27.465000	-0.412339
	27.470000	-0.357542
	27.475000	-0.296298
	27.480000	-0.347872
	27.485000	-0.405892
	27.490000	-0.347872
	27.495000	-0.293075
	27.500000	-0.351095
	27.505000	-0.402669
	27.510000	-0.357542
	27.515000	-0.296298
	27.520000	-0.354319
	27.525000	-0.412339
	27.530000	-0.354319
	27.535000	-0.296298
	27.540000	-0.344649
	27.545000	-0.402669
	27.550000	-0.354319
	27.555000	-0.296298
	27.560000	-0.351095
	27.565000	-0.402669
	27.570000	-0.351095
	27.575000	-0.296298
	27.580000	-0.344649
	27.585000	-0.412339
	27.590000	-0.351095
	27.595000	-0.293075
	27.600000	-0.347872
	27.605000	-0.402669
	27.610000	-0.354319
	27.615000	-0.305968
	27.620000	-0.341425
	27.625000	-0.405892
	27.630000	-0.351095
	27.635000	-0.293075
	27.640000	-0.347872
	27.645000	-0.409116
	27.650000	-0.354319
	27.655000	-0.293075
	27.660000	-0.354319
	27.665000	-0.412339
	27.670000	-0.357542
	27.675000	-0.299522
	27.680000	-0.347872
	27.685000	-0.402669
	27.690000	-0.347872
	27.695000	-0.296298
	27.700000	-0.354319
	27.705000	-0.412339
	27.710000	-0.360765
	27.715000	-0.296298
	27.720000	-0.347872
	27.725000	-0.405892
	27.730000	-0.354319
	27.735000	-0.299522
	27.740000	-0.354319
	27.745000	-0.415563
	27.750000	-0.363989
	27.755000	-0.299522
	27.760000	-0.351095
	27.765000	-0.412339
	27.770000	-0.360765
	27.775000	-0.309192
	27.780000	-0.351095
	27.785000	-0.409116
	27.790000	-0.360765
	27.795000	-0.305968
	27.800000	-0.354319
	27.805000	-0.409116
	27.810000	-0.370436
	27.815000	-0.299522
	27.820000	-0.351095
	27.825000	-0.418786
	27.830000	-0.367212
	27.835000	-0.309192
	27.840000	-0.354319
	27.845000	-0.412339
	27.850000	-0.367212
	27.855000	-0.302745
	27.860000	-0.354319
	27.865000	-0.415563
	27.870000	-0.363989
	27.875000	-0.305968
	27.880000	-0.357542
	27.885000	-0.412339
	27.890000	-0.363989
	27.895000	-0.302745
	27.900000	-0.354319
	27.905000	-0.415563
	27.910000	-0.363989
	27.915000	-0.305968
	27.920000	-0.351095
	27.925000	-0.412339
	27.930000	-0.363989
	27.935000	-0.305968
	27.940000	-0.354319
	27.945000	-0.415563
	27.950000	-0.363989
	27.955000	-0.305968
	27.960000	-0.354319
	27.965000	-0.418786
	27.970000	-0.367212
	27.975000	-0.302745
	27.980000	-0.351095
	27.985000	-0.415563
	27.990000	-0.360765
	27.995000	-0.302745
	28.000000	-0.354319
	28.005000	-0.415563
	28.010000	-0.373659
	28.015000	-0.305968
	28.020000	-0.360765
	28.025000	-0.412339
	28.030000	-0.363989
	28.035000	-0.309192
	28.040000	-0.354319
	28.045000	-0.418786
	28.050000	-0.363989
	28.055000	-0.305968
	28.060000	-0.347872
	28.065000	-0.422009
	28.070000	-0.367212
	28.075000	-0.309192
	28.080000	-0.357542
	28.085000	-0.415563
	28.090000	-0.370436
	28.095000	-0.305968
	28.100000	-0.357542
	28.105000	-0.422009
	28.110000	-0.370436
	28.115000	-0.302745
	28.120000	-0.354319
	28.125000	-0.418786
	28.130000	-0.370436
	28.135000	-0.309192
	28.140000	-0.360765
	28.145000	-0.418786
	28.150000	-0.373659
	28.155000	-0.309192
	28.160000	-0.360765
	28.165000	-0.422009
	28.170000	-0.380106
	28.175000	-0.312415
	28.180000	-0.357542
	28.185000	-0.425233
	28.190000	-0.370436
	28.195000	-0.312415
	28.200000	-0.360765
	28.205000	-0.425233
	28.210000	-0.373659
	28.215000	-0.312415
	28.220000	-0.360765
	28.225000	-0.425233
	28.230000	-0.370436
	28.235000	-0.315638
	28.240000	-0.357542
	28.245000	-0.425233
	28.250000	-0.376882
	28.255000	-0.309192
	28.260000	-0.363989
	28.265000	-0.425233
	28.270000	-0.373659
	28.275000	-0.322085
	28.280000	-0.357542
	28.285000	-0.422009
	28.290000	-0.373659
	28.295000	-0.315638
	28.300000	-0.357542
	28.305000	-0.422009
	28.310000	-0.373659
	28.315000	-0.309192
	28.320000	-0.360765
	28.325000	-0.422009
	28.330000	-0.376882
	28.335000	-0.315638
	28.340000	-0.363989
	28.345000	-0.418786
	28.350000	-0.373659
	28.355000	-0.312415
	28.360000	-0.351095
	28.365000	-0.428456
	28.370000	-0.376882
	28.375000	-0.309192
	28.380000	-0.360765
	28.385000	-0.422009
	28.390000	-0.380106
	28.395000	-0.315638
	28.400000	-0.360765
	28.405000	-0.425233
	28.410000	-0.380106
	28.415000	-0.312415
	28.420000	-0.357542
	28.425000	-0.428456
	28.430000	-0.376882
	28.435000	-0.312415
	28.440000	-0.360765
	28.445000	-0.431679
	28.450000	-0.383329
	28.455000	-0.322085
	28.460000	-0.360765
	28.465000	-0.425233
	28.470000	-0.383329
	28.475000	-0.322085
	28.480000	-0.360765
	28.485000	-0.428456
	28.490000	-0.376882
	28.495000	-0.318862
	28.500000	-0.363989
	28.505000	-0.428456
	28.510000	-0.380106
	28.515000	-0.318862
	28.520000	-0.363989
	28.525000	-0.428456
	28.530000	-0.383329
	28.535000	-0.322085
	28.540000	-0.360765
	28.545000	-0.431679
	28.550000	-0.376882
	28.555000	-0.318862
	28.560000	-0.363989
	28.565000	-0.425233
	28.570000	-0.380106
	28.575000	-0.318862
	28.580000	-0.360765
	28.585000	-0.428456
	28.590000	-0.380106
	28.595000	-0.309192
	28.600000	-0.357542
	28.605000	-0.418786
	28.610000	-0.376882
	28.615000	-0.309192
	28.620000	-0.347872
	28.625000	-0.415563
	28.630000	-0.363989
	28.635000	-0.299522
	28.640000	-0.341425
	28.645000	-0.402669
	28.650000	-0.344649
	28.655000	-0.280181
	28.660000	-0.315638
	28.665000	-0.380106
	28.670000	-0.328532
	28.675000	-0.267288
	28.680000	-0.302745
	28.685000	-0.360765
	28.690000	-0.312415
	28.695000	-0.244725
	28.700000	-0.280181
	28.705000	-0.338202
	28.710000	-0.286628
	28.715000	-0.215714
	28.720000	-0.260841
	28.725000	-0.309192
	28.730000	-0.267288
	28.735000	-0.193151
	28.740000	-0.228608
	28.745000	-0.286628
	28.750000	-0.244725
	28.755000	-0.170587
	28.760000	-0.212491
	28.765000	-0.276958
	28.770000	-0.228608
	28.775000	-0.160917
	28.780000	-0.202821
	28.785000	-0.267288
	28.790000	-0.225384
	28.795000	-0.151247
	28.800000	-0.199597
	28.805000	-0.257618
	28.810000	-0.215714
	28.815000	-0.151247
	28.820000	-0.193151
	28.825000	-0.254395
	28.830000	-0.215714
	28.835000	-0.154470
	28.840000	-0.193151
	28.845000	-0.257618
	28.850000	-0.215714
	28.855000	-0.154470
	28.860000	-0.196374
	28.865000	-0.264065
	28.870000	-0.228608
	28.875000	-0.157694
	28.880000	-0.199597
	28.885000	-0.273735
	28.890000	-0.231831
	28.895000	-0.167364
	28.900000	-0.215714
	28.905000	-0.276958
	28.910000	-0.241501
	28.915000	-0.180257
	28.920000	-0.215714
	28.925000	-0.286628
	28.930000	-0.254395
	28.935000	-0.193151
	28.940000	-0.231831
	28.945000	-0.302745
	28.950000	-0.264065
	28.955000	-0.209268
	28.960000	-0.247948
	28.965000	-0.315638
	28.970000	-0.286628
	28.975000	-0.222161
	28.980000	-0.267288
	28.985000	-0.344649
	28.990000	-0.305968
	28.995000	-0.244725
	29.000000	-0.286628
	29.005000	-0.360765
	29.010000	-0.328532
	29.015000	-0.270511
	29.020000	-0.305968
	29.025000	-0.386552
	29.030000	-0.354319
	29.035000	-0.289852
	29.040000	-0.331755
	29.045000	-0.405892
	29.050000	-0.367212
	29.055000	-0.309192
	29.060000	-0.354319
	29.065000	-0.418786
	29.070000	-0.380106
	29.075000	-0.318862
	29.080000	-0.363989
	29.085000	-0.428456
	29.090000	-0.389776
	29.095000	-0.322085
	29.100000	-0.360765
	29.105000	-0.431679
	29.110000	-0.396222
	29.115000	-0.325308
	29.120000	-0.363989
	29.125000	-0.428456
	29.130000	-0.396222
	29.135000	-0.331755
	29.140000	-0.370436
	29.145000	-0.431679
	29.150000	-0.399446
	29.155000	-0.325308
	29.160000	-0.363989
	29.165000	-0.431679
	29.170000	-0.399446
	29.175000	-0.328532
	29.180000	-0.367212
	29.185000	-0.434903
	29.190000	-0.399446
	29.195000	-0.328532
	29.200000	-0.367212
	29.205000	-0.441349
	29.210000	-0.402669
	29.215000	-0.341425
	29.220000	-0.370436
	29.225000	-0.441349
	29.230000	-0.409116
	29.235000	-0.344649
	29.240000	-0.380106
	29.245000	-0.447796
	29.250000	-0.405892
	29.255000	-0.347872
	29.260000	-0.380106
	29.265000	-0.457466
	29.270000	-0.422009
	29.275000	-0.354319
	29.280000	-0.392999
	29.285000	-0.460690
	29.290000	-0.425233
	29.295000	-0.360765
	29.300000	-0.399446
	29.305000	-0.467136
	29.310000	-0.428456
	29.315000	-0.357542
	29.320000	-0.396222
	29.325000	-0.463913
	29.330000	-0.431679
	29.335000	-0.363989
	29.340000	-0.402669
	29.345000	-0.470360
	29.350000	-0.438126
	29.355000	-0.370436
	29.360000	-0.405892
	29.365000	-0.470360
	29.370000	-0.434903
	29.375000	-0.363989
	29.380000	-0.405892
	29.385000	-0.473583
	29.390000	-0.431679
	29.395000	-0.367212
	29.400000	-0.409116
	29.405000	-0.473583
	29.410000	-0.434903
	29.415000	-0.370436
	29.420000	-0.405892
	29.425000	-0.473583
	29.430000	-0.438126
	29.435000	-0.367212
	29.440000	-0.402669
	29.445000	-0.473583
	29.450000	-0.438126
	29.455000	-0.370436
	29.460000	-0.402669
	29.465000	-0.470360
	29.470000	-0.434903
	29.475000	-0.370436
	29.480000	-0.402669
	29.485000	-0.470360
	29.490000	-0.444573
	29.495000	-0.370436
	29.500000	-0.405892
	29.505000	-0.470360
	29.510000	-0.438126
	29.515000	-0.370436
	29.520000	-0.402669
	29.525000	-0.470360
	29.530000	-0.438126
	29.535000	-0.370436
	29.540000	-0.405892
	29.545000	-0.473583
	29.550000	-0.438126
	29.555000	-0.363989
	29.560000	-0.402669
	29.565000	-0.470360
	29.570000	-0.441349
	29.575000	-0.373659
	29.580000	-0.409116
	29.585000	-0.480030
	29.590000	-0.447796
	29.595000	-0.373659
	29.600000	-0.399446
	29.605000	-0.480030
	29.610000	-0.447796
	29.615000	-0.376882
	29.620000	-0.402669
	29.625000	-0.476806
	29.630000	-0.441349
	29.635000	-0.373659
	29.640000	-0.405892
	29.645000	-0.480030
	29.650000	-0.447796
	29.655000	-0.373659
	29.660000	-0.412339
	29.665000	-0.480030
	29.670000	-0.447796
	29.675000	-0.380106
	29.680000	-0.412339
	29.685000	-0.480030
	29.690000	-0.447796
	29.695000	-0.383329
	29.700000	-0.415563
	29.705000	-0.483253
	29.710000	-0.451019
	29.715000	-0.380106
	29.720000	-0.415563
	29.725000	-0.492923
	29.730000	-0.457466
	29.735000	-0.383329
	29.740000	-0.412339
	29.745000	-0.489700
	29.750000	-0.454243
	29.755000	-0.386552
	29.760000	-0.412339
	29.765000	-0.486476
	29.770000	-0.451019
	29.775000	-0.383329
	29.780000	-0.415563
	29.785000	-0.486476
	29.790000	-0.460690
	29.795000	-0.383329
	29.800000	-0.418786
	29.805000	-0.492923
	29.810000	-0.457466
	29.815000	-0.376882
	29.820000	-0.422009
	29.825000	-0.492923
	29.830000	-0.463913
	29.835000	-0.383329
	29.840000	-0.422009
	29.845000	-0.496147
	29.850000	-0.457466
	29.855000	-0.389776
	29.860000	-0.422009
	29.865000	-0.489700
	29.870000	-0.457466
	29.875000	-0.386552
	29.880000	-0.422009
	29.885000	-0.496147
	29.890000	-0.463913
	29.895000	-0.386552
	29.900000	-0.415563
	29.905000	-0.492923
	29.910000	-0.463913
	29.915000	-0.386552
	29.920000	-0.422009
	29.925000	-0.492923
	29.930000	-0.467136
	29.935000	-0.386552
	29.940000	-0.422009
	29.945000	-0.489700
	29.950000	-0.457466
	29.955000	-0.396222
	29.960000	-0.422009
	29.965000	-0.492923
	29.970000	-0.463913
	29.975000	-0.389776
	29.980000	-0.422009
	29.985000	-0.496147
	29.990000	-0.470360
	29.995000	-0.389776
	30.000000	-0.428456
	30.005000	-0.496147
	30.010000	-0.467136
	30.015000	-0.392999
	30.020000	-0.418786
	30.025000	-0.496147
	30.030000	-0.463913
	30.035000	-0.386552
	30.040000	-0.415563
	30.045000	-0.499370
	30.050000	-0.460690
	30.055000	-0.389776
	30.060000	-0.422009
	30.065000	-0.496147
	30.070000	-0.470360
	30.075000	-0.386552
	30.080000	-0.418786
	30.085000	-0.499370
	30.090000	-0.467136
	30.095000	-0.389776
	30.100000	-0.418786
	30.105000	-0.496147
	30.110000	-0.467136
	30.115000	-0.392999
	30.120000	-0.425233
	30.125000	-0.492923
	30.130000	-0.467136
	30.135000	-0.392999
	30.140000	-0.418786
	30.145000	-0.499370
	30.150000	-0.470360
	30.155000	-0.392999
	30.160000	-0.422009
	30.165000	-0.502593
	30.170000	-0.467136
	30.175000	-0.396222
	30.180000	-0.425233
	30.185000	-0.499370
	30.190000	-0.463913
	30.195000	-0.396222
	30.200000	-0.422009
	30.205000	-0.496147
	30.210000	-0.470360
	30.215000	-0.392999
	30.220000	-0.425233
	30.225000	-0.499370
	30.230000	-0.470360
	30.235000	-0.396222
	30.240000	-0.422009
	30.245000	-0.499370
	30.250000	-0.470360
	30.255000	-0.399446
	30.260000	-0.428456
	30.265000	-0.505817
	30.270000	-0.470360
	30.275000	-0.396222
	30.280000	-0.422009
	30.285000	-0.499370
	30.290000	-0.480030
	30.295000	-0.402669
	30.300000	-0.425233
	30.305000	-0.502593
	30.310000	-0.470360
	30.315000	-0.399446
	30.320000	-0.425233
	30.325000	-0.496147
	30.330000	-0.473583
	30.335000	-0.396222
	30.340000	-0.425233
	30.345000	-0.499370
	30.350000	-0.467136
	30.355000	-0.399446
	30.360000	-0.428456
	30.365000	-0.492923
	30.370000	-0.470360
	30.375000	-0.399446
	30.380000	-0.425233
	30.385000	-0.499370
	30.390000	-0.473583
	30.395000	-0.396222
	30.400000	-0.425233
	30.405000	-0.492923
	30.410000	-0.470360
	30.415000	-0.392999
	30.420000	-0.425233
	30.425000	-0.499370
	30.430000	-0.473583
	30.435000	-0.402669
	30.440000	-0.425233
	30.445000	-0.499370
	30.450000	-0.473583
	30.455000	-0.405892
	30.460000	-0.428456
	30.465000	-0.502593
	30.470000	-0.480030
	30.475000	-0.396222
	30.480000	-0.425233
	30.485000	-0.499370
	30.490000	-0.476806
	30.495000	-0.399446
	30.500000	-0.422009
	30.505000	-0.496147
	30.510000	-0.476806
	30.515000	-0.402669
	30.520000	-0.425233
	30.525000	-0.499370
	30.530000	-0.476806
	30.535000	-0.399446
	30.540000	-0.422009
	30.545000	-0.499370
	30.550000	-0.473583
	30.555000	-0.405892
	30.560000	-0.422009
	30.565000	-0.505817
	30.570000	-0.470360
	30.575000	-0.402669
	30.580000	-0.422009
	30.585000	-0.502593
	30.590000	-0.483253
	30.595000	-0.402669
	30.600000	-0.428456
	30.605000	-0.505817
	30.610000	-0.473583
	30.615000	-0.399446
	30.620000	-0.425233
	30.625000	-0.499370
	30.630000	-0.470360
	30.635000	-0.399446
	30.640000	-0.425233
	30.645000	-0.499370
	30.650000	-0.476806
	30.655000	-0.399446
	30.660000	-0.425233
	30.665000	-0.502593
	30.670000	-0.483253
	30.675000	-0.399446
	30.680000	-0.422009
	30.685000	-0.509040
	30.690000	-0.480030
	30.695000	-0.402669
	30.700000	-0.434903
	30.705000	-0.505817
	30.710000	-0.476806
	30.715000	-0.405892
	30.720000	-0.425233
	30.725000	-0.502593
	30.730000	-0.480030
	30.735000	-0.402669
	30.740000	-0.425233
	30.745000	-0.502593
	30.750000	-0.483253
	30.755000	-0.399446
	30.760000	-0.428456
	30.765000	-0.512263
	30.770000	-0.476806
	30.775000	-0.409116
	30.780000	-0.425233
	30.785000	-0.505817
	30.790000	-0.476806
	30.795000	-0.409116
	30.800000	-0.431679
	30.805000	-0.509040
	30.810000	-0.483253
	30.815000	-0.405892
	30.820000	-0.431679
	30.825000	-0.502593
	30.830000	-0.483253
	30.835000	-0.405892
	30.840000	-0.425233
	30.845000	-0.496147
	30.850000	-0.483253
	30.855000	-0.399446
	30.860000	-0.418786
	30.865000	-0.492923
	30.870000	-0.470360
	30.875000	-0.383329
	30.880000	-0.399446
	30.885000	-0.467136
	30.890000	-0.444573
	30.895000	-0.373659
	30.900000	-0.376882
	30.905000	-0.451019
	30.910000	-0.425233
	30.915000	-0.344649
	30.920000	-0.354319
	30.925000	-0.428456
	30.930000	-0.399446
	30.935000	-0.325308
	30.940000	-0.325308
	30.945000	-0.405892
	30.950000	-0.376882
	30.955000	-0.296298
	30.960000	-0.302745
	30.965000	-0.386552
	30.970000	-0.357542
	30.975000	-0.273735
	30.980000	-0.293075
	30.985000	-0.360765
	30.990000	-0.338202
	30.995000	-0.264065
	31.000000	-0.276958
	31.005000	-0.347872
	31.010000	-0.325308
	31.015000	-0.241501
	31.020000	-0.260841
	31.025000	-0.331755
	31.030000	-0.312415
	31.035000	-0.241501
	31.040000	-0.257618
	31.045000	-0.331755
	31.050000	-0.309192
	31.055000	-0.238278
	31.060000	-0.247948
	31.065000	-0.325308
	31.070000	-0.309192
	31.075000	-0.231831
	31.080000	-0.251171
	31.085000	-0.328532
	31.090000	-0.312415
	31.095000	-0.231831
	31.100000	-0.257618
	31.105000	-0.325308
	31.110000	-0.315638
	31.115000	-0.244725
	31.120000	-0.254395
	31.125000	-0.338202
	31.130000	-0.328532
	31.135000	-0.251171
	31.140000	-0.276958
	31.145000	-0.357542
	31.150000	-0.341425
	31.155000	-0.267288
	31.160000	-0.289852
	31.165000	-0.367212
	31.170000	-0.363989
	31.175000	-0.293075
	31.180000	-0.322085
	31.185000	-0.392999
	31.190000	-0.383329
	31.195000	-0.312415
	31.200000	-0.338202
	31.205000	-0.415563
	31.210000	-0.399446
	31.215000	-0.338202
	31.220000	-0.351095
	31.225000	-0.438126
	31.230000	-0.418786
	31.235000	-0.351095
	31.240000	-0.367212
	31.245000	-0.451019
	31.250000	-0.447796
	31.255000	-0.380106
	31.260000	-0.389776
	31.265000	-0.480030
	31.270000	-0.467136
	31.275000	-0.392999
	31.280000	-0.412339
	31.285000	-0.492923
	31.290000	-0.480030
	31.295000	-0.405892
	31.300000	-0.422009
	31.305000	-0.502593
	31.310000	-0.489700
	31.315000	-0.415563
	31.320000	-0.428456
	31.325000	-0.505817
	31.330000	-0.489700
	31.335000	-0.415563
	31.340000	-0.431679
	31.345000	-0.509040
	31.350000	-0.496147
	31.355000	-0.422009
	31.360000	-0.431679
	31.365000	-0.509040
	31.370000	-0.492923
	31.375000	-0.428456
	31.380000	-0.434903
	31.385000	-0.512263
	31.390000	-0.499370
	31.395000	-0.422009
	31.400000	-0.444573
	31.405000	-0.515487
	31.410000	-0.505817
	31.415000	-0.431679
	31.420000	-0.441349
	31.425000	-0.521933
	31.430000	-0.512263
	31.435000	-0.438126
	31.440000	-0.447796
	31.445000	-0.521933
	31.450000	-0.509040
	31.455000	-0.438126
	31.460000	-0.451019
	31.465000	-0.528380
	31.470000	-0.515487
	31.475000	-0.441349
	31.480000	-0.454243
	31.485000	-0.531603
	31.490000	-0.518710
	31.495000	-0.441349
	31.500000	-0.460690
	31.505000	-0.541274
	31.510000	-0.521933
	31.515000	-0.444573
	31.520000	-0.463913
	31.525000	-0.538050
	31.530000	-0.521933
	31.535000	-0.447796
	31.540000	-0.467136
	31.545000	-0.544497
	31.550000	-0.525157
	31.555000	-0.451019
	31.560000	-0.463913
	31.565000	-0.547720
	31.570000	-0.538050
	31.575000	-0.457466
	31.580000	-0.476806
	31.585000	-0.550944
	31.590000	-0.534827
	31.595000	-0.463913
	31.600000	-0.476806
	31.605000	-0.554167
	31.610000	-0.538050
	31.615000	-0.460690
	31.620000	-0.473583
	31.625000	-0.554167
	31.630000	-0.538050
	31.635000	-0.460690
	31.640000	-0.476806
	31.645000	-0.554167
	31.650000	-0.547720
	31.655000	-0.463913
	31.660000	-0.480030
	31.665000	-0.547720
	31.670000	-0.538050
	31.675000	-0.460690
	31.680000	-0.483253
	31.685000	-0.557390
	31.690000	-0.547720
	31.695000	-0.463913
	31.700000	-0.480030
	31.705000	-0.563837
	31.710000	-0.544497
	31.715000	-0.467136
	31.720000	-0.483253
	31.725000	-0.567060
	31.730000	-0.547720
	31.735000	-0.470360
	31.740000	-0.480030
	31.745000	-0.560614
	31.750000	-0.547720
	31.755000	-0.473583
	31.760000	-0.480030
	31.765000	-0.567060
	31.770000	-0.547720
	31.775000	-0.476806
	31.780000	-0.480030
	31.785000	-0.567060
	31.790000	-0.550944
	31.795000	-0.476806
	31.800000	-0.486476
	31.805000	-0.563837
	31.810000	-0.554167
	31.815000	-0.476806
	31.820000	-0.489700
	31.825000	-0.563837
	31.830000	-0.554167
	31.835000	-0.476806
	31.840000	-0.483253
	31.845000	-0.570284
	31.850000	-0.550944
	31.855000	-0.476806
	31.860000	-0.489700
	31.865000	-0.567060
	31.870000	-0.554167
	31.875000	-0.483253
	31.880000	-0.492923
	31.885000	-0.563837
	31.890000	-0.557390
	31.895000	-0.476806
	31.900000	-0.492923
	31.905000	-0.567060
	31.910000	-0.557390
	31.915000	-0.476806
	31.920000	-0.486476
	31.925000	-0.570284
	31.930000	-0.560614
	31.935000	-0.483253
	31.940000	-0.492923
	31.945000	-0.567060
	31.950000	-0.560614
	31.955000	-0.473583
	31.960000	-0.489700
	31.965000	-0.570284
	31.970000	-0.554167
	31.975000	-0.480030
	31.980000	-0.489700
	31.985000	-0.563837
	31.990000	-0.563837
	31.995000	-0.486476
	32.000000	-0.486476
	32.005000	-0.570284
	32.010000	-0.560614
	32.015000	-0.483253
	32.020000	-0.492923
	32.025000	-0.576730
	32.030000	-0.567060
	32.035000	-0.480030
	32.040000	-0.486476
	32.045000	-0.573507
	32.050000	-0.567060
	32.055000	-0.483253
	32.060000	-0.492923
	32.065000	-0.570284
	32.070000	-0.567060
	32.075000	-0.489700
	32.080000	-0.489700
	32.085000	-0.576730
	32.090000	-0.560614
	32.095000	-0.483253
	32.100000	-0.496147
	32.105000	-0.567060
	32.110000	-0.567060
	32.115000	-0.483253
	32.120000	-0.496147
	32.125000	-0.570284
	32.130000	-0.563837
	32.135000	-0.480030
	32.140000	-0.492923
	32.145000	-0.570284
	32.150000	-0.563837
	32.155000	-0.476806
	32.160000	-0.489700
	32.165000	-0.573507
	32.170000	-0.560614
	32.175000	-0.486476
	32.180000	-0.492923
	32.185000	-0.570284
	32.190000	-0.560614
	32.195000	-0.486476
	32.200000	-0.492923
	32.205000	-0.570284
	32.210000	-0.563837
	32.215000	-0.489700
	32.220000	-0.489700
	32.225000	-0.573507
	32.230000	-0.563837
	32.235000	-0.489700
	32.240000	-0.489700
	32.245000	-0.573507
	32.250000	-0.567060
	32.255000	-0.489700
	32.260000	-0.496147
	32.265000	-0.573507
	32.270000	-0.567060
	32.275000	-0.492923
	32.280000	-0.492923
	32.285000	-0.573507
	32.290000	-0.573507
	32.295000	-0.492923
	32.300000	-0.492923
	32.305000	-0.573507
	32.310000	-0.563837
	32.315000	-0.486476
	32.320000	-0.496147
	32.325000	-0.570284
	32.330000	-0.573507
	32.335000	-0.496147
	32.340000	-0.499370
	32.345000	-0.579954
	32.350000	-0.570284
	32.355000	-0.496147
	32.360000	-0.499370
	32.365000	-0.570284
	32.370000	-0.573507
	32.375000	-0.486476
	32.380000	-0.496147
	32.385000	-0.576730
	32.390000	-0.567060
	32.395000	-0.492923
	32.400000	-0.492923
	32.405000	-0.579954
	32.410000	-0.579954
	32.415000	-0.496147
	32.420000	-0.499370
	32.425000	-0.583177
	32.430000	-0.573507
	32.435000	-0.492923
	32.440000	-0.499370
	32.445000	-0.573507
	32.450000	-0.573507
	32.455000	-0.492923
	32.460000	-0.496147
	32.465000	-0.583177
	32.470000	-0.570284
	32.475000	-0.499370
	32.480000	-0.502593
	32.485000	-0.579954
	32.490000	-0.573507
	32.495000	-0.496147
	32.500000	-0.502593
	32.505000	-0.579954
	32.510000	-0.573507
	32.515000	-0.499370
	32.520000	-0.502593
	32.525000	-0.589624
	32.530000	-0.573507
	32.535000	-0.505817
	32.540000	-0.496147
	32.545000	-0.576730
	32.550000	-0.576730
	32.555000	-0.499370
	32.560000	-0.505817
	32.565000	-0.583177
	32.570000	-0.583177
	32.575000	-0.496147
	32.580000	-0.502593
	32.585000	-0.589624
	32.590000	-0.576730
	32.595000	-0.499370
	32.600000	-0.502593
	32.605000	-0.583177
	32.610000	-0.579954
	32.615000	-0.505817
	32.620000	-0.502593
	32.625000	-0.583177
	32.630000	-0.583177
	32.635000	-0.502593
	32.640000	-0.502593
	32.645000	-0.592847
	32.650000	-0.586401
	32.655000	-0.502593
	32.660000	-0.505817
	32.665000	-0.583177
	32.670000	-0.579954
	32.675000	-0.505817
	32.680000	-0.509040
	32.685000	-0.589624
	32.690000	-0.583177
	32.695000	-0.499370
	32.700000	-0.509040
	32.705000	-0.583177
	32.710000	-0.589624
	32.715000	-0.502593
	32.720000	-0.509040
	32.725000	-0.586401
	32.730000	-0.579954
	32.735000	-0.502593
	32.740000	-0.505817
	32.745000	-0.592847
	32.750000	-0.579954
	32.755000	-0.512263
	32.760000	-0.505817
	32.765000	-0.586401
	32.770000	-0.586401
	32.775000	-0.509040
	32.780000	-0.502593
	32.785000	-0.589624
	32.790000	-0.589624
	32.795000	-0.509040
	32.800000	-0.512263
	32.805000	-0.583177
	32.810000	-0.586401
	32.815000	-0.512263
	32.820000	-0.509040
	32.825000	-0.586401
	32.830000	-0.592847
	32.835000	-0.509040
	32.840000	-0.509040
