2024/7/11 	 16:10:17 
 This file comes from Vt only measurement 	 1.000000E-1 
 Voltage Sensitivity 	 0.000000E+0 
 Sampling rate 	 200 
 Number of samples per channel 	 -1 
 No filter from Labview 	 	 	 
 	 
 ***End_of_Header*** 
 	 Time 	  Voltage 	 Filtered Voltage 	 
	0.000000	-2.327014
	0.005000	-2.246430
	0.010000	-2.230314
	0.015000	-2.310898
	0.020000	-2.327014
	0.025000	-2.249654
	0.030000	-2.236760
	0.035000	-2.317344
	0.040000	-2.333461
	0.045000	-2.262547
	0.050000	-2.246430
	0.055000	-2.320568
	0.060000	-2.336684
	0.065000	-2.262547
	0.070000	-2.243207
	0.075000	-2.327014
	0.080000	-2.339908
	0.085000	-2.265771
	0.090000	-2.256101
	0.095000	-2.330238
	0.100000	-2.352801
	0.105000	-2.268994
	0.110000	-2.256101
	0.115000	-2.333461
	0.120000	-2.349578
	0.125000	-2.275441
	0.130000	-2.259324
	0.135000	-2.336684
	0.140000	-2.359248
	0.145000	-2.281887
	0.150000	-2.268994
	0.155000	-2.343131
	0.160000	-2.356025
	0.165000	-2.278664
	0.170000	-2.265771
	0.175000	-2.349578
	0.180000	-2.365695
	0.185000	-2.281887
	0.190000	-2.272217
	0.195000	-2.349578
	0.200000	-2.362471
	0.205000	-2.291557
	0.210000	-2.275441
	0.215000	-2.349578
	0.220000	-2.362471
	0.225000	-2.288334
	0.230000	-2.275441
	0.235000	-2.356025
	0.240000	-2.372141
	0.245000	-2.294781
	0.250000	-2.275441
	0.255000	-2.356025
	0.260000	-2.372141
	0.265000	-2.294781
	0.270000	-2.278664
	0.275000	-2.365695
	0.280000	-2.375365
	0.285000	-2.294781
	0.290000	-2.285111
	0.295000	-2.365695
	0.300000	-2.378588
	0.305000	-2.307674
	0.310000	-2.288334
	0.315000	-2.362471
	0.320000	-2.375365
	0.325000	-2.301228
	0.330000	-2.288334
	0.335000	-2.362471
	0.340000	-2.378588
	0.345000	-2.304451
	0.350000	-2.288334
	0.355000	-2.375365
	0.360000	-2.388258
	0.365000	-2.310898
	0.370000	-2.294781
	0.375000	-2.368918
	0.380000	-2.391482
	0.385000	-2.304451
	0.390000	-2.294781
	0.395000	-2.372141
	0.400000	-2.391482
	0.405000	-2.317344
	0.410000	-2.298004
	0.415000	-2.375365
	0.420000	-2.394705
	0.425000	-2.307674
	0.430000	-2.301228
	0.435000	-2.372141
	0.440000	-2.388258
	0.445000	-2.320568
	0.450000	-2.301228
	0.455000	-2.381811
	0.460000	-2.394705
	0.465000	-2.317344
	0.470000	-2.301228
	0.475000	-2.381811
	0.480000	-2.394705
	0.485000	-2.317344
	0.490000	-2.304451
	0.495000	-2.375365
	0.500000	-2.391482
	0.505000	-2.317344
	0.510000	-2.310898
	0.515000	-2.381811
	0.520000	-2.397928
	0.525000	-2.320568
	0.530000	-2.304451
	0.535000	-2.385035
	0.540000	-2.394705
	0.545000	-2.320568
	0.550000	-2.310898
	0.555000	-2.388258
	0.560000	-2.404375
	0.565000	-2.323791
	0.570000	-2.310898
	0.575000	-2.391482
	0.580000	-2.401152
	0.585000	-2.330238
	0.590000	-2.317344
	0.595000	-2.391482
	0.600000	-2.404375
	0.605000	-2.336684
	0.610000	-2.310898
	0.615000	-2.394705
	0.620000	-2.404375
	0.625000	-2.330238
	0.630000	-2.314121
	0.635000	-2.388258
	0.640000	-2.404375
	0.645000	-2.333461
	0.650000	-2.314121
	0.655000	-2.394705
	0.660000	-2.410822
	0.665000	-2.330238
	0.670000	-2.320568
	0.675000	-2.397928
	0.680000	-2.414045
	0.685000	-2.333461
	0.690000	-2.323791
	0.695000	-2.394705
	0.700000	-2.410822
	0.705000	-2.330238
	0.710000	-2.320568
	0.715000	-2.394705
	0.720000	-2.410822
	0.725000	-2.327014
	0.730000	-2.310898
	0.735000	-2.388258
	0.740000	-2.404375
	0.745000	-2.327014
	0.750000	-2.307674
	0.755000	-2.385035
	0.760000	-2.391482
	0.765000	-2.320568
	0.770000	-2.298004
	0.775000	-2.375365
	0.780000	-2.381811
	0.785000	-2.307674
	0.790000	-2.291557
	0.795000	-2.356025
	0.800000	-2.378588
	0.805000	-2.298004
	0.810000	-2.278664
	0.815000	-2.343131
	0.820000	-2.362471
	0.825000	-2.288334
	0.830000	-2.268994
	0.835000	-2.339908
	0.840000	-2.356025
	0.845000	-2.285111
	0.850000	-2.259324
	0.855000	-2.333461
	0.860000	-2.343131
	0.865000	-2.268994
	0.870000	-2.252877
	0.875000	-2.323791
	0.880000	-2.333461
	0.885000	-2.252877
	0.890000	-2.236760
	0.895000	-2.307674
	0.900000	-2.320568
	0.905000	-2.246430
	0.910000	-2.214197
	0.915000	-2.288334
	0.920000	-2.307674
	0.925000	-2.230314
	0.930000	-2.210973
	0.935000	-2.278664
	0.940000	-2.294781
	0.945000	-2.217420
	0.950000	-2.194857
	0.955000	-2.268994
	0.960000	-2.285111
	0.965000	-2.210973
	0.970000	-2.191633
	0.975000	-2.256101
	0.980000	-2.272217
	0.985000	-2.201303
	0.990000	-2.175517
	0.995000	-2.246430
	1.000000	-2.265771
	1.005000	-2.185187
	1.010000	-2.159400
	1.015000	-2.230314
	1.020000	-2.249654
	1.025000	-2.165846
	1.030000	-2.136836
	1.035000	-2.214197
	1.040000	-2.223867
	1.045000	-2.156176
	1.050000	-2.127166
	1.055000	-2.207750
	1.060000	-2.217420
	1.065000	-2.149730
	1.070000	-2.120719
	1.075000	-2.204527
	1.080000	-2.220644
	1.085000	-2.143283
	1.090000	-2.136836
	1.095000	-2.207750
	1.100000	-2.230314
	1.105000	-2.156176
	1.110000	-2.143283
	1.115000	-2.214197
	1.120000	-2.239984
	1.125000	-2.169070
	1.130000	-2.156176
	1.135000	-2.230314
	1.140000	-2.252877
	1.145000	-2.181963
	1.150000	-2.162623
	1.155000	-2.243207
	1.160000	-2.262547
	1.165000	-2.198080
	1.170000	-2.185187
	1.175000	-2.256101
	1.180000	-2.288334
	1.185000	-2.210973
	1.190000	-2.201303
	1.195000	-2.272217
	1.200000	-2.304451
	1.205000	-2.233537
	1.210000	-2.217420
	1.215000	-2.301228
	1.220000	-2.327014
	1.225000	-2.256101
	1.230000	-2.236760
	1.235000	-2.317344
	1.240000	-2.339908
	1.245000	-2.268994
	1.250000	-2.256101
	1.255000	-2.330238
	1.260000	-2.352801
	1.265000	-2.285111
	1.270000	-2.272217
	1.275000	-2.352801
	1.280000	-2.368918
	1.285000	-2.301228
	1.290000	-2.278664
	1.295000	-2.359248
	1.300000	-2.381811
	1.305000	-2.307674
	1.310000	-2.288334
	1.315000	-2.365695
	1.320000	-2.388258
	1.325000	-2.314121
	1.330000	-2.301228
	1.335000	-2.375365
	1.340000	-2.394705
	1.345000	-2.320568
	1.350000	-2.304451
	1.355000	-2.378588
	1.360000	-2.401152
	1.365000	-2.330238
	1.370000	-2.304451
	1.375000	-2.381811
	1.380000	-2.407598
	1.385000	-2.327014
	1.390000	-2.314121
	1.395000	-2.388258
	1.400000	-2.407598
	1.405000	-2.336684
	1.410000	-2.314121
	1.415000	-2.401152
	1.420000	-2.417268
	1.425000	-2.346355
	1.430000	-2.333461
	1.435000	-2.394705
	1.440000	-2.423715
	1.445000	-2.352801
	1.450000	-2.333461
	1.455000	-2.401152
	1.460000	-2.423715
	1.465000	-2.359248
	1.470000	-2.339908
	1.475000	-2.414045
	1.480000	-2.430162
	1.485000	-2.362471
	1.490000	-2.352801
	1.495000	-2.417268
	1.500000	-2.443055
	1.505000	-2.368918
	1.510000	-2.346355
	1.515000	-2.433385
	1.520000	-2.449502
	1.525000	-2.375365
	1.530000	-2.359248
	1.535000	-2.430162
	1.540000	-2.452725
	1.545000	-2.385035
	1.550000	-2.365695
	1.555000	-2.443055
	1.560000	-2.465619
	1.565000	-2.385035
	1.570000	-2.368918
	1.575000	-2.443055
	1.580000	-2.462395
	1.585000	-2.394705
	1.590000	-2.365695
	1.595000	-2.443055
	1.600000	-2.459172
	1.605000	-2.394705
	1.610000	-2.372141
	1.615000	-2.443055
	1.620000	-2.468842
	1.625000	-2.394705
	1.630000	-2.368918
	1.635000	-2.436609
	1.640000	-2.455949
	1.645000	-2.394705
	1.650000	-2.365695
	1.655000	-2.446279
	1.660000	-2.459172
	1.665000	-2.385035
	1.670000	-2.365695
	1.675000	-2.439832
	1.680000	-2.468842
	1.685000	-2.391482
	1.690000	-2.368918
	1.695000	-2.436609
	1.700000	-2.459172
	1.705000	-2.391482
	1.710000	-2.368918
	1.715000	-2.439832
	1.720000	-2.462395
	1.725000	-2.385035
	1.730000	-2.368918
	1.735000	-2.443055
	1.740000	-2.462395
	1.745000	-2.388258
	1.750000	-2.368918
	1.755000	-2.439832
	1.760000	-2.462395
	1.765000	-2.391482
	1.770000	-2.368918
	1.775000	-2.430162
	1.780000	-2.455949
	1.785000	-2.385035
	1.790000	-2.365695
	1.795000	-2.439832
	1.800000	-2.455949
	1.805000	-2.381811
	1.810000	-2.359248
	1.815000	-2.436609
	1.820000	-2.455949
	1.825000	-2.385035
	1.830000	-2.356025
	1.835000	-2.430162
	1.840000	-2.452725
	1.845000	-2.378588
	1.850000	-2.352801
	1.855000	-2.426939
	1.860000	-2.449502
	1.865000	-2.368918
	1.870000	-2.343131
	1.875000	-2.417268
	1.880000	-2.439832
	1.885000	-2.368918
	1.890000	-2.346355
	1.895000	-2.417268
	1.900000	-2.436609
	1.905000	-2.365695
	1.910000	-2.343131
	1.915000	-2.414045
	1.920000	-2.433385
	1.925000	-2.362471
	1.930000	-2.330238
	1.935000	-2.410822
	1.940000	-2.436609
	1.945000	-2.362471
	1.950000	-2.336684
	1.955000	-2.410822
	1.960000	-2.439832
	1.965000	-2.359248
	1.970000	-2.330238
	1.975000	-2.407598
	1.980000	-2.433385
	1.985000	-2.362471
	1.990000	-2.343131
	1.995000	-2.407598
	2.000000	-2.436609
	2.005000	-2.362471
	2.010000	-2.333461
	2.015000	-2.423715
	2.020000	-2.436609
	2.025000	-2.362471
	2.030000	-2.343131
	2.035000	-2.410822
	2.040000	-2.443055
	2.045000	-2.362471
	2.050000	-2.339908
	2.055000	-2.417268
	2.060000	-2.446279
	2.065000	-2.368918
	2.070000	-2.339908
	2.075000	-2.414045
	2.080000	-2.433385
	2.085000	-2.359248
	2.090000	-2.336684
	2.095000	-2.417268
	2.100000	-2.436609
	2.105000	-2.368918
	2.110000	-2.333461
	2.115000	-2.407598
	2.120000	-2.436609
	2.125000	-2.359248
	2.130000	-2.339908
	2.135000	-2.414045
	2.140000	-2.430162
	2.145000	-2.365695
	2.150000	-2.336684
	2.155000	-2.407598
	2.160000	-2.439832
	2.165000	-2.362471
	2.170000	-2.330238
	2.175000	-2.407598
	2.180000	-2.439832
	2.185000	-2.362471
	2.190000	-2.330238
	2.195000	-2.401152
	2.200000	-2.430162
	2.205000	-2.362471
	2.210000	-2.327014
	2.215000	-2.397928
	2.220000	-2.430162
	2.225000	-2.352801
	2.230000	-2.333461
	2.235000	-2.401152
	2.240000	-2.426939
	2.245000	-2.362471
	2.250000	-2.339908
	2.255000	-2.404375
	2.260000	-2.433385
	2.265000	-2.362471
	2.270000	-2.330238
	2.275000	-2.410822
	2.280000	-2.433385
	2.285000	-2.362471
	2.290000	-2.333461
	2.295000	-2.404375
	2.300000	-2.433385
	2.305000	-2.362471
	2.310000	-2.336684
	2.315000	-2.404375
	2.320000	-2.430162
	2.325000	-2.359248
	2.330000	-2.336684
	2.335000	-2.404375
	2.340000	-2.423715
	2.345000	-2.359248
	2.350000	-2.333461
	2.355000	-2.401152
	2.360000	-2.426939
	2.365000	-2.356025
	2.370000	-2.323791
	2.375000	-2.397928
	2.380000	-2.417268
	2.385000	-2.349578
	2.390000	-2.317344
	2.395000	-2.394705
	2.400000	-2.420492
	2.405000	-2.346355
	2.410000	-2.317344
	2.415000	-2.385035
	2.420000	-2.410822
	2.425000	-2.339908
	2.430000	-2.307674
	2.435000	-2.381811
	2.440000	-2.407598
	2.445000	-2.333461
	2.450000	-2.307674
	2.455000	-2.381811
	2.460000	-2.407598
	2.465000	-2.330238
	2.470000	-2.304451
	2.475000	-2.372141
	2.480000	-2.401152
	2.485000	-2.330238
	2.490000	-2.304451
	2.495000	-2.368918
	2.500000	-2.404375
	2.505000	-2.327014
	2.510000	-2.294781
	2.515000	-2.372141
	2.520000	-2.404375
	2.525000	-2.327014
	2.530000	-2.291557
	2.535000	-2.372141
	2.540000	-2.397928
	2.545000	-2.327014
	2.550000	-2.294781
	2.555000	-2.359248
	2.560000	-2.394705
	2.565000	-2.314121
	2.570000	-2.278664
	2.575000	-2.356025
	2.580000	-2.372141
	2.585000	-2.304451
	2.590000	-2.268994
	2.595000	-2.339908
	2.600000	-2.365695
	2.605000	-2.288334
	2.610000	-2.262547
	2.615000	-2.323791
	2.620000	-2.349578
	2.625000	-2.278664
	2.630000	-2.246430
	2.635000	-2.307674
	2.640000	-2.336684
	2.645000	-2.262547
	2.650000	-2.227090
	2.655000	-2.294781
	2.660000	-2.320568
	2.665000	-2.239984
	2.670000	-2.207750
	2.675000	-2.278664
	2.680000	-2.307674
	2.685000	-2.227090
	2.690000	-2.185187
	2.695000	-2.256101
	2.700000	-2.288334
	2.705000	-2.210973
	2.710000	-2.178740
	2.715000	-2.246430
	2.720000	-2.275441
	2.725000	-2.201303
	2.730000	-2.169070
	2.735000	-2.239984
	2.740000	-2.265771
	2.745000	-2.191633
	2.750000	-2.152953
	2.755000	-2.220644
	2.760000	-2.262547
	2.765000	-2.178740
	2.770000	-2.152953
	2.775000	-2.217420
	2.780000	-2.249654
	2.785000	-2.178740
	2.790000	-2.146506
	2.795000	-2.214197
	2.800000	-2.243207
	2.805000	-2.169070
	2.810000	-2.140060
	2.815000	-2.201303
	2.820000	-2.233537
	2.825000	-2.162623
	2.830000	-2.123943
	2.835000	-2.201303
	2.840000	-2.227090
	2.845000	-2.152953
	2.850000	-2.114273
	2.855000	-2.181963
	2.860000	-2.207750
	2.865000	-2.140060
	2.870000	-2.104603
	2.875000	-2.172293
	2.880000	-2.201303
	2.885000	-2.123943
	2.890000	-2.091709
	2.895000	-2.156176
	2.900000	-2.188410
	2.905000	-2.114273
	2.910000	-2.082039
	2.915000	-2.140060
	2.920000	-2.169070
	2.925000	-2.091709
	2.930000	-2.053029
	2.935000	-2.120719
	2.940000	-2.146506
	2.945000	-2.082039
	2.950000	-2.049806
	2.955000	-2.114273
	2.960000	-2.146506
	2.965000	-2.078816
	2.970000	-2.043359
	2.975000	-2.117496
	2.980000	-2.149730
	2.985000	-2.075592
	2.990000	-2.043359
	2.995000	-2.114273
	3.000000	-2.146506
	3.005000	-2.085262
	3.010000	-2.053029
	3.015000	-2.120719
	3.020000	-2.152953
	3.025000	-2.088486
	3.030000	-2.056252
	3.035000	-2.127166
	3.040000	-2.162623
	3.045000	-2.098156
	3.050000	-2.069146
	3.055000	-2.140060
	3.060000	-2.178740
	3.065000	-2.114273
	3.070000	-2.085262
	3.075000	-2.159400
	3.080000	-2.191633
	3.085000	-2.133613
	3.090000	-2.101379
	3.095000	-2.181963
	3.100000	-2.214197
	3.105000	-2.156176
	3.110000	-2.123943
	3.115000	-2.194857
	3.120000	-2.233537
	3.125000	-2.172293
	3.130000	-2.143283
	3.135000	-2.220644
	3.140000	-2.256101
	3.145000	-2.188410
	3.150000	-2.165846
	3.155000	-2.239984
	3.160000	-2.268994
	3.165000	-2.204527
	3.170000	-2.175517
	3.175000	-2.239984
	3.180000	-2.281887
	3.185000	-2.217420
	3.190000	-2.181963
	3.195000	-2.246430
	3.200000	-2.285111
	3.205000	-2.217420
	3.210000	-2.191633
	3.215000	-2.256101
	3.220000	-2.298004
	3.225000	-2.227090
	3.230000	-2.194857
	3.235000	-2.262547
	3.240000	-2.301228
	3.245000	-2.227090
	3.250000	-2.201303
	3.255000	-2.268994
	3.260000	-2.307674
	3.265000	-2.239984
	3.270000	-2.204527
	3.275000	-2.268994
	3.280000	-2.307674
	3.285000	-2.236760
	3.290000	-2.207750
	3.295000	-2.278664
	3.300000	-2.307674
	3.305000	-2.246430
	3.310000	-2.207750
	3.315000	-2.275441
	3.320000	-2.314121
	3.325000	-2.243207
	3.330000	-2.210973
	3.335000	-2.281887
	3.340000	-2.320568
	3.345000	-2.243207
	3.350000	-2.210973
	3.355000	-2.281887
	3.360000	-2.314121
	3.365000	-2.249654
	3.370000	-2.214197
	3.375000	-2.288334
	3.380000	-2.314121
	3.385000	-2.256101
	3.390000	-2.210973
	3.395000	-2.285111
	3.400000	-2.314121
	3.405000	-2.249654
	3.410000	-2.214197
	3.415000	-2.285111
	3.420000	-2.320568
	3.425000	-2.256101
	3.430000	-2.220644
	3.435000	-2.285111
	3.440000	-2.323791
	3.445000	-2.256101
	3.450000	-2.223867
	3.455000	-2.291557
	3.460000	-2.323791
	3.465000	-2.259324
	3.470000	-2.223867
	3.475000	-2.291557
	3.480000	-2.330238
	3.485000	-2.265771
	3.490000	-2.227090
	3.495000	-2.294781
	3.500000	-2.327014
	3.505000	-2.268994
	3.510000	-2.233537
	3.515000	-2.301228
	3.520000	-2.346355
	3.525000	-2.272217
	3.530000	-2.243207
	3.535000	-2.304451
	3.540000	-2.349578
	3.545000	-2.278664
	3.550000	-2.243207
	3.555000	-2.310898
	3.560000	-2.356025
	3.565000	-2.285111
	3.570000	-2.252877
	3.575000	-2.323791
	3.580000	-2.359248
	3.585000	-2.288334
	3.590000	-2.265771
	3.595000	-2.333461
	3.600000	-2.368918
	3.605000	-2.301228
	3.610000	-2.272217
	3.615000	-2.339908
	3.620000	-2.378588
	3.625000	-2.310898
	3.630000	-2.281887
	3.635000	-2.339908
	3.640000	-2.391482
	3.645000	-2.320568
	3.650000	-2.281887
	3.655000	-2.352801
	3.660000	-2.388258
	3.665000	-2.330238
	3.670000	-2.281887
	3.675000	-2.356025
	3.680000	-2.385035
	3.685000	-2.320568
	3.690000	-2.281887
	3.695000	-2.356025
	3.700000	-2.391482
	3.705000	-2.327014
	3.710000	-2.285111
	3.715000	-2.352801
	3.720000	-2.394705
	3.725000	-2.323791
	3.730000	-2.288334
	3.735000	-2.349578
	3.740000	-2.397928
	3.745000	-2.327014
	3.750000	-2.285111
	3.755000	-2.356025
	3.760000	-2.391482
	3.765000	-2.320568
	3.770000	-2.285111
	3.775000	-2.352801
	3.780000	-2.394705
	3.785000	-2.323791
	3.790000	-2.285111
	3.795000	-2.356025
	3.800000	-2.394705
	3.805000	-2.320568
	3.810000	-2.288334
	3.815000	-2.349578
	3.820000	-2.388258
	3.825000	-2.320568
	3.830000	-2.281887
	3.835000	-2.349578
	3.840000	-2.394705
	3.845000	-2.320568
	3.850000	-2.278664
	3.855000	-2.352801
	3.860000	-2.385035
	3.865000	-2.317344
	3.870000	-2.281887
	3.875000	-2.343131
	3.880000	-2.391482
	3.885000	-2.314121
	3.890000	-2.278664
	3.895000	-2.339908
	3.900000	-2.385035
	3.905000	-2.320568
	3.910000	-2.278664
	3.915000	-2.333461
	3.920000	-2.378588
	3.925000	-2.314121
	3.930000	-2.268994
	3.935000	-2.339908
	3.940000	-2.385035
	3.945000	-2.314121
	3.950000	-2.275441
	3.955000	-2.336684
	3.960000	-2.378588
	3.965000	-2.307674
	3.970000	-2.268994
	3.975000	-2.333461
	3.980000	-2.375365
	3.985000	-2.310898
	3.990000	-2.265771
	3.995000	-2.327014
	4.000000	-2.378588
	4.005000	-2.304451
	4.010000	-2.262547
	4.015000	-2.333461
	4.020000	-2.368918
	4.025000	-2.307674
	4.030000	-2.265771
	4.035000	-2.327014
	4.040000	-2.365695
	4.045000	-2.294781
	4.050000	-2.252877
	4.055000	-2.323791
	4.060000	-2.362471
	4.065000	-2.294781
	4.070000	-2.259324
	4.075000	-2.323791
	4.080000	-2.368918
	4.085000	-2.298004
	4.090000	-2.259324
	4.095000	-2.320568
	4.100000	-2.359248
	4.105000	-2.291557
	4.110000	-2.246430
	4.115000	-2.320568
	4.120000	-2.352801
	4.125000	-2.291557
	4.130000	-2.249654
	4.135000	-2.317344
	4.140000	-2.359248
	4.145000	-2.288334
	4.150000	-2.239984
	4.155000	-2.307674
	4.160000	-2.349578
	4.165000	-2.285111
	4.170000	-2.239984
	4.175000	-2.310898
	4.180000	-2.349578
	4.185000	-2.281887
	4.190000	-2.243207
	4.195000	-2.304451
	4.200000	-2.346355
	4.205000	-2.281887
	4.210000	-2.239984
	4.215000	-2.301228
	4.220000	-2.346355
	4.225000	-2.278664
	4.230000	-2.230314
	4.235000	-2.301228
	4.240000	-2.343131
	4.245000	-2.275441
	4.250000	-2.230314
	4.255000	-2.291557
	4.260000	-2.339908
	4.265000	-2.268994
	4.270000	-2.227090
	4.275000	-2.291557
	4.280000	-2.333461
	4.285000	-2.268994
	4.290000	-2.217420
	4.295000	-2.285111
	4.300000	-2.327014
	4.305000	-2.268994
	4.310000	-2.217420
	4.315000	-2.285111
	4.320000	-2.323791
	4.325000	-2.256101
	4.330000	-2.220644
	4.335000	-2.275441
	4.340000	-2.320568
	4.345000	-2.252877
	4.350000	-2.210973
	4.355000	-2.275441
	4.360000	-2.320568
	4.365000	-2.252877
	4.370000	-2.204527
	4.375000	-2.268994
	4.380000	-2.310898
	4.385000	-2.246430
	4.390000	-2.204527
	4.395000	-2.268994
	4.400000	-2.307674
	4.405000	-2.239984
	4.410000	-2.201303
	4.415000	-2.268994
	4.420000	-2.310898
	4.425000	-2.243207
	4.430000	-2.198080
	4.435000	-2.252877
	4.440000	-2.310898
	4.445000	-2.239984
	4.450000	-2.194857
	4.455000	-2.256101
	4.460000	-2.304451
	4.465000	-2.230314
	4.470000	-2.194857
	4.475000	-2.249654
	4.480000	-2.298004
	4.485000	-2.233537
	4.490000	-2.188410
	4.495000	-2.256101
	4.500000	-2.298004
	4.505000	-2.233537
	4.510000	-2.188410
	4.515000	-2.246430
	4.520000	-2.298004
	4.525000	-2.233537
	4.530000	-2.188410
	4.535000	-2.252877
	4.540000	-2.291557
	4.545000	-2.233537
	4.550000	-2.191633
	4.555000	-2.246430
	4.560000	-2.301228
	4.565000	-2.230314
	4.570000	-2.188410
	4.575000	-2.249654
	4.580000	-2.294781
	4.585000	-2.227090
	4.590000	-2.185187
	4.595000	-2.249654
	4.600000	-2.298004
	4.605000	-2.227090
	4.610000	-2.188410
	4.615000	-2.252877
	4.620000	-2.288334
	4.625000	-2.230314
	4.630000	-2.181963
	4.635000	-2.239984
	4.640000	-2.288334
	4.645000	-2.223867
	4.650000	-2.175517
	4.655000	-2.239984
	4.660000	-2.291557
	4.665000	-2.223867
	4.670000	-2.175517
	4.675000	-2.233537
	4.680000	-2.288334
	4.685000	-2.223867
	4.690000	-2.175517
	4.695000	-2.236760
	4.700000	-2.288334
	4.705000	-2.217420
	4.710000	-2.172293
	4.715000	-2.236760
	4.720000	-2.281887
	4.725000	-2.214197
	4.730000	-2.165846
	4.735000	-2.230314
	4.740000	-2.275441
	4.745000	-2.210973
	4.750000	-2.165846
	4.755000	-2.223867
	4.760000	-2.272217
	4.765000	-2.207750
	4.770000	-2.162623
	4.775000	-2.223867
	4.780000	-2.268994
	4.785000	-2.204527
	4.790000	-2.156176
	4.795000	-2.214197
	4.800000	-2.265771
	4.805000	-2.201303
	4.810000	-2.149730
	4.815000	-2.207750
	4.820000	-2.252877
	4.825000	-2.191633
	4.830000	-2.146506
	4.835000	-2.204527
	4.840000	-2.249654
	4.845000	-2.178740
	4.850000	-2.133613
	4.855000	-2.198080
	4.860000	-2.239984
	4.865000	-2.178740
	4.870000	-2.117496
	4.875000	-2.185187
	4.880000	-2.233537
	4.885000	-2.162623
	4.890000	-2.120719
	4.895000	-2.172293
	4.900000	-2.217420
	4.905000	-2.152953
	4.910000	-2.104603
	4.915000	-2.172293
	4.920000	-2.214197
	4.925000	-2.156176
	4.930000	-2.101379
	4.935000	-2.169070
	4.940000	-2.210973
	4.945000	-2.143283
	4.950000	-2.094933
	4.955000	-2.156176
	4.960000	-2.201303
	4.965000	-2.140060
	4.970000	-2.088486
	4.975000	-2.149730
	4.980000	-2.194857
	4.985000	-2.136836
	4.990000	-2.082039
	4.995000	-2.140060
	5.000000	-2.191633
	5.005000	-2.127166
	5.010000	-2.069146
	5.015000	-2.123943
	5.020000	-2.175517
	5.025000	-2.107826
	5.030000	-2.062699
	5.035000	-2.107826
	5.040000	-2.159400
	5.045000	-2.098156
	5.050000	-2.046582
	5.055000	-2.101379
	5.060000	-2.146506
	5.065000	-2.088486
	5.070000	-2.027242
	5.075000	-2.082039
	5.080000	-2.130390
	5.085000	-2.069146
	5.090000	-2.011125
	5.095000	-2.065922
	5.100000	-2.117496
	5.105000	-2.059476
	5.110000	-2.001455
	5.115000	-2.059476
	5.120000	-2.104603
	5.125000	-2.043359
	5.130000	-1.991785
	5.135000	-2.040135
	5.140000	-2.091709
	5.145000	-2.036912
	5.150000	-1.988562
	5.155000	-2.040135
	5.160000	-2.088486
	5.165000	-2.030465
	5.170000	-1.978892
	5.175000	-2.033689
	5.180000	-2.078816
	5.185000	-2.020795
	5.190000	-1.975668
	5.195000	-2.027242
	5.200000	-2.065922
	5.205000	-2.014349
	5.210000	-1.953105
	5.215000	-2.007902
	5.220000	-2.049806
	5.225000	-1.985338
	5.230000	-1.936988
	5.235000	-1.985338
	5.240000	-2.033689
	5.245000	-1.965998
	5.250000	-1.917648
	5.255000	-1.965998
	5.260000	-2.004679
	5.265000	-1.946658
	5.270000	-1.895084
	5.275000	-1.953105
	5.280000	-1.998232
	5.285000	-1.933765
	5.290000	-1.882191
	5.295000	-1.936988
	5.300000	-1.985338
	5.305000	-1.924095
	5.310000	-1.875744
	5.315000	-1.933765
	5.320000	-1.978892
	5.325000	-1.927318
	5.330000	-1.869297
	5.335000	-1.927318
	5.340000	-1.978892
	5.345000	-1.927318
	5.350000	-1.875744
	5.355000	-1.927318
	5.360000	-1.982115
	5.365000	-1.927318
	5.370000	-1.875744
	5.375000	-1.933765
	5.380000	-1.991785
	5.385000	-1.933765
	5.390000	-1.888638
	5.395000	-1.946658
	5.400000	-2.001455
	5.405000	-1.949881
	5.410000	-1.904754
	5.415000	-1.962775
	5.420000	-2.017572
	5.425000	-1.962775
	5.430000	-1.920871
	5.435000	-1.982115
	5.440000	-2.040135
	5.445000	-1.982115
	5.450000	-1.940211
	5.455000	-2.011125
	5.460000	-2.069146
	5.465000	-2.020795
	5.470000	-1.972445
	5.475000	-2.036912
	5.480000	-2.085262
	5.485000	-2.033689
	5.490000	-1.991785
	5.495000	-2.049806
	5.500000	-2.104603
	5.505000	-2.046582
	5.510000	-2.004679
	5.515000	-2.056252
	5.520000	-2.120719
	5.525000	-2.062699
	5.530000	-2.014349
	5.535000	-2.065922
	5.540000	-2.127166
	5.545000	-2.062699
	5.550000	-2.017572
	5.555000	-2.082039
	5.560000	-2.130390
	5.565000	-2.078816
	5.570000	-2.024019
	5.575000	-2.082039
	5.580000	-2.133613
	5.585000	-2.072369
	5.590000	-2.030465
	5.595000	-2.082039
	5.600000	-2.133613
	5.605000	-2.082039
	5.610000	-2.033689
	5.615000	-2.088486
	5.620000	-2.140060
	5.625000	-2.088486
	5.630000	-2.036912
	5.635000	-2.088486
	5.640000	-2.136836
	5.645000	-2.088486
	5.650000	-2.033689
	5.655000	-2.082039
	5.660000	-2.140060
	5.665000	-2.088486
	5.670000	-2.033689
	5.675000	-2.091709
	5.680000	-2.149730
	5.685000	-2.088486
	5.690000	-2.036912
	5.695000	-2.094933
	5.700000	-2.143283
	5.705000	-2.094933
	5.710000	-2.036912
	5.715000	-2.101379
	5.720000	-2.156176
	5.725000	-2.107826
	5.730000	-2.049806
	5.735000	-2.101379
	5.740000	-2.162623
	5.745000	-2.101379
	5.750000	-2.056252
	5.755000	-2.104603
	5.760000	-2.165846
	5.765000	-2.107826
	5.770000	-2.053029
	5.775000	-2.114273
	5.780000	-2.165846
	5.785000	-2.107826
	5.790000	-2.059476
	5.795000	-2.114273
	5.800000	-2.169070
	5.805000	-2.120719
	5.810000	-2.062699
	5.815000	-2.117496
	5.820000	-2.175517
	5.825000	-2.120719
	5.830000	-2.056252
	5.835000	-2.117496
	5.840000	-2.172293
	5.845000	-2.111049
	5.850000	-2.062699
	5.855000	-2.114273
	5.860000	-2.169070
	5.865000	-2.111049
	5.870000	-2.059476
	5.875000	-2.114273
	5.880000	-2.162623
	5.885000	-2.111049
	5.890000	-2.056252
	5.895000	-2.107826
	5.900000	-2.165846
	5.905000	-2.117496
	5.910000	-2.053029
	5.915000	-2.107826
	5.920000	-2.162623
	5.925000	-2.104603
	5.930000	-2.049806
	5.935000	-2.104603
	5.940000	-2.165846
	5.945000	-2.114273
	5.950000	-2.046582
	5.955000	-2.101379
	5.960000	-2.159400
	5.965000	-2.101379
	5.970000	-2.043359
	5.975000	-2.098156
	5.980000	-2.149730
	5.985000	-2.104603
	5.990000	-2.046582
	5.995000	-2.094933
	6.000000	-2.152953
	6.005000	-2.088486
	6.010000	-2.040135
	6.015000	-2.094933
	6.020000	-2.152953
	6.025000	-2.094933
	6.030000	-2.040135
	6.035000	-2.098156
	6.040000	-2.146506
	6.045000	-2.098156
	6.050000	-2.043359
	6.055000	-2.088486
	6.060000	-2.146506
	6.065000	-2.091709
	6.070000	-2.036912
	6.075000	-2.088486
	6.080000	-2.143283
	6.085000	-2.091709
	6.090000	-2.033689
	6.095000	-2.088486
	6.100000	-2.136836
	6.105000	-2.088486
	6.110000	-2.027242
	6.115000	-2.082039
	6.120000	-2.140060
	6.125000	-2.091709
	6.130000	-2.027242
	6.135000	-2.078816
	6.140000	-2.143283
	6.145000	-2.082039
	6.150000	-2.027242
	6.155000	-2.078816
	6.160000	-2.130390
	6.165000	-2.078816
	6.170000	-2.020795
	6.175000	-2.072369
	6.180000	-2.127166
	6.185000	-2.075592
	6.190000	-2.011125
	6.195000	-2.069146
	6.200000	-2.127166
	6.205000	-2.069146
	6.210000	-2.011125
	6.215000	-2.065922
	6.220000	-2.120719
	6.225000	-2.062699
	6.230000	-2.011125
	6.235000	-2.059476
	6.240000	-2.120719
	6.245000	-2.069146
	6.250000	-2.004679
	6.255000	-2.049806
	6.260000	-2.117496
	6.265000	-2.065922
	6.270000	-2.001455
	6.275000	-2.049806
	6.280000	-2.114273
	6.285000	-2.059476
	6.290000	-1.998232
	6.295000	-2.049806
	6.300000	-2.111049
	6.305000	-2.062699
	6.310000	-2.004679
	6.315000	-2.053029
	6.320000	-2.114273
	6.325000	-2.062699
	6.330000	-2.007902
	6.335000	-2.056252
	6.340000	-2.114273
	6.345000	-2.062699
	6.350000	-2.001455
	6.355000	-2.049806
	6.360000	-2.114273
	6.365000	-2.056252
	6.370000	-1.998232
	6.375000	-2.046582
	6.380000	-2.111049
	6.385000	-2.056252
	6.390000	-1.998232
	6.395000	-2.046582
	6.400000	-2.107826
	6.405000	-2.053029
	6.410000	-1.995008
	6.415000	-2.040135
	6.420000	-2.107826
	6.425000	-2.046582
	6.430000	-1.991785
	6.435000	-2.043359
	6.440000	-2.101379
	6.445000	-2.053029
	6.450000	-1.985338
	6.455000	-2.036912
	6.460000	-2.094933
	6.465000	-2.049806
	6.470000	-1.991785
	6.475000	-2.036912
	6.480000	-2.094933
	6.485000	-2.056252
	6.490000	-1.985338
	6.495000	-2.033689
	6.500000	-2.098156
	6.505000	-2.043359
	6.510000	-1.978892
	6.515000	-2.030465
	6.520000	-2.091709
	6.525000	-2.040135
	6.530000	-1.982115
	6.535000	-2.027242
	6.540000	-2.085262
	6.545000	-2.036912
	6.550000	-1.975668
	6.555000	-2.027242
	6.560000	-2.088486
	6.565000	-2.036912
	6.570000	-1.975668
	6.575000	-2.024019
	6.580000	-2.088486
	6.585000	-2.036912
	6.590000	-1.969222
	6.595000	-2.024019
	6.600000	-2.072369
	6.605000	-2.036912
	6.610000	-1.969222
	6.615000	-2.024019
	6.620000	-2.078816
	6.625000	-2.020795
	6.630000	-1.965998
	6.635000	-2.014349
	6.640000	-2.078816
	6.645000	-2.027242
	6.650000	-1.972445
	6.655000	-2.014349
	6.660000	-2.069146
	6.665000	-2.024019
	6.670000	-1.959551
	6.675000	-2.011125
	6.680000	-2.072369
	6.685000	-2.024019
	6.690000	-1.962775
	6.695000	-2.007902
	6.700000	-2.075592
	6.705000	-2.024019
	6.710000	-1.959551
	6.715000	-2.007902
	6.720000	-2.065922
	6.725000	-2.017572
	6.730000	-1.953105
	6.735000	-1.998232
	6.740000	-2.065922
	6.745000	-2.017572
	6.750000	-1.956328
	6.755000	-1.998232
	6.760000	-2.059476
	6.765000	-2.011125
	6.770000	-1.946658
	6.775000	-1.995008
	6.780000	-2.062699
	6.785000	-2.011125
	6.790000	-1.940211
	6.795000	-1.998232
	6.800000	-2.062699
	6.805000	-2.004679
	6.810000	-1.946658
	6.815000	-1.988562
	6.820000	-2.053029
	6.825000	-2.007902
	6.830000	-1.940211
	6.835000	-1.988562
	6.840000	-2.053029
	6.845000	-1.998232
	6.850000	-1.940211
	6.855000	-1.985338
	6.860000	-2.046582
	6.865000	-1.991785
	6.870000	-1.936988
	6.875000	-1.985338
	6.880000	-2.036912
	6.885000	-1.998232
	6.890000	-1.927318
	6.895000	-1.975668
	6.900000	-2.036912
	6.905000	-1.995008
	6.910000	-1.927318
	6.915000	-1.975668
	6.920000	-2.033689
	6.925000	-1.988562
	6.930000	-1.920871
	6.935000	-1.972445
	6.940000	-2.030465
	6.945000	-1.988562
	6.950000	-1.924095
	6.955000	-1.969222
	6.960000	-2.030465
	6.965000	-1.978892
	6.970000	-1.914424
	6.975000	-1.965998
	6.980000	-2.027242
	6.985000	-1.972445
	6.990000	-1.911201
	6.995000	-1.959551
	7.000000	-2.020795
	7.005000	-1.975668
	7.010000	-1.904754
	7.015000	-1.956328
	7.020000	-2.020795
	7.025000	-1.969222
	7.030000	-1.904754
	7.035000	-1.946658
	7.040000	-2.017572
	7.045000	-1.969222
	7.050000	-1.907978
	7.055000	-1.949881
	7.060000	-2.017572
	7.065000	-1.965998
	7.070000	-1.904754
	7.075000	-1.943435
	7.080000	-2.017572
	7.085000	-1.965998
	7.090000	-1.898308
	7.095000	-1.943435
	7.100000	-2.004679
	7.105000	-1.962775
	7.110000	-1.898308
	7.115000	-1.943435
	7.120000	-2.004679
	7.125000	-1.962775
	7.130000	-1.898308
	7.135000	-1.946658
	7.140000	-2.001455
	7.145000	-1.946658
	7.150000	-1.888638
	7.155000	-1.936988
	7.160000	-1.998232
	7.165000	-1.956328
	7.170000	-1.895084
	7.175000	-1.930541
	7.180000	-1.995008
	7.185000	-1.949881
	7.190000	-1.885414
	7.195000	-1.930541
	7.200000	-1.998232
	7.205000	-1.949881
	7.210000	-1.885414
	7.215000	-1.924095
	7.220000	-1.995008
	7.225000	-1.943435
	7.230000	-1.885414
	7.235000	-1.927318
	7.240000	-1.991785
	7.245000	-1.943435
	7.250000	-1.885414
	7.255000	-1.920871
	7.260000	-1.991785
	7.265000	-1.936988
	7.270000	-1.878968
	7.275000	-1.914424
	7.280000	-1.985338
	7.285000	-1.936988
	7.290000	-1.869297
	7.295000	-1.907978
	7.300000	-1.969222
	7.305000	-1.927318
	7.310000	-1.853181
	7.315000	-1.885414
	7.320000	-1.953105
	7.325000	-1.901531
	7.330000	-1.830617
	7.335000	-1.859627
	7.340000	-1.927318
	7.345000	-1.875744
	7.350000	-1.808054
	7.355000	-1.837064
	7.360000	-1.895084
	7.365000	-1.846734
	7.370000	-1.775820
	7.375000	-1.811277
	7.380000	-1.872521
	7.385000	-1.824170
	7.390000	-1.743586
	7.395000	-1.788713
	7.400000	-1.840287
	7.405000	-1.788713
	7.410000	-1.721023
	7.415000	-1.750033
	7.420000	-1.811277
	7.425000	-1.766150
	7.430000	-1.692013
	7.435000	-1.730693
	7.440000	-1.795160
	7.445000	-1.756480
	7.450000	-1.688789
	7.455000	-1.714576
	7.460000	-1.775820
	7.465000	-1.727470
	7.470000	-1.659779
	7.475000	-1.682343
	7.480000	-1.743586
	7.485000	-1.692013
	7.490000	-1.627546
	7.495000	-1.659779
	7.500000	-1.727470
	7.505000	-1.672673
	7.510000	-1.604982
	7.515000	-1.640439
	7.520000	-1.704906
	7.525000	-1.659779
	7.530000	-1.595312
	7.535000	-1.630769
	7.540000	-1.695236
	7.545000	-1.656556
	7.550000	-1.585642
	7.555000	-1.627546
	7.560000	-1.688789
	7.565000	-1.646886
	7.570000	-1.595312
	7.575000	-1.627546
	7.580000	-1.692013
	7.585000	-1.663002
	7.590000	-1.592089
	7.595000	-1.630769
	7.600000	-1.704906
	7.605000	-1.669449
	7.610000	-1.611429
	7.615000	-1.653332
	7.620000	-1.721023
	7.625000	-1.685566
	7.630000	-1.624322
	7.635000	-1.669449
	7.640000	-1.737140
	7.645000	-1.704906
	7.650000	-1.643662
	7.655000	-1.679119
	7.660000	-1.753257
	7.665000	-1.717800
	7.670000	-1.659779
	7.675000	-1.711353
	7.680000	-1.779043
	7.685000	-1.746810
	7.690000	-1.688789
	7.695000	-1.733916
	7.700000	-1.811277
	7.705000	-1.779043
	7.710000	-1.717800
	7.715000	-1.759703
	7.720000	-1.837064
	7.725000	-1.808054
	7.730000	-1.746810
	7.735000	-1.782267
	7.740000	-1.856404
	7.745000	-1.827394
	7.750000	-1.766150
	7.755000	-1.811277
	7.760000	-1.872521
	7.765000	-1.840287
	7.770000	-1.772597
	7.775000	-1.814500
	7.780000	-1.878968
	7.785000	-1.840287
	7.790000	-1.779043
	7.795000	-1.814500
	7.800000	-1.882191
	7.805000	-1.849957
	7.810000	-1.772597
	7.815000	-1.814500
	7.820000	-1.875744
	7.825000	-1.843511
	7.830000	-1.779043
	7.835000	-1.820947
	7.840000	-1.882191
	7.845000	-1.843511
	7.850000	-1.782267
	7.855000	-1.808054
	7.860000	-1.882191
	7.865000	-1.846734
	7.870000	-1.775820
	7.875000	-1.811277
	7.880000	-1.882191
	7.885000	-1.846734
	7.890000	-1.785490
	7.895000	-1.814500
	7.900000	-1.882191
	7.905000	-1.840287
	7.910000	-1.772597
	7.915000	-1.814500
	7.920000	-1.882191
	7.925000	-1.849957
	7.930000	-1.769373
	7.935000	-1.811277
	7.940000	-1.878968
	7.945000	-1.843511
	7.950000	-1.779043
	7.955000	-1.808054
	7.960000	-1.878968
	7.965000	-1.843511
	7.970000	-1.775820
	7.975000	-1.808054
	7.980000	-1.882191
	7.985000	-1.843511
	7.990000	-1.779043
	7.995000	-1.811277
	8.000000	-1.882191
	8.005000	-1.849957
	8.010000	-1.782267
	8.015000	-1.817724
	8.020000	-1.882191
	8.025000	-1.846734
	8.030000	-1.782267
	8.035000	-1.824170
	8.040000	-1.891861
	8.045000	-1.853181
	8.050000	-1.791937
	8.055000	-1.827394
	8.060000	-1.901531
	8.065000	-1.866074
	8.070000	-1.798384
	8.075000	-1.833840
	8.080000	-1.911201
	8.085000	-1.882191
	8.090000	-1.814500
	8.095000	-1.856404
	8.100000	-1.930541
	8.105000	-1.895084
	8.110000	-1.833840
	8.115000	-1.878968
	8.120000	-1.946658
	8.125000	-1.914424
	8.130000	-1.849957
	8.135000	-1.875744
	8.140000	-1.946658
	8.145000	-1.914424
	8.150000	-1.846734
	8.155000	-1.878968
	8.160000	-1.953105
	8.165000	-1.917648
	8.170000	-1.853181
	8.175000	-1.882191
	8.180000	-1.946658
	8.185000	-1.917648
	8.190000	-1.849957
	8.195000	-1.875744
	8.200000	-1.946658
	8.205000	-1.911201
	8.210000	-1.846734
	8.215000	-1.872521
	8.220000	-1.943435
	8.225000	-1.907978
	8.230000	-1.837064
	8.235000	-1.872521
	8.240000	-1.943435
	8.245000	-1.898308
	8.250000	-1.837064
	8.255000	-1.872521
	8.260000	-1.943435
	8.265000	-1.911201
	8.270000	-1.843511
	8.275000	-1.872521
	8.280000	-1.943435
	8.285000	-1.907978
	8.290000	-1.840287
	8.295000	-1.869297
	8.300000	-1.946658
	8.305000	-1.904754
	8.310000	-1.833840
	8.315000	-1.869297
	8.320000	-1.946658
	8.325000	-1.911201
	8.330000	-1.840287
	8.335000	-1.875744
	8.340000	-1.940211
	8.345000	-1.907978
	8.350000	-1.837064
	8.355000	-1.866074
	8.360000	-1.940211
	8.365000	-1.904754
	8.370000	-1.833840
	8.375000	-1.869297
	8.380000	-1.936988
	8.385000	-1.911201
	8.390000	-1.833840
	8.395000	-1.862851
	8.400000	-1.933765
	8.405000	-1.898308
	8.410000	-1.833840
	8.415000	-1.862851
	8.420000	-1.930541
	8.425000	-1.907978
	8.430000	-1.837064
	8.435000	-1.866074
	8.440000	-1.930541
	8.445000	-1.904754
	8.450000	-1.830617
	8.455000	-1.856404
	8.460000	-1.933765
	8.465000	-1.898308
	8.470000	-1.827394
	8.475000	-1.866074
	8.480000	-1.936988
	8.485000	-1.901531
	8.490000	-1.827394
	8.495000	-1.856404
	8.500000	-1.927318
	8.505000	-1.895084
	8.510000	-1.820947
	8.515000	-1.843511
	8.520000	-1.924095
	8.525000	-1.885414
	8.530000	-1.820947
	8.535000	-1.846734
	8.540000	-1.917648
	8.545000	-1.885414
	8.550000	-1.814500
	8.555000	-1.840287
	8.560000	-1.914424
	8.565000	-1.888638
	8.570000	-1.811277
	8.575000	-1.840287
	8.580000	-1.907978
	8.585000	-1.878968
	8.590000	-1.808054
	8.595000	-1.833840
	8.600000	-1.907978
	8.605000	-1.875744
	8.610000	-1.808054
	8.615000	-1.833840
	8.620000	-1.901531
	8.625000	-1.872521
	8.630000	-1.801607
	8.635000	-1.833840
	8.640000	-1.904754
	8.645000	-1.875744
	8.650000	-1.804830
	8.655000	-1.827394
	8.660000	-1.901531
	8.665000	-1.875744
	8.670000	-1.791937
	8.675000	-1.830617
	8.680000	-1.898308
	8.685000	-1.872521
	8.690000	-1.795160
	8.695000	-1.824170
	8.700000	-1.898308
	8.705000	-1.862851
	8.710000	-1.791937
	8.715000	-1.820947
	8.720000	-1.891861
	8.725000	-1.866074
	8.730000	-1.788713
	8.735000	-1.817724
	8.740000	-1.885414
	8.745000	-1.859627
	8.750000	-1.788713
	8.755000	-1.811277
	8.760000	-1.885414
	8.765000	-1.862851
	8.770000	-1.782267
	8.775000	-1.811277
	8.780000	-1.878968
	8.785000	-1.846734
	8.790000	-1.779043
	8.795000	-1.804830
	8.800000	-1.875744
	8.805000	-1.853181
	8.810000	-1.779043
	8.815000	-1.801607
	8.820000	-1.875744
	8.825000	-1.843511
	8.830000	-1.766150
	8.835000	-1.798384
	8.840000	-1.872521
	8.845000	-1.843511
	8.850000	-1.775820
	8.855000	-1.795160
	8.860000	-1.866074
	8.865000	-1.837064
	8.870000	-1.772597
	8.875000	-1.795160
	8.880000	-1.862851
	8.885000	-1.837064
	8.890000	-1.762927
	8.895000	-1.788713
	8.900000	-1.866074
	8.905000	-1.840287
	8.910000	-1.766150
	8.915000	-1.785490
	8.920000	-1.862851
	8.925000	-1.837064
	8.930000	-1.769373
	8.935000	-1.785490
	8.940000	-1.859627
	8.945000	-1.840287
	8.950000	-1.762927
	8.955000	-1.782267
	8.960000	-1.859627
	8.965000	-1.827394
	8.970000	-1.756480
	8.975000	-1.779043
	8.980000	-1.849957
	8.985000	-1.827394
	8.990000	-1.750033
	8.995000	-1.779043
	9.000000	-1.849957
	9.005000	-1.830617
	9.010000	-1.750033
	9.015000	-1.779043
	9.020000	-1.843511
	9.025000	-1.820947
	9.030000	-1.746810
	9.035000	-1.769373
	9.040000	-1.843511
	9.045000	-1.817724
	9.050000	-1.743586
	9.055000	-1.762927
	9.060000	-1.840287
	9.065000	-1.817724
	9.070000	-1.743586
	9.075000	-1.766150
	9.080000	-1.833840
	9.085000	-1.811277
	9.090000	-1.733916
	9.095000	-1.759703
	9.100000	-1.833840
	9.105000	-1.811277
	9.110000	-1.733916
	9.115000	-1.753257
	9.120000	-1.824170
	9.125000	-1.808054
	9.130000	-1.730693
	9.135000	-1.756480
	9.140000	-1.827394
	9.145000	-1.808054
	9.150000	-1.727470
	9.155000	-1.746810
	9.160000	-1.830617
	9.165000	-1.808054
	9.170000	-1.730693
	9.175000	-1.753257
	9.180000	-1.824170
	9.185000	-1.798384
	9.190000	-1.727470
	9.195000	-1.746810
	9.200000	-1.820947
	9.205000	-1.798384
	9.210000	-1.727470
	9.215000	-1.743586
	9.220000	-1.814500
	9.225000	-1.798384
	9.230000	-1.717800
	9.235000	-1.737140
	9.240000	-1.811277
	9.245000	-1.788713
	9.250000	-1.711353
	9.255000	-1.730693
	9.260000	-1.804830
	9.265000	-1.782267
	9.270000	-1.704906
	9.275000	-1.721023
	9.280000	-1.798384
	9.285000	-1.775820
	9.290000	-1.698459
	9.295000	-1.711353
	9.300000	-1.791937
	9.305000	-1.769373
	9.310000	-1.698459
	9.315000	-1.714576
	9.320000	-1.785490
	9.325000	-1.772597
	9.330000	-1.685566
	9.335000	-1.704906
	9.340000	-1.779043
	9.345000	-1.759703
	9.350000	-1.679119
	9.355000	-1.701683
	9.360000	-1.769373
	9.365000	-1.753257
	9.370000	-1.679119
	9.375000	-1.692013
	9.380000	-1.759703
	9.385000	-1.737140
	9.390000	-1.659779
	9.395000	-1.675896
	9.400000	-1.743586
	9.405000	-1.721023
	9.410000	-1.643662
	9.415000	-1.653332
	9.420000	-1.717800
	9.425000	-1.695236
	9.430000	-1.611429
	9.435000	-1.627546
	9.440000	-1.695236
	9.445000	-1.672673
	9.450000	-1.588865
	9.455000	-1.608205
	9.460000	-1.675896
	9.465000	-1.650109
	9.470000	-1.572748
	9.475000	-1.582418
	9.480000	-1.643662
	9.485000	-1.627546
	9.490000	-1.553408
	9.495000	-1.563078
	9.500000	-1.627546
	9.505000	-1.604982
	9.510000	-1.534068
	9.515000	-1.537291
	9.520000	-1.617875
	9.525000	-1.592089
	9.530000	-1.521175
	9.535000	-1.530845
	9.540000	-1.592089
	9.545000	-1.572748
	9.550000	-1.488941
	9.555000	-1.501835
	9.560000	-1.569525
	9.565000	-1.540515
	9.570000	-1.463154
	9.575000	-1.469601
	9.580000	-1.537291
	9.585000	-1.521175
	9.590000	-1.434144
	9.595000	-1.447037
	9.600000	-1.517951
	9.605000	-1.495388
	9.610000	-1.424474
	9.615000	-1.434144
	9.620000	-1.498611
	9.625000	-1.485718
	9.630000	-1.405134
	9.635000	-1.421251
	9.640000	-1.495388
	9.645000	-1.469601
	9.650000	-1.408357
	9.655000	-1.418027
	9.660000	-1.488941
	9.665000	-1.482494
	9.670000	-1.405134
	9.675000	-1.414804
	9.680000	-1.495388
	9.685000	-1.482494
	9.690000	-1.421251
	9.695000	-1.427697
	9.700000	-1.505058
	9.705000	-1.495388
	9.710000	-1.427697
	9.715000	-1.437367
	9.720000	-1.521175
	9.725000	-1.514728
	9.730000	-1.437367
	9.735000	-1.459931
	9.740000	-1.534068
	9.745000	-1.517951
	9.750000	-1.459931
	9.755000	-1.472824
	9.760000	-1.556632
	9.765000	-1.543738
	9.770000	-1.472824
	9.775000	-1.492164
	9.780000	-1.582418
	9.785000	-1.566302
	9.790000	-1.501835
	9.795000	-1.521175
	9.800000	-1.601759
	9.805000	-1.592089
	9.810000	-1.527621
	9.815000	-1.543738
	9.820000	-1.624322
	9.825000	-1.621099
	9.830000	-1.546962
	9.835000	-1.566302
	9.840000	-1.656556
	9.845000	-1.646886
	9.850000	-1.575972
	9.855000	-1.595312
	9.860000	-1.672673
	9.865000	-1.666226
	9.870000	-1.588865
	9.875000	-1.601759
	9.880000	-1.675896
	9.885000	-1.669449
	9.890000	-1.595312
	9.895000	-1.598535
	9.900000	-1.682343
	9.905000	-1.666226
	9.910000	-1.595312
	9.915000	-1.611429
	9.920000	-1.682343
	9.925000	-1.672673
	9.930000	-1.595312
	9.935000	-1.608205
	9.940000	-1.688789
	9.945000	-1.666226
	9.950000	-1.595312
	9.955000	-1.614652
	9.960000	-1.685566
	9.965000	-1.675896
	9.970000	-1.598535
	9.975000	-1.604982
	9.980000	-1.685566
	9.985000	-1.679119
	9.990000	-1.601759
	9.995000	-1.608205
	10.000000	-1.688789
	10.005000	-1.679119
	10.010000	-1.598535
	10.015000	-1.604982
	10.020000	-1.682343
	10.025000	-1.669449
	10.030000	-1.595312
	10.035000	-1.611429
	10.040000	-1.682343
	10.045000	-1.669449
	10.050000	-1.595312
	10.055000	-1.601759
	10.060000	-1.679119
	10.065000	-1.669449
	10.070000	-1.595312
	10.075000	-1.598535
	10.080000	-1.675896
	10.085000	-1.669449
	10.090000	-1.588865
	10.095000	-1.595312
	10.100000	-1.679119
	10.105000	-1.666226
	10.110000	-1.588865
	10.115000	-1.601759
	10.120000	-1.675896
	10.125000	-1.669449
	10.130000	-1.595312
	10.135000	-1.598535
	10.140000	-1.675896
	10.145000	-1.669449
	10.150000	-1.592089
	10.155000	-1.598535
	10.160000	-1.679119
	10.165000	-1.675896
	10.170000	-1.595312
	10.175000	-1.608205
	10.180000	-1.679119
	10.185000	-1.672673
	10.190000	-1.598535
	10.195000	-1.608205
	10.200000	-1.675896
	10.205000	-1.682343
	10.210000	-1.598535
	10.215000	-1.614652
	10.220000	-1.692013
	10.225000	-1.679119
	10.230000	-1.608205
	10.235000	-1.614652
	10.240000	-1.692013
	10.245000	-1.682343
	10.250000	-1.608205
	10.255000	-1.611429
	10.260000	-1.688789
	10.265000	-1.675896
	10.270000	-1.598535
	10.275000	-1.608205
	10.280000	-1.688789
	10.285000	-1.688789
	10.290000	-1.614652
	10.295000	-1.617875
	10.300000	-1.698459
	10.305000	-1.692013
	10.310000	-1.614652
	10.315000	-1.617875
	10.320000	-1.692013
	10.325000	-1.688789
	10.330000	-1.611429
	10.335000	-1.614652
	10.340000	-1.698459
	10.345000	-1.695236
	10.350000	-1.621099
	10.355000	-1.627546
	10.360000	-1.701683
	10.365000	-1.692013
	10.370000	-1.614652
	10.375000	-1.624322
	10.380000	-1.701683
	10.385000	-1.695236
	10.390000	-1.621099
	10.395000	-1.621099
	10.400000	-1.704906
	10.405000	-1.692013
	10.410000	-1.624322
	10.415000	-1.630769
	10.420000	-1.704906
	10.425000	-1.698459
	10.430000	-1.624322
	10.435000	-1.627546
	10.440000	-1.708129
	10.445000	-1.701683
	10.450000	-1.624322
	10.455000	-1.621099
	10.460000	-1.708129
	10.465000	-1.698459
	10.470000	-1.627546
	10.475000	-1.627546
	10.480000	-1.704906
	10.485000	-1.701683
	10.490000	-1.627546
	10.495000	-1.627546
	10.500000	-1.704906
	10.505000	-1.701683
	10.510000	-1.624322
	10.515000	-1.630769
	10.520000	-1.711353
	10.525000	-1.704906
	10.530000	-1.624322
	10.535000	-1.637216
	10.540000	-1.711353
	10.545000	-1.711353
	10.550000	-1.630769
	10.555000	-1.637216
	10.560000	-1.708129
	10.565000	-1.714576
	10.570000	-1.630769
	10.575000	-1.633992
	10.580000	-1.708129
	10.585000	-1.717800
	10.590000	-1.633992
	10.595000	-1.633992
	10.600000	-1.714576
	10.605000	-1.714576
	10.610000	-1.640439
	10.615000	-1.640439
	10.620000	-1.717800
	10.625000	-1.714576
	10.630000	-1.646886
	10.635000	-1.643662
	10.640000	-1.724246
	10.645000	-1.727470
	10.650000	-1.643662
	10.655000	-1.650109
	10.660000	-1.727470
	10.665000	-1.733916
	10.670000	-1.646886
	10.675000	-1.650109
	10.680000	-1.730693
	10.685000	-1.730693
	10.690000	-1.653332
	10.695000	-1.656556
	10.700000	-1.737140
	10.705000	-1.737140
	10.710000	-1.659779
	10.715000	-1.653332
	10.720000	-1.740363
	10.725000	-1.740363
	10.730000	-1.666226
	10.735000	-1.663002
	10.740000	-1.740363
	10.745000	-1.743586
	10.750000	-1.669449
	10.755000	-1.659779
	10.760000	-1.746810
	10.765000	-1.750033
	10.770000	-1.669449
	10.775000	-1.666226
	10.780000	-1.740363
	10.785000	-1.740363
	10.790000	-1.663002
	10.795000	-1.663002
	10.800000	-1.743586
	10.805000	-1.746810
	10.810000	-1.666226
	10.815000	-1.663002
	10.820000	-1.743586
	10.825000	-1.740363
	10.830000	-1.669449
	10.835000	-1.666226
	10.840000	-1.743586
	10.845000	-1.740363
	10.850000	-1.666226
	10.855000	-1.663002
	10.860000	-1.740363
	10.865000	-1.743586
	10.870000	-1.666226
	10.875000	-1.659779
	10.880000	-1.743586
	10.885000	-1.740363
	10.890000	-1.669449
	10.895000	-1.650109
	10.900000	-1.737140
	10.905000	-1.737140
	10.910000	-1.663002
	10.915000	-1.653332
	10.920000	-1.730693
	10.925000	-1.733916
	10.930000	-1.659779
	10.935000	-1.653332
	10.940000	-1.730693
	10.945000	-1.730693
	10.950000	-1.659779
	10.955000	-1.656556
	10.960000	-1.724246
	10.965000	-1.733916
	10.970000	-1.653332
	10.975000	-1.650109
	10.980000	-1.727470
	10.985000	-1.727470
	10.990000	-1.653332
	10.995000	-1.643662
	11.000000	-1.721023
	11.005000	-1.721023
	11.010000	-1.643662
	11.015000	-1.633992
	11.020000	-1.711353
	11.025000	-1.714576
	11.030000	-1.627546
	11.035000	-1.621099
	11.040000	-1.698459
	11.045000	-1.698459
	11.050000	-1.611429
	11.055000	-1.604982
	11.060000	-1.685566
	11.065000	-1.682343
	11.070000	-1.601759
	11.075000	-1.595312
	11.080000	-1.669449
	11.085000	-1.669449
	11.090000	-1.592089
	11.095000	-1.582418
	11.100000	-1.663002
	11.105000	-1.663002
	11.110000	-1.579195
	11.115000	-1.575972
	11.120000	-1.650109
	11.125000	-1.650109
	11.130000	-1.579195
	11.135000	-1.569525
	11.140000	-1.646886
	11.145000	-1.650109
	11.150000	-1.572748
	11.155000	-1.566302
	11.160000	-1.646886
	11.165000	-1.650109
	11.170000	-1.575972
	11.175000	-1.569525
	11.180000	-1.646886
	11.185000	-1.646886
	11.190000	-1.585642
	11.195000	-1.575972
	11.200000	-1.650109
	11.205000	-1.656556
	11.210000	-1.579195
	11.215000	-1.569525
	11.220000	-1.653332
	11.225000	-1.656556
	11.230000	-1.582418
	11.235000	-1.575972
	11.240000	-1.653332
	11.245000	-1.663002
	11.250000	-1.588865
	11.255000	-1.579195
	11.260000	-1.653332
	11.265000	-1.666226
	11.270000	-1.592089
	11.275000	-1.572748
	11.280000	-1.656556
	11.285000	-1.675896
	11.290000	-1.595312
	11.295000	-1.579195
	11.300000	-1.666226
	11.305000	-1.669449
	11.310000	-1.601759
	11.315000	-1.585642
	11.320000	-1.663002
	11.325000	-1.675896
	11.330000	-1.598535
	11.335000	-1.582418
	11.340000	-1.656556
	11.345000	-1.672673
	11.350000	-1.588865
	11.355000	-1.582418
	11.360000	-1.659779
	11.365000	-1.672673
	11.370000	-1.598535
	11.375000	-1.582418
	11.380000	-1.659779
	11.385000	-1.663002
	11.390000	-1.582418
	11.395000	-1.579195
	11.400000	-1.656556
	11.405000	-1.659779
	11.410000	-1.585642
	11.415000	-1.575972
	11.420000	-1.656556
	11.425000	-1.663002
	11.430000	-1.588865
	11.435000	-1.575972
	11.440000	-1.650109
	11.445000	-1.663002
	11.450000	-1.582418
	11.455000	-1.572748
	11.460000	-1.650109
	11.465000	-1.663002
	11.470000	-1.582418
	11.475000	-1.569525
	11.480000	-1.646886
	11.485000	-1.650109
	11.490000	-1.579195
	11.495000	-1.566302
	11.500000	-1.643662
	11.505000	-1.663002
	11.510000	-1.575972
	11.515000	-1.563078
	11.520000	-1.643662
	11.525000	-1.663002
	11.530000	-1.585642
	11.535000	-1.569525
	11.540000	-1.646886
	11.545000	-1.666226
	11.550000	-1.585642
	11.555000	-1.575972
	11.560000	-1.656556
	11.565000	-1.672673
	11.570000	-1.604982
	11.575000	-1.585642
	11.580000	-1.666226
	11.585000	-1.679119
	11.590000	-1.611429
	11.595000	-1.592089
	11.600000	-1.669449
	11.605000	-1.685566
	11.610000	-1.608205
	11.615000	-1.598535
	11.620000	-1.675896
	11.625000	-1.688789
	11.630000	-1.611429
	11.635000	-1.595312
	11.640000	-1.672673
	11.645000	-1.685566
	11.650000	-1.614652
	11.655000	-1.595312
	11.660000	-1.669449
	11.665000	-1.675896
	11.670000	-1.595312
	11.675000	-1.575972
	11.680000	-1.650109
	11.685000	-1.663002
	11.690000	-1.575972
	11.695000	-1.550185
	11.700000	-1.624322
	11.705000	-1.624322
	11.710000	-1.546962
	11.715000	-1.530845
	11.720000	-1.592089
	11.725000	-1.608205
	11.730000	-1.527621
	11.735000	-1.505058
	11.740000	-1.572748
	11.745000	-1.595312
	11.750000	-1.511505
	11.755000	-1.488941
	11.760000	-1.559855
	11.765000	-1.572748
	11.770000	-1.495388
	11.775000	-1.476048
	11.780000	-1.546962
	11.785000	-1.556632
	11.790000	-1.472824
	11.795000	-1.450261
	11.800000	-1.521175
	11.805000	-1.527621
	11.810000	-1.447037
	11.815000	-1.424474
	11.820000	-1.482494
	11.825000	-1.492164
	11.830000	-1.401910
	11.835000	-1.382570
	11.840000	-1.450261
	11.845000	-1.456707
	11.850000	-1.379347
	11.855000	-1.360007
	11.860000	-1.424474
	11.865000	-1.437367
	11.870000	-1.360007
	11.875000	-1.337443
	11.880000	-1.411580
	11.885000	-1.424474
	11.890000	-1.347113
	11.895000	-1.327773
	11.900000	-1.398687
	11.905000	-1.421251
	11.910000	-1.337443
	11.915000	-1.321326
	11.920000	-1.395464
	11.925000	-1.411580
	11.930000	-1.343890
	11.935000	-1.321326
	11.940000	-1.392240
	11.945000	-1.414804
	11.950000	-1.343890
	11.955000	-1.324550
	11.960000	-1.405134
	11.965000	-1.424474
	11.970000	-1.350337
	11.975000	-1.340667
	11.980000	-1.414804
	11.985000	-1.440591
	11.990000	-1.372900
	11.995000	-1.360007
	12.000000	-1.427697
	12.005000	-1.450261
	12.010000	-1.389017
	12.015000	-1.372900
	12.020000	-1.450261
	12.025000	-1.482494
	12.030000	-1.418027
	12.035000	-1.401910
	12.040000	-1.479271
	12.045000	-1.498611
	12.050000	-1.437367
	12.055000	-1.427697
	12.060000	-1.505058
	12.065000	-1.537291
	12.070000	-1.469601
	12.075000	-1.459931
	12.080000	-1.540515
	12.085000	-1.563078
	12.090000	-1.498611
	12.095000	-1.476048
	12.100000	-1.553408
	12.105000	-1.579195
	12.110000	-1.505058
	12.115000	-1.485718
	12.120000	-1.563078
	12.125000	-1.588865
	12.130000	-1.517951
	12.135000	-1.488941
	12.140000	-1.563078
	12.145000	-1.585642
	12.150000	-1.521175
	12.155000	-1.505058
	12.160000	-1.569525
	12.165000	-1.595312
	12.170000	-1.527621
	12.175000	-1.508281
	12.180000	-1.582418
	12.185000	-1.598535
	12.190000	-1.527621
	12.195000	-1.501835
	12.200000	-1.579195
	12.205000	-1.598535
	12.210000	-1.530845
	12.215000	-1.501835
	12.220000	-1.579195
	12.225000	-1.611429
	12.230000	-1.534068
	12.235000	-1.514728
	12.240000	-1.585642
	12.245000	-1.611429
	12.250000	-1.534068
	12.255000	-1.508281
	12.260000	-1.592089
	12.265000	-1.608205
	12.270000	-1.537291
	12.275000	-1.514728
	12.280000	-1.585642
	12.285000	-1.611429
	12.290000	-1.540515
	12.295000	-1.514728
	12.300000	-1.592089
	12.305000	-1.617875
	12.310000	-1.543738
	12.315000	-1.511505
	12.320000	-1.592089
	12.325000	-1.611429
	12.330000	-1.543738
	12.335000	-1.514728
	12.340000	-1.592089
	12.345000	-1.614652
	12.350000	-1.540515
	12.355000	-1.517951
	12.360000	-1.592089
	12.365000	-1.611429
	12.370000	-1.540515
	12.375000	-1.517951
	12.380000	-1.585642
	12.385000	-1.614652
	12.390000	-1.543738
	12.395000	-1.514728
	12.400000	-1.592089
	12.405000	-1.614652
	12.410000	-1.543738
	12.415000	-1.514728
	12.420000	-1.588865
	12.425000	-1.611429
	12.430000	-1.534068
	12.435000	-1.511505
	12.440000	-1.582418
	12.445000	-1.614652
	12.450000	-1.540515
	12.455000	-1.514728
	12.460000	-1.579195
	12.465000	-1.604982
	12.470000	-1.537291
	12.475000	-1.514728
	12.480000	-1.579195
	12.485000	-1.611429
	12.490000	-1.546962
	12.495000	-1.511505
	12.500000	-1.592089
	12.505000	-1.614652
	12.510000	-1.540515
	12.515000	-1.517951
	12.520000	-1.592089
	12.525000	-1.621099
	12.530000	-1.556632
	12.535000	-1.521175
	12.540000	-1.592089
	12.545000	-1.630769
	12.550000	-1.556632
	12.555000	-1.521175
	12.560000	-1.598535
	12.565000	-1.627546
	12.570000	-1.553408
	12.575000	-1.524398
	12.580000	-1.601759
	12.585000	-1.630769
	12.590000	-1.563078
	12.595000	-1.530845
	12.600000	-1.604982
	12.605000	-1.630769
	12.610000	-1.556632
	12.615000	-1.527621
	12.620000	-1.598535
	12.625000	-1.637216
	12.630000	-1.563078
	12.635000	-1.530845
	12.640000	-1.601759
	12.645000	-1.633992
	12.650000	-1.566302
	12.655000	-1.530845
	12.660000	-1.604982
	12.665000	-1.637216
	12.670000	-1.569525
	12.675000	-1.537291
	12.680000	-1.617875
	12.685000	-1.640439
	12.690000	-1.569525
	12.695000	-1.550185
	12.700000	-1.614652
	12.705000	-1.646886
	12.710000	-1.572748
	12.715000	-1.550185
	12.720000	-1.614652
	12.725000	-1.646886
	12.730000	-1.579195
	12.735000	-1.546962
	12.740000	-1.624322
	12.745000	-1.650109
	12.750000	-1.585642
	12.755000	-1.546962
	12.760000	-1.617875
	12.765000	-1.650109
	12.770000	-1.575972
	12.775000	-1.546962
	12.780000	-1.614652
	12.785000	-1.646886
	12.790000	-1.572748
	12.795000	-1.546962
	12.800000	-1.617875
	12.805000	-1.650109
	12.810000	-1.585642
	12.815000	-1.543738
	12.820000	-1.617875
	12.825000	-1.643662
	12.830000	-1.579195
	12.835000	-1.546962
	12.840000	-1.621099
	12.845000	-1.650109
	12.850000	-1.579195
	12.855000	-1.546962
	12.860000	-1.614652
	12.865000	-1.643662
	12.870000	-1.582418
	12.875000	-1.546962
	12.880000	-1.611429
	12.885000	-1.646886
	12.890000	-1.579195
	12.895000	-1.543738
	12.900000	-1.617875
	12.905000	-1.643662
	12.910000	-1.575972
	12.915000	-1.540515
	12.920000	-1.608205
	12.925000	-1.646886
	12.930000	-1.579195
	12.935000	-1.540515
	12.940000	-1.611429
	12.945000	-1.643662
	12.950000	-1.579195
	12.955000	-1.543738
	12.960000	-1.608205
	12.965000	-1.650109
	12.970000	-1.575972
	12.975000	-1.540515
	12.980000	-1.604982
	12.985000	-1.643662
	12.990000	-1.572748
	12.995000	-1.540515
	13.000000	-1.608205
	13.005000	-1.643662
	13.010000	-1.579195
	13.015000	-1.540515
	13.020000	-1.601759
	13.025000	-1.646886
	13.030000	-1.569525
	13.035000	-1.537291
	13.040000	-1.611429
	13.045000	-1.640439
	13.050000	-1.569525
	13.055000	-1.537291
	13.060000	-1.604982
	13.065000	-1.643662
	13.070000	-1.572748
	13.075000	-1.530845
	13.080000	-1.601759
	13.085000	-1.643662
	13.090000	-1.569525
	13.095000	-1.534068
	13.100000	-1.604982
	13.105000	-1.646886
	13.110000	-1.569525
	13.115000	-1.530845
	13.120000	-1.604982
	13.125000	-1.646886
	13.130000	-1.569525
	13.135000	-1.527621
	13.140000	-1.598535
	13.145000	-1.633992
	13.150000	-1.569525
	13.155000	-1.527621
	13.160000	-1.601759
	13.165000	-1.640439
	13.170000	-1.563078
	13.175000	-1.527621
	13.180000	-1.595312
	13.185000	-1.633992
	13.190000	-1.566302
	13.195000	-1.524398
	13.200000	-1.592089
	13.205000	-1.627546
	13.210000	-1.556632
	13.215000	-1.527621
	13.220000	-1.595312
	13.225000	-1.624322
	13.230000	-1.563078
	13.235000	-1.521175
	13.240000	-1.585642
	13.245000	-1.627546
	13.250000	-1.559855
	13.255000	-1.521175
	13.260000	-1.585642
	13.265000	-1.624322
	13.270000	-1.553408
	13.275000	-1.517951
	13.280000	-1.575972
	13.285000	-1.624322
	13.290000	-1.556632
	13.295000	-1.514728
	13.300000	-1.575972
	13.305000	-1.617875
	13.310000	-1.553408
	13.315000	-1.511505
	13.320000	-1.575972
	13.325000	-1.617875
	13.330000	-1.550185
	13.335000	-1.511505
	13.340000	-1.575972
	13.345000	-1.617875
	13.350000	-1.553408
	13.355000	-1.508281
	13.360000	-1.575972
	13.365000	-1.614652
	13.370000	-1.550185
	13.375000	-1.508281
	13.380000	-1.572748
	13.385000	-1.614652
	13.390000	-1.543738
	13.395000	-1.498611
	13.400000	-1.569525
	13.405000	-1.608205
	13.410000	-1.546962
	13.415000	-1.501835
	13.420000	-1.566302
	13.425000	-1.611429
	13.430000	-1.543738
	13.435000	-1.495388
	13.440000	-1.566302
	13.445000	-1.604982
	13.450000	-1.546962
	13.455000	-1.501835
	13.460000	-1.566302
	13.465000	-1.611429
	13.470000	-1.537291
	13.475000	-1.495388
	13.480000	-1.563078
	13.485000	-1.608205
	13.490000	-1.537291
	13.495000	-1.498611
	13.500000	-1.559855
	13.505000	-1.598535
	13.510000	-1.537291
	13.515000	-1.492164
	13.520000	-1.559855
	13.525000	-1.601759
	13.530000	-1.530845
	13.535000	-1.482494
	13.540000	-1.556632
	13.545000	-1.595312
	13.550000	-1.534068
	13.555000	-1.485718
	13.560000	-1.550185
	13.565000	-1.592089
	13.570000	-1.530845
	13.575000	-1.482494
	13.580000	-1.550185
	13.585000	-1.592089
	13.590000	-1.524398
	13.595000	-1.482494
	13.600000	-1.534068
	13.605000	-1.582418
	13.610000	-1.521175
	13.615000	-1.472824
	13.620000	-1.540515
	13.625000	-1.579195
	13.630000	-1.517951
	13.635000	-1.469601
	13.640000	-1.530845
	13.645000	-1.585642
	13.650000	-1.514728
	13.655000	-1.466378
	13.660000	-1.524398
	13.665000	-1.575972
	13.670000	-1.511505
	13.675000	-1.459931
	13.680000	-1.524398
	13.685000	-1.572748
	13.690000	-1.508281
	13.695000	-1.456707
	13.700000	-1.521175
	13.705000	-1.569525
	13.710000	-1.501835
	13.715000	-1.463154
	13.720000	-1.521175
	13.725000	-1.566302
	13.730000	-1.508281
	13.735000	-1.456707
	13.740000	-1.521175
	13.745000	-1.566302
	13.750000	-1.501835
	13.755000	-1.459931
	13.760000	-1.521175
	13.765000	-1.556632
	13.770000	-1.501835
	13.775000	-1.450261
	13.780000	-1.521175
	13.785000	-1.563078
	13.790000	-1.501835
	13.795000	-1.450261
	13.800000	-1.514728
	13.805000	-1.563078
	13.810000	-1.501835
	13.815000	-1.456707
	13.820000	-1.511505
	13.825000	-1.559855
	13.830000	-1.495388
	13.835000	-1.450261
	13.840000	-1.511505
	13.845000	-1.559855
	13.850000	-1.492164
	13.855000	-1.437367
	13.860000	-1.498611
	13.865000	-1.543738
	13.870000	-1.482494
	13.875000	-1.427697
	13.880000	-1.488941
	13.885000	-1.534068
	13.890000	-1.466378
	13.895000	-1.414804
	13.900000	-1.476048
	13.905000	-1.521175
	13.910000	-1.456707
	13.915000	-1.401910
	13.920000	-1.463154
	13.925000	-1.505058
	13.930000	-1.434144
	13.935000	-1.385794
	13.940000	-1.443814
	13.945000	-1.482494
	13.950000	-1.414804
	13.955000	-1.360007
	13.960000	-1.411580
	13.965000	-1.456707
	13.970000	-1.395464
	13.975000	-1.347113
	13.980000	-1.405134
	13.985000	-1.447037
	13.990000	-1.379347
	13.995000	-1.324550
	14.000000	-1.376124
	14.005000	-1.414804
	14.010000	-1.353560
	14.015000	-1.295540
	14.020000	-1.350337
	14.025000	-1.392240
	14.030000	-1.327773
	14.035000	-1.276199
	14.040000	-1.337443
	14.045000	-1.376124
	14.050000	-1.318103
	14.055000	-1.266529
	14.060000	-1.321326
	14.065000	-1.366453
	14.070000	-1.295540
	14.075000	-1.247189
	14.080000	-1.305210
	14.085000	-1.353560
	14.090000	-1.295540
	14.095000	-1.237519
	14.100000	-1.295540
	14.105000	-1.347113
	14.110000	-1.285869
	14.115000	-1.243966
	14.120000	-1.289093
	14.125000	-1.350337
	14.130000	-1.295540
	14.135000	-1.243966
	14.140000	-1.301986
	14.145000	-1.360007
	14.150000	-1.295540
	14.155000	-1.250413
	14.160000	-1.311656
	14.165000	-1.363230
	14.170000	-1.311656
	14.175000	-1.266529
	14.180000	-1.324550
	14.185000	-1.379347
	14.190000	-1.321326
	14.195000	-1.276199
	14.200000	-1.343890
	14.205000	-1.401910
	14.210000	-1.347113
	14.215000	-1.308433
	14.220000	-1.366453
	14.225000	-1.424474
	14.230000	-1.379347
	14.235000	-1.337443
	14.240000	-1.405134
	14.245000	-1.459931
	14.250000	-1.401910
	14.255000	-1.369677
	14.260000	-1.427697
	14.265000	-1.485718
	14.270000	-1.430921
	14.275000	-1.389017
	14.280000	-1.447037
	14.285000	-1.505058
	14.290000	-1.450261
	14.295000	-1.401910
	14.300000	-1.459931
	14.305000	-1.505058
	14.310000	-1.453484
	14.315000	-1.405134
	14.320000	-1.469601
	14.325000	-1.521175
	14.330000	-1.463154
	14.335000	-1.411580
	14.340000	-1.466378
	14.345000	-1.521175
	14.350000	-1.466378
	14.355000	-1.411580
	14.360000	-1.469601
	14.365000	-1.517951
	14.370000	-1.466378
	14.375000	-1.414804
	14.380000	-1.469601
	14.385000	-1.524398
	14.390000	-1.469601
	14.395000	-1.411580
	14.400000	-1.466378
	14.405000	-1.517951
	14.410000	-1.463154
	14.415000	-1.411580
	14.420000	-1.466378
	14.425000	-1.517951
	14.430000	-1.463154
	14.435000	-1.408357
	14.440000	-1.469601
	14.445000	-1.514728
	14.450000	-1.456707
	14.455000	-1.405134
	14.460000	-1.463154
	14.465000	-1.511505
	14.470000	-1.459931
	14.475000	-1.401910
	14.480000	-1.459931
	14.485000	-1.511505
	14.490000	-1.456707
	14.495000	-1.395464
	14.500000	-1.456707
	14.505000	-1.514728
	14.510000	-1.453484
	14.515000	-1.401910
	14.520000	-1.450261
	14.525000	-1.505058
	14.530000	-1.453484
	14.535000	-1.398687
	14.540000	-1.453484
	14.545000	-1.505058
	14.550000	-1.453484
	14.555000	-1.398687
	14.560000	-1.450261
	14.565000	-1.505058
	14.570000	-1.453484
	14.575000	-1.398687
	14.580000	-1.453484
	14.585000	-1.511505
	14.590000	-1.450261
	14.595000	-1.395464
	14.600000	-1.450261
	14.605000	-1.508281
	14.610000	-1.456707
	14.615000	-1.401910
	14.620000	-1.453484
	14.625000	-1.514728
	14.630000	-1.463154
	14.635000	-1.401910
	14.640000	-1.453484
	14.645000	-1.508281
	14.650000	-1.466378
	14.655000	-1.411580
	14.660000	-1.459931
	14.665000	-1.521175
	14.670000	-1.466378
	14.675000	-1.411580
	14.680000	-1.459931
	14.685000	-1.517951
	14.690000	-1.469601
	14.695000	-1.414804
	14.700000	-1.466378
	14.705000	-1.521175
	14.710000	-1.476048
	14.715000	-1.414804
	14.720000	-1.469601
	14.725000	-1.527621
	14.730000	-1.479271
	14.735000	-1.421251
	14.740000	-1.466378
	14.745000	-1.530845
	14.750000	-1.476048
	14.755000	-1.421251
	14.760000	-1.469601
	14.765000	-1.530845
	14.770000	-1.476048
	14.775000	-1.421251
	14.780000	-1.479271
	14.785000	-1.527621
	14.790000	-1.479271
	14.795000	-1.424474
	14.800000	-1.472824
	14.805000	-1.534068
	14.810000	-1.479271
	14.815000	-1.430921
	14.820000	-1.476048
	14.825000	-1.540515
	14.830000	-1.479271
	14.835000	-1.424474
	14.840000	-1.479271
	14.845000	-1.534068
	14.850000	-1.485718
	14.855000	-1.424474
	14.860000	-1.476048
	14.865000	-1.537291
	14.870000	-1.482494
	14.875000	-1.427697
	14.880000	-1.476048
	14.885000	-1.530845
	14.890000	-1.482494
	14.895000	-1.427697
	14.900000	-1.479271
	14.905000	-1.537291
	14.910000	-1.482494
	14.915000	-1.421251
	14.920000	-1.472824
	14.925000	-1.534068
	14.930000	-1.488941
	14.935000	-1.427697
	14.940000	-1.476048
	14.945000	-1.530845
	14.950000	-1.482494
	14.955000	-1.424474
	14.960000	-1.469601
	14.965000	-1.530845
	14.970000	-1.479271
	14.975000	-1.418027
	14.980000	-1.469601
	14.985000	-1.534068
	14.990000	-1.482494
	14.995000	-1.414804
	15.000000	-1.469601
	15.005000	-1.530845
	15.010000	-1.479271
	15.015000	-1.418027
	15.020000	-1.469601
	15.025000	-1.524398
	15.030000	-1.476048
	15.035000	-1.418027
	15.040000	-1.459931
	15.045000	-1.530845
	15.050000	-1.479271
	15.055000	-1.418027
	15.060000	-1.469601
	15.065000	-1.521175
	15.070000	-1.476048
	15.075000	-1.418027
	15.080000	-1.459931
	15.085000	-1.524398
	15.090000	-1.469601
	15.095000	-1.411580
	15.100000	-1.463154
	15.105000	-1.524398
	15.110000	-1.476048
	15.115000	-1.418027
	15.120000	-1.463154
	15.125000	-1.524398
	15.130000	-1.479271
	15.135000	-1.414804
	15.140000	-1.459931
	15.145000	-1.527621
	15.150000	-1.476048
	15.155000	-1.421251
	15.160000	-1.459931
	15.165000	-1.524398
	15.170000	-1.479271
	15.175000	-1.414804
	15.180000	-1.463154
	15.185000	-1.524398
	15.190000	-1.472824
	15.195000	-1.408357
	15.200000	-1.459931
	15.205000	-1.521175
	15.210000	-1.479271
	15.215000	-1.418027
	15.220000	-1.466378
	15.225000	-1.527621
	15.230000	-1.476048
	15.235000	-1.418027
	15.240000	-1.459931
	15.245000	-1.527621
	15.250000	-1.482494
	15.255000	-1.418027
	15.260000	-1.463154
	15.265000	-1.527621
	15.270000	-1.479271
	15.275000	-1.421251
	15.280000	-1.466378
	15.285000	-1.530845
	15.290000	-1.476048
	15.295000	-1.421251
	15.300000	-1.466378
	15.305000	-1.527621
	15.310000	-1.485718
	15.315000	-1.424474
	15.320000	-1.466378
	15.325000	-1.527621
	15.330000	-1.485718
	15.335000	-1.418027
	15.340000	-1.466378
	15.345000	-1.527621
	15.350000	-1.485718
	15.355000	-1.418027
	15.360000	-1.463154
	15.365000	-1.530845
	15.370000	-1.482494
	15.375000	-1.414804
	15.380000	-1.466378
	15.385000	-1.530845
	15.390000	-1.479271
	15.395000	-1.414804
	15.400000	-1.463154
	15.405000	-1.524398
	15.410000	-1.476048
	15.415000	-1.411580
	15.420000	-1.456707
	15.425000	-1.521175
	15.430000	-1.472824
	15.435000	-1.418027
	15.440000	-1.459931
	15.445000	-1.517951
	15.450000	-1.472824
	15.455000	-1.408357
	15.460000	-1.447037
	15.465000	-1.524398
	15.470000	-1.472824
	15.475000	-1.401910
	15.480000	-1.450261
	15.485000	-1.521175
	15.490000	-1.472824
	15.495000	-1.408357
	15.500000	-1.453484
	15.505000	-1.514728
	15.510000	-1.472824
	15.515000	-1.401910
	15.520000	-1.443814
	15.525000	-1.511505
	15.530000	-1.469601
	15.535000	-1.405134
	15.540000	-1.450261
	15.545000	-1.511505
	15.550000	-1.463154
	15.555000	-1.401910
	15.560000	-1.443814
	15.565000	-1.505058
	15.570000	-1.466378
	15.575000	-1.398687
	15.580000	-1.440591
	15.585000	-1.511505
	15.590000	-1.469601
	15.595000	-1.401910
	15.600000	-1.434144
	15.605000	-1.508281
	15.610000	-1.463154
	15.615000	-1.405134
	15.620000	-1.443814
	15.625000	-1.505058
	15.630000	-1.463154
	15.635000	-1.398687
	15.640000	-1.437367
	15.645000	-1.505058
	15.650000	-1.463154
	15.655000	-1.392240
	15.660000	-1.434144
	15.665000	-1.508281
	15.670000	-1.459931
	15.675000	-1.392240
	15.680000	-1.434144
	15.685000	-1.498611
	15.690000	-1.459931
	15.695000	-1.392240
	15.700000	-1.430921
	15.705000	-1.501835
	15.710000	-1.463154
	15.715000	-1.392240
	15.720000	-1.430921
	15.725000	-1.495388
	15.730000	-1.450261
	15.735000	-1.389017
	15.740000	-1.427697
	15.745000	-1.498611
	15.750000	-1.456707
	15.755000	-1.389017
	15.760000	-1.427697
	15.765000	-1.495388
	15.770000	-1.453484
	15.775000	-1.385794
	15.780000	-1.424474
	15.785000	-1.488941
	15.790000	-1.447037
	15.795000	-1.379347
	15.800000	-1.418027
	15.805000	-1.485718
	15.810000	-1.443814
	15.815000	-1.376124
	15.820000	-1.408357
	15.825000	-1.485718
	15.830000	-1.440591
	15.835000	-1.369677
	15.840000	-1.398687
	15.845000	-1.469601
	15.850000	-1.427697
	15.855000	-1.363230
	15.860000	-1.398687
	15.865000	-1.456707
	15.870000	-1.421251
	15.875000	-1.356783
	15.880000	-1.392240
	15.885000	-1.463154
	15.890000	-1.414804
	15.895000	-1.350337
	15.900000	-1.382570
	15.905000	-1.456707
	15.910000	-1.411580
	15.915000	-1.340667
	15.920000	-1.376124
	15.925000	-1.450261
	15.930000	-1.401910
	15.935000	-1.340667
	15.940000	-1.372900
	15.945000	-1.434144
	15.950000	-1.395464
	15.955000	-1.324550
	15.960000	-1.369677
	15.965000	-1.434144
	15.970000	-1.392240
	15.975000	-1.321326
	15.980000	-1.360007
	15.985000	-1.430921
	15.990000	-1.395464
	15.995000	-1.327773
	16.000000	-1.360007
	16.005000	-1.427697
	16.010000	-1.395464
	16.015000	-1.318103
	16.020000	-1.366453
	16.025000	-1.430921
	16.030000	-1.398687
	16.035000	-1.324550
	16.040000	-1.366453
	16.045000	-1.434144
	16.050000	-1.395464
	16.055000	-1.334220
	16.060000	-1.369677
	16.065000	-1.437367
	16.070000	-1.398687
	16.075000	-1.337443
	16.080000	-1.366453
	16.085000	-1.440591
	16.090000	-1.401910
	16.095000	-1.330996
	16.100000	-1.366453
	16.105000	-1.437367
	16.110000	-1.401910
	16.115000	-1.330996
	16.120000	-1.369677
	16.125000	-1.437367
	16.130000	-1.392240
	16.135000	-1.327773
	16.140000	-1.356783
	16.145000	-1.421251
	16.150000	-1.389017
	16.155000	-1.321326
	16.160000	-1.356783
	16.165000	-1.418027
	16.170000	-1.379347
	16.175000	-1.311656
	16.180000	-1.347113
	16.185000	-1.405134
	16.190000	-1.366453
	16.195000	-1.292316
	16.200000	-1.321326
	16.205000	-1.389017
	16.210000	-1.347113
	16.215000	-1.279423
	16.220000	-1.301986
	16.225000	-1.366453
	16.230000	-1.321326
	16.235000	-1.243966
	16.240000	-1.272976
	16.245000	-1.334220
	16.250000	-1.292316
	16.255000	-1.214956
	16.260000	-1.231072
	16.265000	-1.292316
	16.270000	-1.260083
	16.275000	-1.182722
	16.280000	-1.211732
	16.285000	-1.282646
	16.290000	-1.234296
	16.295000	-1.160158
	16.300000	-1.192392
	16.305000	-1.256859
	16.310000	-1.214956
	16.315000	-1.150488
	16.320000	-1.182722
	16.325000	-1.250413
	16.330000	-1.211732
	16.335000	-1.144042
	16.340000	-1.169829
	16.345000	-1.240742
	16.350000	-1.208509
	16.355000	-1.144042
	16.360000	-1.179499
	16.365000	-1.247189
	16.370000	-1.221402
	16.375000	-1.147265
	16.380000	-1.182722
	16.385000	-1.256859
	16.390000	-1.234296
	16.395000	-1.166605
	16.400000	-1.195615
	16.405000	-1.279423
	16.410000	-1.250413
	16.415000	-1.192392
	16.420000	-1.224626
	16.425000	-1.301986
	16.430000	-1.276199
	16.435000	-1.214956
	16.440000	-1.253636
	16.445000	-1.330996
	16.450000	-1.308433
	16.455000	-1.243966
	16.460000	-1.282646
	16.465000	-1.360007
	16.470000	-1.334220
	16.475000	-1.272976
	16.480000	-1.311656
	16.485000	-1.389017
	16.490000	-1.363230
	16.495000	-1.295540
	16.500000	-1.327773
	16.505000	-1.405134
	16.510000	-1.382570
	16.515000	-1.318103
	16.520000	-1.340667
	16.525000	-1.418027
	16.530000	-1.385794
	16.535000	-1.324550
	16.540000	-1.353560
	16.545000	-1.427697
	16.550000	-1.395464
	16.555000	-1.324550
	16.560000	-1.356783
	16.565000	-1.430921
	16.570000	-1.398687
	16.575000	-1.324550
	16.580000	-1.360007
	16.585000	-1.430921
	16.590000	-1.401910
	16.595000	-1.327773
	16.600000	-1.363230
	16.605000	-1.430921
	16.610000	-1.401910
	16.615000	-1.330996
	16.620000	-1.366453
	16.625000	-1.434144
	16.630000	-1.401910
	16.635000	-1.330996
	16.640000	-1.360007
	16.645000	-1.427697
	16.650000	-1.398687
	16.655000	-1.334220
	16.660000	-1.350337
	16.665000	-1.427697
	16.670000	-1.392240
	16.675000	-1.321326
	16.680000	-1.356783
	16.685000	-1.430921
	16.690000	-1.398687
	16.695000	-1.327773
	16.700000	-1.347113
	16.705000	-1.421251
	16.710000	-1.398687
	16.715000	-1.330996
	16.720000	-1.350337
	16.725000	-1.421251
	16.730000	-1.398687
	16.735000	-1.321326
	16.740000	-1.350337
	16.745000	-1.424474
	16.750000	-1.401910
	16.755000	-1.327773
	16.760000	-1.353560
	16.765000	-1.427697
	16.770000	-1.401910
	16.775000	-1.321326
	16.780000	-1.350337
	16.785000	-1.434144
	16.790000	-1.405134
	16.795000	-1.330996
	16.800000	-1.350337
	16.805000	-1.430921
	16.810000	-1.408357
	16.815000	-1.334220
	16.820000	-1.366453
	16.825000	-1.434144
	16.830000	-1.411580
	16.835000	-1.343890
	16.840000	-1.363230
	16.845000	-1.437367
	16.850000	-1.418027
	16.855000	-1.337443
	16.860000	-1.372900
	16.865000	-1.443814
	16.870000	-1.424474
	16.875000	-1.347113
	16.880000	-1.376124
	16.885000	-1.450261
	16.890000	-1.427697
	16.895000	-1.353560
	16.900000	-1.382570
	16.905000	-1.456707
	16.910000	-1.430921
	16.915000	-1.363230
	16.920000	-1.389017
	16.925000	-1.459931
	16.930000	-1.434144
	16.935000	-1.366453
	16.940000	-1.389017
	16.945000	-1.463154
	16.950000	-1.437367
	16.955000	-1.363230
	16.960000	-1.385794
	16.965000	-1.459931
	16.970000	-1.434144
	16.975000	-1.353560
	16.980000	-1.392240
	16.985000	-1.456707
	16.990000	-1.443814
	16.995000	-1.366453
	17.000000	-1.385794
	17.005000	-1.459931
	17.010000	-1.437367
	17.015000	-1.360007
	17.020000	-1.389017
	17.025000	-1.456707
	17.030000	-1.437367
	17.035000	-1.369677
	17.040000	-1.382570
	17.045000	-1.469601
	17.050000	-1.434144
	17.055000	-1.366453
	17.060000	-1.392240
	17.065000	-1.456707
	17.070000	-1.437367
	17.075000	-1.360007
	17.080000	-1.389017
	17.085000	-1.469601
	17.090000	-1.440591
	17.095000	-1.366453
	17.100000	-1.389017
	17.105000	-1.463154
	17.110000	-1.440591
	17.115000	-1.369677
	17.120000	-1.389017
	17.125000	-1.463154
	17.130000	-1.447037
	17.135000	-1.372900
	17.140000	-1.392240
	17.145000	-1.466378
	17.150000	-1.443814
	17.155000	-1.369677
	17.160000	-1.392240
	17.165000	-1.463154
	17.170000	-1.443814
	17.175000	-1.363230
	17.180000	-1.385794
	17.185000	-1.466378
	17.190000	-1.440591
	17.195000	-1.366453
	17.200000	-1.379347
	17.205000	-1.456707
	17.210000	-1.440591
	17.215000	-1.363230
	17.220000	-1.385794
	17.225000	-1.463154
	17.230000	-1.434144
	17.235000	-1.366453
	17.240000	-1.382570
	17.245000	-1.456707
	17.250000	-1.437367
	17.255000	-1.360007
	17.260000	-1.379347
	17.265000	-1.456707
	17.270000	-1.434144
	17.275000	-1.363230
	17.280000	-1.385794
	17.285000	-1.453484
	17.290000	-1.437367
	17.295000	-1.356783
	17.300000	-1.376124
	17.305000	-1.453484
	17.310000	-1.440591
	17.315000	-1.356783
	17.320000	-1.379347
	17.325000	-1.447037
	17.330000	-1.430921
	17.335000	-1.360007
	17.340000	-1.379347
	17.345000	-1.450261
	17.350000	-1.437367
	17.355000	-1.356783
	17.360000	-1.376124
	17.365000	-1.453484
	17.370000	-1.434144
	17.375000	-1.363230
	17.380000	-1.379347
	17.385000	-1.450261
	17.390000	-1.430921
	17.395000	-1.360007
	17.400000	-1.369677
	17.405000	-1.453484
	17.410000	-1.437367
	17.415000	-1.353560
	17.420000	-1.376124
	17.425000	-1.453484
	17.430000	-1.434144
	17.435000	-1.356783
	17.440000	-1.372900
	17.445000	-1.453484
	17.450000	-1.437367
	17.455000	-1.356783
	17.460000	-1.376124
	17.465000	-1.453484
	17.470000	-1.434144
	17.475000	-1.356783
	17.480000	-1.379347
	17.485000	-1.450261
	17.490000	-1.440591
	17.495000	-1.356783
	17.500000	-1.372900
	17.505000	-1.453484
	17.510000	-1.430921
	17.515000	-1.356783
	17.520000	-1.372900
	17.525000	-1.447037
	17.530000	-1.434144
	17.535000	-1.353560
	17.540000	-1.376124
	17.545000	-1.450261
	17.550000	-1.427697
	17.555000	-1.360007
	17.560000	-1.369677
	17.565000	-1.450261
	17.570000	-1.434144
	17.575000	-1.353560
	17.580000	-1.372900
	17.585000	-1.453484
	17.590000	-1.430921
	17.595000	-1.356783
	17.600000	-1.372900
	17.605000	-1.447037
	17.610000	-1.427697
	17.615000	-1.356783
	17.620000	-1.366453
	17.625000	-1.450261
	17.630000	-1.430921
	17.635000	-1.360007
	17.640000	-1.369677
	17.645000	-1.443814
	17.650000	-1.437367
	17.655000	-1.353560
	17.660000	-1.366453
	17.665000	-1.443814
	17.670000	-1.434144
	17.675000	-1.356783
	17.680000	-1.363230
	17.685000	-1.443814
	17.690000	-1.427697
	17.695000	-1.350337
	17.700000	-1.366453
	17.705000	-1.440591
	17.710000	-1.430921
	17.715000	-1.353560
	17.720000	-1.363230
	17.725000	-1.440591
	17.730000	-1.421251
	17.735000	-1.353560
	17.740000	-1.366453
	17.745000	-1.440591
	17.750000	-1.421251
	17.755000	-1.347113
	17.760000	-1.360007
	17.765000	-1.440591
	17.770000	-1.424474
	17.775000	-1.343890
	17.780000	-1.360007
	17.785000	-1.437367
	17.790000	-1.421251
	17.795000	-1.347113
	17.800000	-1.360007
	17.805000	-1.434144
	17.810000	-1.421251
	17.815000	-1.340667
	17.820000	-1.356783
	17.825000	-1.427697
	17.830000	-1.418027
	17.835000	-1.337443
	17.840000	-1.350337
	17.845000	-1.427697
	17.850000	-1.418027
	17.855000	-1.340667
	17.860000	-1.347113
	17.865000	-1.430921
	17.870000	-1.414804
	17.875000	-1.337443
	17.880000	-1.340667
	17.885000	-1.424474
	17.890000	-1.411580
	17.895000	-1.340667
	17.900000	-1.343890
	17.905000	-1.421251
	17.910000	-1.414804
	17.915000	-1.337443
	17.920000	-1.337443
	17.925000	-1.424474
	17.930000	-1.414804
	17.935000	-1.334220
	17.940000	-1.334220
	17.945000	-1.424474
	17.950000	-1.408357
	17.955000	-1.324550
	17.960000	-1.337443
	17.965000	-1.421251
	17.970000	-1.405134
	17.975000	-1.330996
	17.980000	-1.337443
	17.985000	-1.414804
	17.990000	-1.405134
	17.995000	-1.321326
	18.000000	-1.334220
	18.005000	-1.411580
	18.010000	-1.395464
	18.015000	-1.321326
	18.020000	-1.330996
	18.025000	-1.401910
	18.030000	-1.398687
	18.035000	-1.311656
	18.040000	-1.330996
	18.045000	-1.401910
	18.050000	-1.392240
	18.055000	-1.314880
	18.060000	-1.327773
	18.065000	-1.401910
	18.070000	-1.392240
	18.075000	-1.311656
	18.080000	-1.314880
	18.085000	-1.408357
	18.090000	-1.389017
	18.095000	-1.311656
	18.100000	-1.318103
	18.105000	-1.395464
	18.110000	-1.385794
	18.115000	-1.305210
	18.120000	-1.311656
	18.125000	-1.392240
	18.130000	-1.379347
	18.135000	-1.305210
	18.140000	-1.308433
	18.145000	-1.385794
	18.150000	-1.385794
	18.155000	-1.308433
	18.160000	-1.314880
	18.165000	-1.385794
	18.170000	-1.382570
	18.175000	-1.301986
	18.180000	-1.311656
	18.185000	-1.392240
	18.190000	-1.376124
	18.195000	-1.298763
	18.200000	-1.311656
	18.205000	-1.389017
	18.210000	-1.372900
	18.215000	-1.295540
	18.220000	-1.301986
	18.225000	-1.382570
	18.230000	-1.372900
	18.235000	-1.292316
	18.240000	-1.292316
	18.245000	-1.372900
	18.250000	-1.366453
	18.255000	-1.282646
	18.260000	-1.285869
	18.265000	-1.366453
	18.270000	-1.353560
	18.275000	-1.279423
	18.280000	-1.282646
	18.285000	-1.350337
	18.290000	-1.350337
	18.295000	-1.263306
	18.300000	-1.266529
	18.305000	-1.343890
	18.310000	-1.330996
	18.315000	-1.253636
	18.320000	-1.247189
	18.325000	-1.324550
	18.330000	-1.311656
	18.335000	-1.234296
	18.340000	-1.240742
	18.345000	-1.314880
	18.350000	-1.301986
	18.355000	-1.218179
	18.360000	-1.218179
	18.365000	-1.285869
	18.370000	-1.285869
	18.375000	-1.205285
	18.380000	-1.202062
	18.385000	-1.269753
	18.390000	-1.263306
	18.395000	-1.182722
	18.400000	-1.176275
	18.405000	-1.243966
	18.410000	-1.234296
	18.415000	-1.144042
	18.420000	-1.144042
	18.425000	-1.211732
	18.430000	-1.202062
	18.435000	-1.121478
	18.440000	-1.118255
	18.445000	-1.192392
	18.450000	-1.179499
	18.455000	-1.098915
	18.460000	-1.092468
	18.465000	-1.173052
	18.470000	-1.160158
	18.475000	-1.082798
	18.480000	-1.079574
	18.485000	-1.156935
	18.490000	-1.153712
	18.495000	-1.073128
	18.500000	-1.076351
	18.505000	-1.150488
	18.510000	-1.147265
	18.515000	-1.069904
	18.520000	-1.069904
	18.525000	-1.147265
	18.530000	-1.150488
	18.535000	-1.073128
	18.540000	-1.082798
	18.545000	-1.160158
	18.550000	-1.160158
	18.555000	-1.092468
	18.560000	-1.098915
	18.565000	-1.173052
	18.570000	-1.176275
	18.575000	-1.111808
	18.580000	-1.115031
	18.585000	-1.208509
	18.590000	-1.211732
	18.595000	-1.147265
	18.600000	-1.153712
	18.605000	-1.237519
	18.610000	-1.250413
	18.615000	-1.192392
	18.620000	-1.195615
	18.625000	-1.289093
	18.630000	-1.285869
	18.635000	-1.224626
	18.640000	-1.234296
	18.645000	-1.311656
	18.650000	-1.321326
	18.655000	-1.240742
	18.660000	-1.253636
	18.665000	-1.324550
	18.670000	-1.330996
	18.675000	-1.260083
	18.680000	-1.256859
	18.685000	-1.340667
	18.690000	-1.337443
	18.695000	-1.263306
	18.700000	-1.266529
	18.705000	-1.347113
	18.710000	-1.347113
	18.715000	-1.269753
	18.720000	-1.269753
	18.725000	-1.353560
	18.730000	-1.353560
	18.735000	-1.276199
	18.740000	-1.272976
	18.745000	-1.356783
	18.750000	-1.353560
	18.755000	-1.272976
	18.760000	-1.276199
	18.765000	-1.356783
	18.770000	-1.350337
	18.775000	-1.279423
	18.780000	-1.276199
	18.785000	-1.356783
	18.790000	-1.347113
	18.795000	-1.279423
	18.800000	-1.269753
	18.805000	-1.350337
	18.810000	-1.356783
	18.815000	-1.279423
	18.820000	-1.272976
	18.825000	-1.353560
	18.830000	-1.356783
	18.835000	-1.276199
	18.840000	-1.279423
	18.845000	-1.353560
	18.850000	-1.350337
	18.855000	-1.282646
	18.860000	-1.282646
	18.865000	-1.356783
	18.870000	-1.356783
	18.875000	-1.279423
	18.880000	-1.269753
	18.885000	-1.356783
	18.890000	-1.360007
	18.895000	-1.279423
	18.900000	-1.279423
	18.905000	-1.353560
	18.910000	-1.353560
	18.915000	-1.279423
	18.920000	-1.276199
	18.925000	-1.363230
	18.930000	-1.356783
	18.935000	-1.282646
	18.940000	-1.279423
	18.945000	-1.353560
	18.950000	-1.350337
	18.955000	-1.285869
	18.960000	-1.279423
	18.965000	-1.356783
	18.970000	-1.356783
	18.975000	-1.282646
	18.980000	-1.282646
	18.985000	-1.353560
	18.990000	-1.363230
	18.995000	-1.292316
	19.000000	-1.285869
	19.005000	-1.363230
	19.010000	-1.366453
	19.015000	-1.292316
	19.020000	-1.285869
	19.025000	-1.363230
	19.030000	-1.372900
	19.035000	-1.301986
	19.040000	-1.298763
	19.045000	-1.376124
	19.050000	-1.379347
	19.055000	-1.305210
	19.060000	-1.298763
	19.065000	-1.379347
	19.070000	-1.392240
	19.075000	-1.314880
	19.080000	-1.311656
	19.085000	-1.392240
	19.090000	-1.405134
	19.095000	-1.321326
	19.100000	-1.318103
	19.105000	-1.405134
	19.110000	-1.414804
	19.115000	-1.340667
	19.120000	-1.334220
	19.125000	-1.408357
	19.130000	-1.421251
	19.135000	-1.343890
	19.140000	-1.337443
	19.145000	-1.414804
	19.150000	-1.424474
	19.155000	-1.343890
	19.160000	-1.334220
	19.165000	-1.418027
	19.170000	-1.427697
	19.175000	-1.350337
	19.180000	-1.343890
	19.185000	-1.421251
	19.190000	-1.427697
	19.195000	-1.353560
	19.200000	-1.343890
	19.205000	-1.427697
	19.210000	-1.434144
	19.215000	-1.347113
	19.220000	-1.343890
	19.225000	-1.421251
	19.230000	-1.434144
	19.235000	-1.350337
	19.240000	-1.334220
	19.245000	-1.424474
	19.250000	-1.427697
	19.255000	-1.350337
	19.260000	-1.334220
	19.265000	-1.418027
	19.270000	-1.430921
	19.275000	-1.343890
	19.280000	-1.337443
	19.285000	-1.414804
	19.290000	-1.430921
	19.295000	-1.350337
	19.300000	-1.334220
	19.305000	-1.424474
	19.310000	-1.424474
	19.315000	-1.347113
	19.320000	-1.334220
	19.325000	-1.418027
	19.330000	-1.424474
	19.335000	-1.347113
	19.340000	-1.330996
	19.345000	-1.411580
	19.350000	-1.421251
	19.355000	-1.343890
	19.360000	-1.334220
	19.365000	-1.411580
	19.370000	-1.418027
	19.375000	-1.347113
	19.380000	-1.327773
	19.385000	-1.405134
	19.390000	-1.414804
	19.395000	-1.337443
	19.400000	-1.327773
	19.405000	-1.408357
	19.410000	-1.414804
	19.415000	-1.337443
	19.420000	-1.324550
	19.425000	-1.398687
	19.430000	-1.411580
	19.435000	-1.337443
	19.440000	-1.324550
	19.445000	-1.401910
	19.450000	-1.414804
	19.455000	-1.334220
	19.460000	-1.324550
	19.465000	-1.398687
	19.470000	-1.411580
	19.475000	-1.330996
	19.480000	-1.318103
	19.485000	-1.405134
	19.490000	-1.414804
	19.495000	-1.327773
	19.500000	-1.318103
	19.505000	-1.395464
	19.510000	-1.405134
	19.515000	-1.327773
	19.520000	-1.314880
	19.525000	-1.401910
	19.530000	-1.401910
	19.535000	-1.327773
	19.540000	-1.311656
	19.545000	-1.395464
	19.550000	-1.408357
	19.555000	-1.318103
	19.560000	-1.311656
	19.565000	-1.392240
	19.570000	-1.401910
	19.575000	-1.327773
	19.580000	-1.311656
	19.585000	-1.385794
	19.590000	-1.395464
	19.595000	-1.321326
	19.600000	-1.311656
	19.605000	-1.385794
	19.610000	-1.408357
	19.615000	-1.321326
	19.620000	-1.308433
	19.625000	-1.379347
	19.630000	-1.405134
	19.635000	-1.321326
	19.640000	-1.311656
	19.645000	-1.379347
	19.650000	-1.405134
	19.655000	-1.321326
	19.660000	-1.308433
	19.665000	-1.385794
	19.670000	-1.395464
	19.675000	-1.321326
	19.680000	-1.301986
	19.685000	-1.379347
	19.690000	-1.392240
	19.695000	-1.318103
	19.700000	-1.298763
	19.705000	-1.372900
	19.710000	-1.389017
	19.715000	-1.318103
	19.720000	-1.298763
	19.725000	-1.379347
	19.730000	-1.398687
	19.735000	-1.311656
	19.740000	-1.292316
	19.745000	-1.369677
	19.750000	-1.389017
	19.755000	-1.311656
	19.760000	-1.292316
	19.765000	-1.372900
	19.770000	-1.392240
	19.775000	-1.308433
	19.780000	-1.295540
	19.785000	-1.369677
	19.790000	-1.385794
	19.795000	-1.305210
	19.800000	-1.292316
	19.805000	-1.369677
	19.810000	-1.389017
	19.815000	-1.314880
	19.820000	-1.289093
	19.825000	-1.366453
	19.830000	-1.379347
	19.835000	-1.305210
	19.840000	-1.289093
	19.845000	-1.363230
	19.850000	-1.382570
	19.855000	-1.308433
	19.860000	-1.285869
	19.865000	-1.360007
	19.870000	-1.382570
	19.875000	-1.308433
	19.880000	-1.282646
	19.885000	-1.356783
	19.890000	-1.382570
	19.895000	-1.298763
	19.900000	-1.282646
	19.905000	-1.363230
	19.910000	-1.376124
	19.915000	-1.298763
	19.920000	-1.279423
	19.925000	-1.353560
	19.930000	-1.376124
	19.935000	-1.305210
	19.940000	-1.279423
	19.945000	-1.350337
	19.950000	-1.376124
	19.955000	-1.305210
	19.960000	-1.279423
	19.965000	-1.356783
	19.970000	-1.372900
	19.975000	-1.305210
	19.980000	-1.279423
	19.985000	-1.356783
	19.990000	-1.376124
	19.995000	-1.298763
	20.000000	-1.276199
	20.005000	-1.356783
	20.010000	-1.379347
	20.015000	-1.298763
	20.020000	-1.272976
	20.025000	-1.360007
	20.030000	-1.372900
	20.035000	-1.295540
	20.040000	-1.282646
	20.045000	-1.350337
	20.050000	-1.376124
	20.055000	-1.301986
	20.060000	-1.276199
	20.065000	-1.350337
	20.070000	-1.372900
	20.075000	-1.301986
	20.080000	-1.272976
	20.085000	-1.350337
	20.090000	-1.366453
	20.095000	-1.292316
	20.100000	-1.276199
	20.105000	-1.347113
	20.110000	-1.369677
	20.115000	-1.298763
	20.120000	-1.269753
	20.125000	-1.347113
	20.130000	-1.360007
	20.135000	-1.285869
	20.140000	-1.272976
	20.145000	-1.343890
	20.150000	-1.363230
	20.155000	-1.292316
	20.160000	-1.266529
	20.165000	-1.343890
	20.170000	-1.363230
	20.175000	-1.282646
	20.180000	-1.266529
	20.185000	-1.337443
	20.190000	-1.363230
	20.195000	-1.292316
	20.200000	-1.263306
	20.205000	-1.347113
	20.210000	-1.366453
	20.215000	-1.289093
	20.220000	-1.260083
	20.225000	-1.343890
	20.230000	-1.366453
	20.235000	-1.289093
	20.240000	-1.263306
	20.245000	-1.337443
	20.250000	-1.360007
	20.255000	-1.285869
	20.260000	-1.263306
	20.265000	-1.334220
	20.270000	-1.356783
	20.275000	-1.279423
	20.280000	-1.253636
	20.285000	-1.327773
	20.290000	-1.350337
	20.295000	-1.276199
	20.300000	-1.247189
	20.305000	-1.327773
	20.310000	-1.347113
	20.315000	-1.266529
	20.320000	-1.237519
	20.325000	-1.308433
	20.330000	-1.327773
	20.335000	-1.253636
	20.340000	-1.224626
	20.345000	-1.295540
	20.350000	-1.308433
	20.355000	-1.240742
	20.360000	-1.208509
	20.365000	-1.282646
	20.370000	-1.301986
	20.375000	-1.218179
	20.380000	-1.185945
	20.385000	-1.247189
	20.390000	-1.263306
	20.395000	-1.185945
	20.400000	-1.153712
	20.405000	-1.221402
	20.410000	-1.237519
	20.415000	-1.156935
	20.420000	-1.131148
	20.425000	-1.198839
	20.430000	-1.218179
	20.435000	-1.134372
	20.440000	-1.102138
	20.445000	-1.166605
	20.450000	-1.192392
	20.455000	-1.108585
	20.460000	-1.082798
	20.465000	-1.147265
	20.470000	-1.163382
	20.475000	-1.082798
	20.480000	-1.057011
	20.485000	-1.124702
	20.490000	-1.144042
	20.495000	-1.069904
	20.500000	-1.034447
	20.505000	-1.105361
	20.510000	-1.127925
	20.515000	-1.047341
	20.520000	-1.018331
	20.525000	-1.092468
	20.530000	-1.118255
	20.535000	-1.044118
	20.540000	-1.018331
	20.545000	-1.082798
	20.550000	-1.115031
	20.555000	-1.044118
	20.560000	-1.015107
	20.565000	-1.086021
	20.570000	-1.118255
	20.575000	-1.050564
	20.580000	-1.028001
	20.585000	-1.098915
	20.590000	-1.131148
	20.595000	-1.066681
	20.600000	-1.040894
	20.605000	-1.115031
	20.610000	-1.150488
	20.615000	-1.082798
	20.620000	-1.063458
	20.625000	-1.147265
	20.630000	-1.173052
	20.635000	-1.118255
	20.640000	-1.102138
	20.645000	-1.179499
	20.650000	-1.218179
	20.655000	-1.163382
	20.660000	-1.144042
	20.665000	-1.221402
	20.670000	-1.260083
	20.675000	-1.208509
	20.680000	-1.179499
	20.685000	-1.256859
	20.690000	-1.292316
	20.695000	-1.221402
	20.700000	-1.195615
	20.705000	-1.269753
	20.710000	-1.308433
	20.715000	-1.234296
	20.720000	-1.211732
	20.725000	-1.282646
	20.730000	-1.308433
	20.735000	-1.247189
	20.740000	-1.218179
	20.745000	-1.289093
	20.750000	-1.324550
	20.755000	-1.253636
	20.760000	-1.224626
	20.765000	-1.298763
	20.770000	-1.324550
	20.775000	-1.260083
	20.780000	-1.227849
	20.785000	-1.295540
	20.790000	-1.330996
	20.795000	-1.256859
	20.800000	-1.231072
	20.805000	-1.295540
	20.810000	-1.330996
	20.815000	-1.263306
	20.820000	-1.227849
	20.825000	-1.301986
	20.830000	-1.330996
	20.835000	-1.260083
	20.840000	-1.231072
	20.845000	-1.298763
	20.850000	-1.327773
	20.855000	-1.260083
	20.860000	-1.227849
	20.865000	-1.295540
	20.870000	-1.334220
	20.875000	-1.260083
	20.880000	-1.231072
	20.885000	-1.298763
	20.890000	-1.330996
	20.895000	-1.266529
	20.900000	-1.234296
	20.905000	-1.301986
	20.910000	-1.330996
	20.915000	-1.269753
	20.920000	-1.227849
	20.925000	-1.301986
	20.930000	-1.337443
	20.935000	-1.263306
	20.940000	-1.231072
	20.945000	-1.308433
	20.950000	-1.337443
	20.955000	-1.269753
	20.960000	-1.234296
	20.965000	-1.301986
	20.970000	-1.334220
	20.975000	-1.269753
	20.980000	-1.234296
	20.985000	-1.308433
	20.990000	-1.337443
	20.995000	-1.269753
	21.000000	-1.237519
	21.005000	-1.298763
	21.010000	-1.334220
	21.015000	-1.272976
	21.020000	-1.231072
	21.025000	-1.308433
	21.030000	-1.337443
	21.035000	-1.272976
	21.040000	-1.237519
	21.045000	-1.305210
	21.050000	-1.337443
	21.055000	-1.272976
	21.060000	-1.240742
	21.065000	-1.301986
	21.070000	-1.343890
	21.075000	-1.272976
	21.080000	-1.240742
	21.085000	-1.308433
	21.090000	-1.340667
	21.095000	-1.272976
	21.100000	-1.243966
	21.105000	-1.305210
	21.110000	-1.350337
	21.115000	-1.279423
	21.120000	-1.247189
	21.125000	-1.311656
	21.130000	-1.356783
	21.135000	-1.282646
	21.140000	-1.250413
	21.145000	-1.314880
	21.150000	-1.356783
	21.155000	-1.289093
	21.160000	-1.260083
	21.165000	-1.318103
	21.170000	-1.360007
	21.175000	-1.295540
	21.180000	-1.250413
	21.185000	-1.324550
	21.190000	-1.366453
	21.195000	-1.289093
	21.200000	-1.260083
	21.205000	-1.330996
	21.210000	-1.369677
	21.215000	-1.292316
	21.220000	-1.263306
	21.225000	-1.330996
	21.230000	-1.366453
	21.235000	-1.301986
	21.240000	-1.263306
	21.245000	-1.327773
	21.250000	-1.372900
	21.255000	-1.298763
	21.260000	-1.263306
	21.265000	-1.334220
	21.270000	-1.369677
	21.275000	-1.301986
	21.280000	-1.266529
	21.285000	-1.334220
	21.290000	-1.369677
	21.295000	-1.305210
	21.300000	-1.269753
	21.305000	-1.337443
	21.310000	-1.372900
	21.315000	-1.305210
	21.320000	-1.272976
	21.325000	-1.337443
	21.330000	-1.376124
	21.335000	-1.314880
	21.340000	-1.266529
	21.345000	-1.334220
	21.350000	-1.376124
	21.355000	-1.308433
	21.360000	-1.272976
	21.365000	-1.337443
	21.370000	-1.379347
	21.375000	-1.308433
	21.380000	-1.276199
	21.385000	-1.337443
	21.390000	-1.379347
	21.395000	-1.308433
	21.400000	-1.272976
	21.405000	-1.340667
	21.410000	-1.382570
	21.415000	-1.308433
	21.420000	-1.276199
	21.425000	-1.340667
	21.430000	-1.379347
	21.435000	-1.314880
	21.440000	-1.272976
	21.445000	-1.343890
	21.450000	-1.379347
	21.455000	-1.311656
	21.460000	-1.272976
	21.465000	-1.340667
	21.470000	-1.382570
	21.475000	-1.311656
	21.480000	-1.272976
	21.485000	-1.337443
	21.490000	-1.376124
	21.495000	-1.311656
	21.500000	-1.266529
	21.505000	-1.340667
	21.510000	-1.382570
	21.515000	-1.311656
	21.520000	-1.269753
	21.525000	-1.334220
	21.530000	-1.379347
	21.535000	-1.314880
	21.540000	-1.269753
	21.545000	-1.343890
	21.550000	-1.385794
	21.555000	-1.308433
	21.560000	-1.269753
	21.565000	-1.340667
	21.570000	-1.382570
	21.575000	-1.308433
	21.580000	-1.266529
	21.585000	-1.337443
	21.590000	-1.382570
	21.595000	-1.311656
	21.600000	-1.269753
	21.605000	-1.334220
	21.610000	-1.379347
	21.615000	-1.318103
	21.620000	-1.263306
	21.625000	-1.334220
	21.630000	-1.376124
	21.635000	-1.311656
	21.640000	-1.266529
	21.645000	-1.334220
	21.650000	-1.379347
	21.655000	-1.305210
	21.660000	-1.269753
	21.665000	-1.330996
	21.670000	-1.376124
	21.675000	-1.311656
	21.680000	-1.266529
	21.685000	-1.330996
	21.690000	-1.376124
	21.695000	-1.301986
	21.700000	-1.263306
	21.705000	-1.330996
	21.710000	-1.369677
	21.715000	-1.301986
	21.720000	-1.263306
	21.725000	-1.327773
	21.730000	-1.372900
	21.735000	-1.308433
	21.740000	-1.263306
	21.745000	-1.314880
	21.750000	-1.366453
	21.755000	-1.301986
	21.760000	-1.263306
	21.765000	-1.324550
	21.770000	-1.372900
	21.775000	-1.298763
	21.780000	-1.256859
	21.785000	-1.324550
	21.790000	-1.366453
	21.795000	-1.298763
	21.800000	-1.256859
	21.805000	-1.321326
	21.810000	-1.363230
	21.815000	-1.298763
	21.820000	-1.256859
	21.825000	-1.321326
	21.830000	-1.363230
	21.835000	-1.295540
	21.840000	-1.253636
	21.845000	-1.324550
	21.850000	-1.366453
	21.855000	-1.298763
	21.860000	-1.256859
	21.865000	-1.318103
	21.870000	-1.369677
	21.875000	-1.301986
	21.880000	-1.253636
	21.885000	-1.318103
	21.890000	-1.366453
	21.895000	-1.292316
	21.900000	-1.247189
	21.905000	-1.314880
	21.910000	-1.366453
	21.915000	-1.292316
	21.920000	-1.250413
	21.925000	-1.314880
	21.930000	-1.360007
	21.935000	-1.295540
	21.940000	-1.253636
	21.945000	-1.308433
	21.950000	-1.360007
	21.955000	-1.292316
	21.960000	-1.243966
	21.965000	-1.311656
	21.970000	-1.363230
	21.975000	-1.289093
	21.980000	-1.253636
	21.985000	-1.308433
	21.990000	-1.353560
	21.995000	-1.292316
	22.000000	-1.243966
	22.005000	-1.305210
	22.010000	-1.353560
	22.015000	-1.282646
	22.020000	-1.247189
	22.025000	-1.305210
	22.030000	-1.347113
	22.035000	-1.292316
	22.040000	-1.240742
	22.045000	-1.301986
	22.050000	-1.347113
	22.055000	-1.289093
	22.060000	-1.231072
	22.065000	-1.298763
	22.070000	-1.350337
	22.075000	-1.285869
	22.080000	-1.237519
	22.085000	-1.301986
	22.090000	-1.350337
	22.095000	-1.282646
	22.100000	-1.240742
	22.105000	-1.301986
	22.110000	-1.353560
	22.115000	-1.285869
	22.120000	-1.237519
	22.125000	-1.295540
	22.130000	-1.343890
	22.135000	-1.285869
	22.140000	-1.234296
	22.145000	-1.292316
	22.150000	-1.343890
	22.155000	-1.282646
	22.160000	-1.237519
	22.165000	-1.295540
	22.170000	-1.343890
	22.175000	-1.276199
	22.180000	-1.231072
	22.185000	-1.292316
	22.190000	-1.343890
	22.195000	-1.282646
	22.200000	-1.227849
	22.205000	-1.295540
	22.210000	-1.340667
	22.215000	-1.282646
	22.220000	-1.227849
	22.225000	-1.289093
	22.230000	-1.343890
	22.235000	-1.285869
	22.240000	-1.231072
	22.245000	-1.292316
	22.250000	-1.337443
	22.255000	-1.272976
	22.260000	-1.231072
	22.265000	-1.292316
	22.270000	-1.340667
	22.275000	-1.279423
	22.280000	-1.227849
	22.285000	-1.285869
	22.290000	-1.337443
	22.295000	-1.276199
	22.300000	-1.224626
	22.305000	-1.285869
	22.310000	-1.343890
	22.315000	-1.276199
	22.320000	-1.221402
	22.325000	-1.285869
	22.330000	-1.340667
	22.335000	-1.279423
	22.340000	-1.224626
	22.345000	-1.285869
	22.350000	-1.337443
	22.355000	-1.272976
	22.360000	-1.227849
	22.365000	-1.282646
	22.370000	-1.334220
	22.375000	-1.279423
	22.380000	-1.224626
	22.385000	-1.285869
	22.390000	-1.340667
	22.395000	-1.272976
	22.400000	-1.224626
	22.405000	-1.279423
	22.410000	-1.334220
	22.415000	-1.269753
	22.420000	-1.221402
	22.425000	-1.276199
	22.430000	-1.330996
	22.435000	-1.269753
	22.440000	-1.208509
	22.445000	-1.272976
	22.450000	-1.327773
	22.455000	-1.260083
	22.460000	-1.214956
	22.465000	-1.272976
	22.470000	-1.321326
	22.475000	-1.253636
	22.480000	-1.205285
	22.485000	-1.266529
	22.490000	-1.311656
	22.495000	-1.256859
	22.500000	-1.202062
	22.505000	-1.260083
	22.510000	-1.308433
	22.515000	-1.247189
	22.520000	-1.189169
	22.525000	-1.253636
	22.530000	-1.292316
	22.535000	-1.231072
	22.540000	-1.189169
	22.545000	-1.237519
	22.550000	-1.292316
	22.555000	-1.221402
	22.560000	-1.169829
	22.565000	-1.221402
	22.570000	-1.269753
	22.575000	-1.208509
	22.580000	-1.156935
	22.585000	-1.202062
	22.590000	-1.240742
	22.595000	-1.179499
	22.600000	-1.124702
	22.605000	-1.182722
	22.610000	-1.221402
	22.615000	-1.153712
	22.620000	-1.086021
	22.625000	-1.134372
	22.630000	-1.176275
	22.635000	-1.105361
	22.640000	-1.050564
	22.645000	-1.095691
	22.650000	-1.137595
	22.655000	-1.076351
	22.660000	-1.008661
	22.665000	-1.060234
	22.670000	-1.098915
	22.675000	-1.044118
	22.680000	-0.982874
	22.685000	-1.040894
	22.690000	-1.082798
	22.695000	-1.028001
	22.700000	-0.966757
	22.705000	-1.021554
	22.710000	-1.069904
	22.715000	-1.015107
	22.720000	-0.950640
	22.725000	-1.011884
	22.730000	-1.063458
	22.735000	-1.005437
	22.740000	-0.957087
	22.745000	-1.011884
	22.750000	-1.066681
	22.755000	-1.002214
	22.760000	-0.960310
	22.765000	-1.018331
	22.770000	-1.069904
	22.775000	-1.011884
	22.780000	-0.966757
	22.785000	-1.028001
	22.790000	-1.089245
	22.795000	-1.031224
	22.800000	-0.992544
	22.805000	-1.047341
	22.810000	-1.111808
	22.815000	-1.060234
	22.820000	-1.024777
	22.825000	-1.079574
	22.830000	-1.150488
	22.835000	-1.108585
	22.840000	-1.066681
	22.845000	-1.131148
	22.850000	-1.202062
	22.855000	-1.153712
	22.860000	-1.115031
	22.865000	-1.173052
	22.870000	-1.240742
	22.875000	-1.198839
	22.880000	-1.147265
	22.885000	-1.208509
	22.890000	-1.269753
	22.895000	-1.208509
	22.900000	-1.163382
	22.905000	-1.218179
	22.910000	-1.276199
	22.915000	-1.218179
	22.920000	-1.169829
	22.925000	-1.221402
	22.930000	-1.279423
	22.935000	-1.221402
	22.940000	-1.176275
	22.945000	-1.221402
	22.950000	-1.276199
	22.955000	-1.227849
	22.960000	-1.173052
	22.965000	-1.231072
	22.970000	-1.276199
	22.975000	-1.224626
	22.980000	-1.173052
	22.985000	-1.227849
	22.990000	-1.282646
	22.995000	-1.227849
	23.000000	-1.173052
	23.005000	-1.231072
	23.010000	-1.279423
	23.015000	-1.224626
	23.020000	-1.173052
	23.025000	-1.227849
	23.030000	-1.282646
	23.035000	-1.227849
	23.040000	-1.179499
	23.045000	-1.234296
	23.050000	-1.282646
	23.055000	-1.231072
	23.060000	-1.182722
	23.065000	-1.227849
	23.070000	-1.289093
	23.075000	-1.237519
	23.080000	-1.182722
	23.085000	-1.231072
	23.090000	-1.289093
	23.095000	-1.237519
	23.100000	-1.176275
	23.105000	-1.231072
	23.110000	-1.292316
	23.115000	-1.234296
	23.120000	-1.179499
	23.125000	-1.240742
	23.130000	-1.285869
	23.135000	-1.243966
	23.140000	-1.182722
	23.145000	-1.227849
	23.150000	-1.292316
	23.155000	-1.234296
	23.160000	-1.182722
	23.165000	-1.234296
	23.170000	-1.292316
	23.175000	-1.240742
	23.180000	-1.182722
	23.185000	-1.231072
	23.190000	-1.292316
	23.195000	-1.243966
	23.200000	-1.185945
	23.205000	-1.234296
	23.210000	-1.295540
	23.215000	-1.247189
	23.220000	-1.189169
	23.225000	-1.240742
	23.230000	-1.292316
	23.235000	-1.253636
	23.240000	-1.192392
	23.245000	-1.243966
	23.250000	-1.301986
	23.255000	-1.253636
	23.260000	-1.195615
	23.265000	-1.247189
	23.270000	-1.308433
	23.275000	-1.256859
	23.280000	-1.202062
	23.285000	-1.243966
	23.290000	-1.314880
	23.295000	-1.256859
	23.300000	-1.205285
	23.305000	-1.256859
	23.310000	-1.305210
	23.315000	-1.263306
	23.320000	-1.208509
	23.325000	-1.260083
	23.330000	-1.314880
	23.335000	-1.266529
	23.340000	-1.208509
	23.345000	-1.250413
	23.350000	-1.314880
	23.355000	-1.263306
	23.360000	-1.195615
	23.365000	-1.250413
	23.370000	-1.311656
	23.375000	-1.263306
	23.380000	-1.202062
	23.385000	-1.256859
	23.390000	-1.308433
	23.395000	-1.260083
	23.400000	-1.205285
	23.405000	-1.256859
	23.410000	-1.308433
	23.415000	-1.260083
	23.420000	-1.205285
	23.425000	-1.250413
	23.430000	-1.318103
	23.435000	-1.260083
	23.440000	-1.198839
	23.445000	-1.247189
	23.450000	-1.308433
	23.455000	-1.263306
	23.460000	-1.195615
	23.465000	-1.250413
	23.470000	-1.308433
	23.475000	-1.260083
	23.480000	-1.205285
	23.485000	-1.250413
	23.490000	-1.305210
	23.495000	-1.260083
	23.500000	-1.205285
	23.505000	-1.256859
	23.510000	-1.314880
	23.515000	-1.266529
	23.520000	-1.208509
	23.525000	-1.253636
	23.530000	-1.314880
	23.535000	-1.263306
	23.540000	-1.205285
	23.545000	-1.250413
	23.550000	-1.314880
	23.555000	-1.272976
	23.560000	-1.211732
	23.565000	-1.256859
	23.570000	-1.324550
	23.575000	-1.269753
	23.580000	-1.214956
	23.585000	-1.266529
	23.590000	-1.321326
	23.595000	-1.276199
	23.600000	-1.208509
	23.605000	-1.260083
	23.610000	-1.321326
	23.615000	-1.279423
	23.620000	-1.218179
	23.625000	-1.266529
	23.630000	-1.327773
	23.635000	-1.282646
	23.640000	-1.214956
	23.645000	-1.266529
	23.650000	-1.330996
	23.655000	-1.282646
	23.660000	-1.218179
	23.665000	-1.263306
	23.670000	-1.334220
	23.675000	-1.276199
	23.680000	-1.221402
	23.685000	-1.266529
	23.690000	-1.327773
	23.695000	-1.285869
	23.700000	-1.227849
	23.705000	-1.272976
	23.710000	-1.334220
	23.715000	-1.285869
	23.720000	-1.224626
	23.725000	-1.269753
	23.730000	-1.334220
	23.735000	-1.285869
	23.740000	-1.227849
	23.745000	-1.279423
	23.750000	-1.337443
	23.755000	-1.292316
	23.760000	-1.231072
	23.765000	-1.276199
	23.770000	-1.330996
	23.775000	-1.292316
	23.780000	-1.224626
	23.785000	-1.272976
	23.790000	-1.340667
	23.795000	-1.292316
	23.800000	-1.227849
	23.805000	-1.269753
	23.810000	-1.334220
	23.815000	-1.279423
	23.820000	-1.227849
	23.825000	-1.266529
	23.830000	-1.330996
	23.835000	-1.289093
	23.840000	-1.231072
	23.845000	-1.272976
	23.850000	-1.330996
	23.855000	-1.292316
	23.860000	-1.227849
	23.865000	-1.269753
	23.870000	-1.334220
	23.875000	-1.285869
	23.880000	-1.221402
	23.885000	-1.269753
	23.890000	-1.327773
	23.895000	-1.282646
	23.900000	-1.214956
	23.905000	-1.263306
	23.910000	-1.327773
	23.915000	-1.289093
	23.920000	-1.221402
	23.925000	-1.263306
	23.930000	-1.330996
	23.935000	-1.285869
	23.940000	-1.221402
	23.945000	-1.266529
	23.950000	-1.324550
	23.955000	-1.282646
	23.960000	-1.218179
	23.965000	-1.266529
	23.970000	-1.324550
	23.975000	-1.282646
	23.980000	-1.214956
	23.985000	-1.256859
	23.990000	-1.324550
	23.995000	-1.282646
	24.000000	-1.218179
	24.005000	-1.263306
	24.010000	-1.327773
	24.015000	-1.279423
	24.020000	-1.218179
	24.025000	-1.253636
	24.030000	-1.321326
	24.035000	-1.285869
	24.040000	-1.221402
	24.045000	-1.260083
	24.050000	-1.324550
	24.055000	-1.272976
	24.060000	-1.211732
	24.065000	-1.260083
	24.070000	-1.324550
	24.075000	-1.276199
	24.080000	-1.211732
	24.085000	-1.253636
	24.090000	-1.318103
	24.095000	-1.279423
	24.100000	-1.211732
	24.105000	-1.260083
	24.110000	-1.318103
	24.115000	-1.272976
	24.120000	-1.211732
	24.125000	-1.253636
	24.130000	-1.314880
	24.135000	-1.279423
	24.140000	-1.218179
	24.145000	-1.250413
	24.150000	-1.327773
	24.155000	-1.276199
	24.160000	-1.218179
	24.165000	-1.253636
	24.170000	-1.324550
	24.175000	-1.279423
	24.180000	-1.211732
	24.185000	-1.247189
	24.190000	-1.318103
	24.195000	-1.272976
	24.200000	-1.205285
	24.205000	-1.253636
	24.210000	-1.314880
	24.215000	-1.276199
	24.220000	-1.208509
	24.225000	-1.253636
	24.230000	-1.308433
	24.235000	-1.279423
	24.240000	-1.208509
	24.245000	-1.250413
	24.250000	-1.308433
	24.255000	-1.276199
	24.260000	-1.202062
	24.265000	-1.243966
	24.270000	-1.311656
	24.275000	-1.269753
	24.280000	-1.202062
	24.285000	-1.237519
	24.290000	-1.318103
	24.295000	-1.269753
	24.300000	-1.205285
	24.305000	-1.237519
	24.310000	-1.318103
	24.315000	-1.276199
	24.320000	-1.202062
	24.325000	-1.243966
	24.330000	-1.311656
	24.335000	-1.276199
	24.340000	-1.202062
	24.345000	-1.243966
	24.350000	-1.314880
	24.355000	-1.266529
	24.360000	-1.198839
	24.365000	-1.237519
	24.370000	-1.305210
	24.375000	-1.266529
	24.380000	-1.195615
	24.385000	-1.237519
	24.390000	-1.308433
	24.395000	-1.260083
	24.400000	-1.195615
	24.405000	-1.234296
	24.410000	-1.305210
	24.415000	-1.256859
	24.420000	-1.195615
	24.425000	-1.231072
	24.430000	-1.298763
	24.435000	-1.263306
	24.440000	-1.195615
	24.445000	-1.231072
	24.450000	-1.301986
	24.455000	-1.256859
	24.460000	-1.185945
	24.465000	-1.227849
	24.470000	-1.295540
	24.475000	-1.256859
	24.480000	-1.192392
	24.485000	-1.224626
	24.490000	-1.289093
	24.495000	-1.250413
	24.500000	-1.185945
	24.505000	-1.224626
	24.510000	-1.292316
	24.515000	-1.256859
	24.520000	-1.182722
	24.525000	-1.224626
	24.530000	-1.292316
	24.535000	-1.250413
	24.540000	-1.189169
	24.545000	-1.221402
	24.550000	-1.295540
	24.555000	-1.256859
	24.560000	-1.185945
	24.565000	-1.227849
	24.570000	-1.289093
	24.575000	-1.253636
	24.580000	-1.189169
	24.585000	-1.227849
	24.590000	-1.292316
	24.595000	-1.250413
	24.600000	-1.189169
	24.605000	-1.224626
	24.610000	-1.295540
	24.615000	-1.260083
	24.620000	-1.185945
	24.625000	-1.224626
	24.630000	-1.285869
	24.635000	-1.250413
	24.640000	-1.182722
	24.645000	-1.224626
	24.650000	-1.282646
	24.655000	-1.250413
	24.660000	-1.182722
	24.665000	-1.227849
	24.670000	-1.279423
	24.675000	-1.247189
	24.680000	-1.182722
	24.685000	-1.214956
	24.690000	-1.282646
	24.695000	-1.260083
	24.700000	-1.182722
	24.705000	-1.224626
	24.710000	-1.285869
	24.715000	-1.247189
	24.720000	-1.176275
	24.725000	-1.211732
	24.730000	-1.289093
	24.735000	-1.250413
	24.740000	-1.176275
	24.745000	-1.218179
	24.750000	-1.279423
	24.755000	-1.240742
	24.760000	-1.173052
	24.765000	-1.211732
	24.770000	-1.282646
	24.775000	-1.240742
	24.780000	-1.169829
	24.785000	-1.208509
	24.790000	-1.279423
	24.795000	-1.240742
	24.800000	-1.169829
	24.805000	-1.198839
	24.810000	-1.272976
	24.815000	-1.237519
	24.820000	-1.166605
	24.825000	-1.198839
	24.830000	-1.276199
	24.835000	-1.234296
	24.840000	-1.166605
	24.845000	-1.205285
	24.850000	-1.269753
	24.855000	-1.227849
	24.860000	-1.160158
	24.865000	-1.195615
	24.870000	-1.260083
	24.875000	-1.224626
	24.880000	-1.156935
	24.885000	-1.185945
	24.890000	-1.247189
	24.895000	-1.205285
	24.900000	-1.137595
	24.905000	-1.163382
	24.910000	-1.231072
	24.915000	-1.189169
	24.920000	-1.118255
	24.925000	-1.153712
	24.930000	-1.208509
	24.935000	-1.173052
	24.940000	-1.098915
	24.945000	-1.131148
	24.950000	-1.182722
	24.955000	-1.150488
	24.960000	-1.073128
	24.965000	-1.102138
	24.970000	-1.169829
	24.975000	-1.124702
	24.980000	-1.060234
	24.985000	-1.082798
	24.990000	-1.150488
	24.995000	-1.111808
	25.000000	-1.044118
	25.005000	-1.073128
	25.010000	-1.140818
	25.015000	-1.108585
	25.020000	-1.037671
	25.025000	-1.060234
	25.030000	-1.140818
	25.035000	-1.095691
	25.040000	-1.034447
	25.045000	-1.063458
	25.050000	-1.137595
	25.055000	-1.105361
	25.060000	-1.040894
	25.065000	-1.076351
	25.070000	-1.147265
	25.075000	-1.108585
	25.080000	-1.047341
	25.085000	-1.086021
	25.090000	-1.153712
	25.095000	-1.127925
	25.100000	-1.063458
	25.105000	-1.102138
	25.110000	-1.179499
	25.115000	-1.150488
	25.120000	-1.089245
	25.125000	-1.127925
	25.130000	-1.211732
	25.135000	-1.185945
	25.140000	-1.124702
	25.145000	-1.166605
	25.150000	-1.237519
	25.155000	-1.218179
	25.160000	-1.147265
	25.165000	-1.182722
	25.170000	-1.263306
	25.175000	-1.231072
	25.180000	-1.166605
	25.185000	-1.195615
	25.190000	-1.269753
	25.195000	-1.240742
	25.200000	-1.169829
	25.205000	-1.205285
	25.210000	-1.272976
	25.215000	-1.247189
	25.220000	-1.176275
	25.225000	-1.208509
	25.230000	-1.279423
	25.235000	-1.247189
	25.240000	-1.179499
	25.245000	-1.211732
	25.250000	-1.272976
	25.255000	-1.250413
	25.260000	-1.179499
	25.265000	-1.208509
	25.270000	-1.282646
	25.275000	-1.250413
	25.280000	-1.176275
	25.285000	-1.202062
	25.290000	-1.279423
	25.295000	-1.240742
	25.300000	-1.173052
	25.305000	-1.208509
	25.310000	-1.269753
	25.315000	-1.237519
	25.320000	-1.176275
	25.325000	-1.208509
	25.330000	-1.272976
	25.335000	-1.243966
	25.340000	-1.173052
	25.345000	-1.202062
	25.350000	-1.279423
	25.355000	-1.243966
	25.360000	-1.179499
	25.365000	-1.208509
	25.370000	-1.282646
	25.375000	-1.247189
	25.380000	-1.182722
	25.385000	-1.211732
	25.390000	-1.282646
	25.395000	-1.260083
	25.400000	-1.179499
	25.405000	-1.208509
	25.410000	-1.289093
	25.415000	-1.253636
	25.420000	-1.185945
	25.425000	-1.211732
	25.430000	-1.289093
	25.435000	-1.256859
	25.440000	-1.182722
	25.445000	-1.208509
	25.450000	-1.292316
	25.455000	-1.263306
	25.460000	-1.185945
	25.465000	-1.214956
	25.470000	-1.289093
	25.475000	-1.260083
	25.480000	-1.185945
	25.485000	-1.214956
	25.490000	-1.292316
	25.495000	-1.266529
	25.500000	-1.192392
	25.505000	-1.218179
	25.510000	-1.289093
	25.515000	-1.263306
	25.520000	-1.195615
	25.525000	-1.227849
	25.530000	-1.301986
	25.535000	-1.269753
	25.540000	-1.198839
	25.545000	-1.224626
	25.550000	-1.301986
	25.555000	-1.279423
	25.560000	-1.205285
	25.565000	-1.224626
	25.570000	-1.311656
	25.575000	-1.276199
	25.580000	-1.202062
	25.585000	-1.234296
	25.590000	-1.305210
	25.595000	-1.282646
	25.600000	-1.208509
	25.605000	-1.237519
	25.610000	-1.308433
	25.615000	-1.279423
	25.620000	-1.208509
	25.625000	-1.237519
	25.630000	-1.314880
	25.635000	-1.289093
	25.640000	-1.214956
	25.645000	-1.237519
	25.650000	-1.314880
	25.655000	-1.282646
	25.660000	-1.211732
	25.665000	-1.240742
	25.670000	-1.311656
	25.675000	-1.282646
	25.680000	-1.211732
	25.685000	-1.247189
	25.690000	-1.318103
	25.695000	-1.292316
	25.700000	-1.218179
	25.705000	-1.240742
	25.710000	-1.318103
	25.715000	-1.289093
	25.720000	-1.218179
	25.725000	-1.237519
	25.730000	-1.321326
	25.735000	-1.289093
	25.740000	-1.214956
	25.745000	-1.237519
	25.750000	-1.311656
	25.755000	-1.285869
	25.760000	-1.214956
	25.765000	-1.237519
	25.770000	-1.311656
	25.775000	-1.285869
	25.780000	-1.214956
	25.785000	-1.237519
	25.790000	-1.305210
	25.795000	-1.282646
	25.800000	-1.208509
	25.805000	-1.231072
	25.810000	-1.311656
	25.815000	-1.282646
	25.820000	-1.208509
	25.825000	-1.231072
	25.830000	-1.308433
	25.835000	-1.285869
	25.840000	-1.214956
	25.845000	-1.227849
	25.850000	-1.308433
	25.855000	-1.276199
	25.860000	-1.205285
	25.865000	-1.231072
	25.870000	-1.308433
	25.875000	-1.285869
	25.880000	-1.214956
	25.885000	-1.227849
	25.890000	-1.311656
	25.895000	-1.276199
	25.900000	-1.195615
	25.905000	-1.234296
	25.910000	-1.305210
	25.915000	-1.279423
	25.920000	-1.205285
	25.925000	-1.227849
	25.930000	-1.305210
	25.935000	-1.279423
	25.940000	-1.205285
	25.945000	-1.227849
	25.950000	-1.301986
	25.955000	-1.276199
	25.960000	-1.205285
	25.965000	-1.221402
	25.970000	-1.298763
	25.975000	-1.279423
	25.980000	-1.198839
	25.985000	-1.227849
	25.990000	-1.298763
	25.995000	-1.276199
	26.000000	-1.198839
	26.005000	-1.224626
	26.010000	-1.295540
	26.015000	-1.269753
	26.020000	-1.202062
	26.025000	-1.221402
	26.030000	-1.295540
	26.035000	-1.276199
	26.040000	-1.198839
	26.045000	-1.218179
	26.050000	-1.295540
	26.055000	-1.272976
	26.060000	-1.202062
	26.065000	-1.218179
	26.070000	-1.298763
	26.075000	-1.272976
	26.080000	-1.198839
	26.085000	-1.224626
	26.090000	-1.292316
	26.095000	-1.272976
	26.100000	-1.195615
	26.105000	-1.218179
	26.110000	-1.301986
	26.115000	-1.279423
	26.120000	-1.205285
	26.125000	-1.224626
	26.130000	-1.295540
	26.135000	-1.272976
	26.140000	-1.195615
	26.145000	-1.221402
	26.150000	-1.301986
	26.155000	-1.272976
	26.160000	-1.195615
	26.165000	-1.211732
	26.170000	-1.295540
	26.175000	-1.276199
	26.180000	-1.198839
	26.185000	-1.218179
	26.190000	-1.295540
	26.195000	-1.272976
	26.200000	-1.195615
	26.205000	-1.211732
	26.210000	-1.292316
	26.215000	-1.263306
	26.220000	-1.195615
	26.225000	-1.218179
	26.230000	-1.289093
	26.235000	-1.266529
	26.240000	-1.192392
	26.245000	-1.218179
	26.250000	-1.282646
	26.255000	-1.266529
	26.260000	-1.192392
	26.265000	-1.211732
	26.270000	-1.285869
	26.275000	-1.266529
	26.280000	-1.195615
	26.285000	-1.208509
	26.290000	-1.279423
	26.295000	-1.263306
	26.300000	-1.185945
	26.305000	-1.202062
	26.310000	-1.289093
	26.315000	-1.263306
	26.320000	-1.182722
	26.325000	-1.202062
	26.330000	-1.279423
	26.335000	-1.260083
	26.340000	-1.185945
	26.345000	-1.205285
	26.350000	-1.282646
	26.355000	-1.253636
	26.360000	-1.182722
	26.365000	-1.202062
	26.370000	-1.282646
	26.375000	-1.260083
	26.380000	-1.185945
	26.385000	-1.202062
	26.390000	-1.276199
	26.395000	-1.263306
	26.400000	-1.182722
	26.405000	-1.195615
	26.410000	-1.276199
	26.415000	-1.260083
	26.420000	-1.179499
	26.425000	-1.195615
	26.430000	-1.276199
	26.435000	-1.253636
	26.440000	-1.182722
	26.445000	-1.192392
	26.450000	-1.269753
	26.455000	-1.260083
	26.460000	-1.185945
	26.465000	-1.192392
	26.470000	-1.269753
	26.475000	-1.253636
	26.480000	-1.176275
	26.485000	-1.202062
	26.490000	-1.276199
	26.495000	-1.256859
	26.500000	-1.179499
	26.505000	-1.195615
	26.510000	-1.276199
	26.515000	-1.256859
	26.520000	-1.179499
	26.525000	-1.195615
	26.530000	-1.276199
	26.535000	-1.256859
	26.540000	-1.179499
	26.545000	-1.195615
	26.550000	-1.272976
	26.555000	-1.253636
	26.560000	-1.182722
	26.565000	-1.192392
	26.570000	-1.272976
	26.575000	-1.256859
	26.580000	-1.179499
	26.585000	-1.195615
	26.590000	-1.269753
	26.595000	-1.256859
	26.600000	-1.179499
	26.605000	-1.192392
	26.610000	-1.269753
	26.615000	-1.256859
	26.620000	-1.176275
	26.625000	-1.189169
	26.630000	-1.269753
	26.635000	-1.250413
	26.640000	-1.169829
	26.645000	-1.189169
	26.650000	-1.266529
	26.655000	-1.250413
	26.660000	-1.169829
	26.665000	-1.185945
	26.670000	-1.263306
	26.675000	-1.250413
	26.680000	-1.166605
	26.685000	-1.182722
	26.690000	-1.260083
	26.695000	-1.240742
	26.700000	-1.169829
	26.705000	-1.182722
	26.710000	-1.253636
	26.715000	-1.240742
	26.720000	-1.169829
	26.725000	-1.176275
	26.730000	-1.256859
	26.735000	-1.237519
	26.740000	-1.163382
	26.745000	-1.173052
	26.750000	-1.247189
	26.755000	-1.237519
	26.760000	-1.163382
	26.765000	-1.176275
	26.770000	-1.250413
	26.775000	-1.240742
	26.780000	-1.153712
	26.785000	-1.169829
	26.790000	-1.243966
	26.795000	-1.224626
	26.800000	-1.153712
	26.805000	-1.169829
	26.810000	-1.240742
	26.815000	-1.227849
	26.820000	-1.150488
	26.825000	-1.160158
	26.830000	-1.234296
	26.835000	-1.221402
	26.840000	-1.153712
	26.845000	-1.153712
	26.850000	-1.237519
	26.855000	-1.218179
	26.860000	-1.140818
	26.865000	-1.163382
	26.870000	-1.234296
	26.875000	-1.224626
	26.880000	-1.144042
	26.885000	-1.156935
	26.890000	-1.231072
	26.895000	-1.221402
	26.900000	-1.144042
	26.905000	-1.156935
	26.910000	-1.234296
	26.915000	-1.221402
	26.920000	-1.144042
	26.925000	-1.156935
	26.930000	-1.231072
	26.935000	-1.218179
	26.940000	-1.140818
	26.945000	-1.150488
	26.950000	-1.218179
	26.955000	-1.211732
	26.960000	-1.134372
	26.965000	-1.137595
	26.970000	-1.211732
	26.975000	-1.198839
	26.980000	-1.118255
	26.985000	-1.131148
	26.990000	-1.198839
	26.995000	-1.182722
	27.000000	-1.105361
	27.005000	-1.105361
	27.010000	-1.173052
	27.015000	-1.156935
	27.020000	-1.073128
	27.025000	-1.076351
	27.030000	-1.140818
	27.035000	-1.115031
	27.040000	-1.037671
	27.045000	-1.040894
	27.050000	-1.108585
	27.055000	-1.089245
	27.060000	-1.008661
	27.065000	-1.011884
	27.070000	-1.082798
	27.075000	-1.066681
	27.080000	-0.986097
	27.085000	-0.995767
	27.090000	-1.066681
	27.095000	-1.053788
	27.100000	-0.976427
	27.105000	-0.982874
	27.110000	-1.063458
	27.115000	-1.050564
	27.120000	-0.969980
	27.125000	-0.976427
	27.130000	-1.053788
	27.135000	-1.040894
	27.140000	-0.973204
	27.145000	-0.979650
	27.150000	-1.053788
	27.155000	-1.057011
	27.160000	-0.976427
	27.165000	-0.986097
	27.170000	-1.066681
	27.175000	-1.063458
	27.180000	-0.986097
	27.185000	-0.992544
	27.190000	-1.082798
	27.195000	-1.076351
	27.200000	-1.005437
	27.205000	-1.011884
	27.210000	-1.095691
	27.215000	-1.092468
	27.220000	-1.024777
	27.225000	-1.031224
	27.230000	-1.124702
	27.235000	-1.115031
	27.240000	-1.047341
	27.245000	-1.063458
	27.250000	-1.144042
	27.255000	-1.144042
	27.260000	-1.076351
	27.265000	-1.092468
	27.270000	-1.169829
	27.275000	-1.176275
	27.280000	-1.102138
	27.285000	-1.118255
	27.290000	-1.192392
	27.295000	-1.195615
	27.300000	-1.121478
	27.305000	-1.131148
	27.310000	-1.211732
	27.315000	-1.202062
	27.320000	-1.131148
	27.325000	-1.140818
	27.330000	-1.218179
	27.335000	-1.208509
	27.340000	-1.134372
	27.345000	-1.134372
	27.350000	-1.211732
	27.355000	-1.208509
	27.360000	-1.134372
	27.365000	-1.137595
	27.370000	-1.208509
	27.375000	-1.208509
	27.380000	-1.131148
	27.385000	-1.127925
	27.390000	-1.208509
	27.395000	-1.208509
	27.400000	-1.134372
	27.405000	-1.134372
	27.410000	-1.214956
	27.415000	-1.205285
	27.420000	-1.124702
	27.425000	-1.131148
	27.430000	-1.218179
	27.435000	-1.202062
	27.440000	-1.127925
	27.445000	-1.137595
	27.450000	-1.211732
	27.455000	-1.208509
	27.460000	-1.124702
	27.465000	-1.137595
	27.470000	-1.208509
	27.475000	-1.198839
	27.480000	-1.127925
	27.485000	-1.134372
	27.490000	-1.205285
	27.495000	-1.208509
	27.500000	-1.137595
	27.505000	-1.137595
	27.510000	-1.218179
	27.515000	-1.211732
	27.520000	-1.134372
	27.525000	-1.137595
	27.530000	-1.214956
	27.535000	-1.211732
	27.540000	-1.134372
	27.545000	-1.144042
	27.550000	-1.221402
	27.555000	-1.218179
	27.560000	-1.153712
	27.565000	-1.147265
	27.570000	-1.227849
	27.575000	-1.227849
	27.580000	-1.150488
	27.585000	-1.156935
	27.590000	-1.227849
	27.595000	-1.227849
	27.600000	-1.160158
	27.605000	-1.156935
	27.610000	-1.234296
	27.615000	-1.237519
	27.620000	-1.156935
	27.625000	-1.163382
	27.630000	-1.240742
	27.635000	-1.237519
	27.640000	-1.166605
	27.645000	-1.166605
	27.650000	-1.243966
	27.655000	-1.243966
	27.660000	-1.169829
	27.665000	-1.169829
	27.670000	-1.250413
	27.675000	-1.250413
	27.680000	-1.173052
	27.685000	-1.179499
	27.690000	-1.250413
	27.695000	-1.250413
	27.700000	-1.169829
	27.705000	-1.173052
	27.710000	-1.250413
	27.715000	-1.250413
	27.720000	-1.176275
	27.725000	-1.176275
	27.730000	-1.256859
	27.735000	-1.263306
	27.740000	-1.182722
	27.745000	-1.182722
	27.750000	-1.263306
	27.755000	-1.260083
	27.760000	-1.182722
	27.765000	-1.179499
	27.770000	-1.263306
	27.775000	-1.260083
	27.780000	-1.179499
	27.785000	-1.176275
	27.790000	-1.256859
	27.795000	-1.260083
	27.800000	-1.182722
	27.805000	-1.182722
	27.810000	-1.260083
	27.815000	-1.263306
	27.820000	-1.185945
	27.825000	-1.182722
	27.830000	-1.260083
	27.835000	-1.269753
	27.840000	-1.185945
	27.845000	-1.185945
	27.850000	-1.263306
	27.855000	-1.266529
	27.860000	-1.192392
	27.865000	-1.189169
	27.870000	-1.263306
	27.875000	-1.266529
	27.880000	-1.189169
	27.885000	-1.192392
	27.890000	-1.266529
	27.895000	-1.269753
	27.900000	-1.189169
	27.905000	-1.192392
	27.910000	-1.266529
	27.915000	-1.269753
	27.920000	-1.192392
	27.925000	-1.192392
	27.930000	-1.266529
	27.935000	-1.276199
	27.940000	-1.198839
	27.945000	-1.189169
	27.950000	-1.263306
	27.955000	-1.269753
	27.960000	-1.189169
	27.965000	-1.189169
	27.970000	-1.263306
	27.975000	-1.269753
	27.980000	-1.185945
	27.985000	-1.185945
	27.990000	-1.266529
	27.995000	-1.266529
	28.000000	-1.189169
	28.005000	-1.189169
	28.010000	-1.266529
	28.015000	-1.269753
	28.020000	-1.185945
	28.025000	-1.182722
	28.030000	-1.266529
	28.035000	-1.272976
	28.040000	-1.189169
	28.045000	-1.189169
	28.050000	-1.272976
	28.055000	-1.269753
	28.060000	-1.189169
	28.065000	-1.185945
	28.070000	-1.263306
	28.075000	-1.266529
	28.080000	-1.195615
	28.085000	-1.185945
	28.090000	-1.269753
	28.095000	-1.272976
	28.100000	-1.192392
	28.105000	-1.192392
	28.110000	-1.263306
	28.115000	-1.272976
	28.120000	-1.192392
	28.125000	-1.198839
	28.130000	-1.272976
	28.135000	-1.269753
	28.140000	-1.192392
	28.145000	-1.189169
	28.150000	-1.269753
	28.155000	-1.263306
	28.160000	-1.192392
	28.165000	-1.182722
	28.170000	-1.266529
	28.175000	-1.279423
	28.180000	-1.192392
	28.185000	-1.189169
	28.190000	-1.260083
	28.195000	-1.276199
	28.200000	-1.198839
	28.205000	-1.185945
	28.210000	-1.263306
	28.215000	-1.276199
	28.220000	-1.195615
	28.225000	-1.185945
	28.230000	-1.260083
	28.235000	-1.272976
	28.240000	-1.185945
	28.245000	-1.182722
	28.250000	-1.263306
	28.255000	-1.276199
	28.260000	-1.195615
	28.265000	-1.185945
	28.270000	-1.263306
	28.275000	-1.263306
	28.280000	-1.189169
	28.285000	-1.189169
	28.290000	-1.256859
	28.295000	-1.272976
	28.300000	-1.189169
	28.305000	-1.182722
	28.310000	-1.266529
	28.315000	-1.276199
	28.320000	-1.185945
	28.325000	-1.185945
	28.330000	-1.263306
	28.335000	-1.272976
	28.340000	-1.189169
	28.345000	-1.182722
	28.350000	-1.263306
	28.355000	-1.269753
	28.360000	-1.192392
	28.365000	-1.182722
	28.370000	-1.260083
	28.375000	-1.266529
	28.380000	-1.189169
	28.385000	-1.182722
	28.390000	-1.260083
	28.395000	-1.266529
	28.400000	-1.185945
	28.405000	-1.185945
	28.410000	-1.260083
	28.415000	-1.269753
	28.420000	-1.189169
	28.425000	-1.179499
	28.430000	-1.260083
	28.435000	-1.263306
	28.440000	-1.192392
	28.445000	-1.176275
	28.450000	-1.253636
	28.455000	-1.263306
	28.460000	-1.185945
	28.465000	-1.179499
	28.470000	-1.256859
	28.475000	-1.260083
	28.480000	-1.192392
	28.485000	-1.179499
	28.490000	-1.260083
	28.495000	-1.266529
	28.500000	-1.189169
	28.505000	-1.176275
	28.510000	-1.256859
	28.515000	-1.263306
	28.520000	-1.185945
	28.525000	-1.179499
	28.530000	-1.253636
	28.535000	-1.266529
	28.540000	-1.189169
	28.545000	-1.176275
	28.550000	-1.260083
	28.555000	-1.263306
	28.560000	-1.185945
	28.565000	-1.179499
	28.570000	-1.250413
	28.575000	-1.256859
	28.580000	-1.192392
	28.585000	-1.179499
	28.590000	-1.250413
	28.595000	-1.263306
	28.600000	-1.185945
	28.605000	-1.176275
	28.610000	-1.256859
	28.615000	-1.263306
	28.620000	-1.185945
	28.625000	-1.179499
	28.630000	-1.250413
	28.635000	-1.266529
	28.640000	-1.185945
	28.645000	-1.176275
	28.650000	-1.247189
	28.655000	-1.269753
	28.660000	-1.192392
	28.665000	-1.179499
	28.670000	-1.260083
	28.675000	-1.266529
	28.680000	-1.192392
	28.685000	-1.182722
	28.690000	-1.250413
	28.695000	-1.266529
	28.700000	-1.195615
	28.705000	-1.179499
	28.710000	-1.260083
	28.715000	-1.276199
	28.720000	-1.189169
	28.725000	-1.179499
	28.730000	-1.250413
	28.735000	-1.272976
	28.740000	-1.189169
	28.745000	-1.179499
	28.750000	-1.256859
	28.755000	-1.269753
	28.760000	-1.195615
	28.765000	-1.176275
	28.770000	-1.260083
	28.775000	-1.263306
	28.780000	-1.185945
	28.785000	-1.176275
	28.790000	-1.250413
	28.795000	-1.269753
	28.800000	-1.195615
	28.805000	-1.173052
	28.810000	-1.253636
	28.815000	-1.263306
	28.820000	-1.192392
	28.825000	-1.176275
	28.830000	-1.250413
	28.835000	-1.266529
	28.840000	-1.185945
	28.845000	-1.173052
	28.850000	-1.253636
	28.855000	-1.266529
	28.860000	-1.189169
	28.865000	-1.166605
	28.870000	-1.247189
	28.875000	-1.269753
	28.880000	-1.185945
	28.885000	-1.173052
	28.890000	-1.247189
	28.895000	-1.260083
	28.900000	-1.189169
	28.905000	-1.176275
	28.910000	-1.250413
	28.915000	-1.266529
	28.920000	-1.185945
	28.925000	-1.176275
	28.930000	-1.250413
	28.935000	-1.266529
	28.940000	-1.185945
	28.945000	-1.173052
	28.950000	-1.247189
	28.955000	-1.266529
	28.960000	-1.185945
	28.965000	-1.173052
	28.970000	-1.250413
	28.975000	-1.269753
	28.980000	-1.185945
	28.985000	-1.176275
	28.990000	-1.253636
	28.995000	-1.266529
	29.000000	-1.195615
	29.005000	-1.176275
	29.010000	-1.247189
	29.015000	-1.260083
	29.020000	-1.185945
	29.025000	-1.166605
	29.030000	-1.250413
	29.035000	-1.266529
	29.040000	-1.189169
	29.045000	-1.173052
	29.050000	-1.243966
	29.055000	-1.260083
	29.060000	-1.179499
	29.065000	-1.169829
	29.070000	-1.240742
	29.075000	-1.260083
	29.080000	-1.182722
	29.085000	-1.163382
	29.090000	-1.240742
	29.095000	-1.256859
	29.100000	-1.182722
	29.105000	-1.166605
	29.110000	-1.234296
	29.115000	-1.263306
	29.120000	-1.185945
	29.125000	-1.166605
	29.130000	-1.234296
	29.135000	-1.253636
	29.140000	-1.176275
	29.145000	-1.156935
	29.150000	-1.234296
	29.155000	-1.243966
	29.160000	-1.176275
	29.165000	-1.160158
	29.170000	-1.231072
	29.175000	-1.247189
	29.180000	-1.169829
	29.185000	-1.150488
	29.190000	-1.224626
	29.195000	-1.243966
	29.200000	-1.166605
	29.205000	-1.147265
	29.210000	-1.221402
	29.215000	-1.243966
	29.220000	-1.166605
	29.225000	-1.144042
	29.230000	-1.221402
	29.235000	-1.240742
	29.240000	-1.166605
	29.245000	-1.140818
	29.250000	-1.221402
	29.255000	-1.231072
	29.260000	-1.166605
	29.265000	-1.134372
	29.270000	-1.208509
	29.275000	-1.224626
	29.280000	-1.156935
	29.285000	-1.134372
	29.290000	-1.205285
	29.295000	-1.221402
	29.300000	-1.147265
	29.305000	-1.134372
	29.310000	-1.202062
	29.315000	-1.224626
	29.320000	-1.153712
	29.325000	-1.121478
	29.330000	-1.192392
	29.335000	-1.221402
	29.340000	-1.144042
	29.345000	-1.118255
	29.350000	-1.192392
	29.355000	-1.221402
	29.360000	-1.140818
	29.365000	-1.118255
	29.370000	-1.195615
	29.375000	-1.211732
	29.380000	-1.140818
	29.385000	-1.115031
	29.390000	-1.182722
	29.395000	-1.202062
	29.400000	-1.124702
	29.405000	-1.102138
	29.410000	-1.176275
	29.415000	-1.192392
	29.420000	-1.124702
	29.425000	-1.086021
	29.430000	-1.153712
	29.435000	-1.176275
	29.440000	-1.092468
	29.445000	-1.063458
	29.450000	-1.134372
	29.455000	-1.144042
	29.460000	-1.066681
	29.465000	-1.044118
	29.470000	-1.102138
	29.475000	-1.124702
	29.480000	-1.050564
	29.485000	-1.018331
	29.490000	-1.079574
	29.495000	-1.102138
	29.500000	-1.034447
	29.505000	-1.005437
	29.510000	-1.069904
	29.515000	-1.092468
	29.520000	-1.015107
	29.525000	-0.986097
	29.530000	-1.060234
	29.535000	-1.086021
	29.540000	-1.005437
	29.545000	-0.982874
	29.550000	-1.063458
	29.555000	-1.086021
	29.560000	-1.015107
	29.565000	-0.989320
	29.570000	-1.063458
	29.575000	-1.095691
	29.580000	-1.024777
	29.585000	-1.005437
	29.590000	-1.089245
	29.595000	-1.111808
	29.600000	-1.044118
	29.605000	-1.021554
	29.610000	-1.102138
	29.615000	-1.137595
	29.620000	-1.069904
	29.625000	-1.063458
	29.630000	-1.137595
	29.635000	-1.166605
	29.640000	-1.111808
	29.645000	-1.089245
	29.650000	-1.176275
	29.655000	-1.208509
	29.660000	-1.150488
	29.665000	-1.131148
	29.670000	-1.205285
	29.675000	-1.237519
	29.680000	-1.173052
	29.685000	-1.140818
	29.690000	-1.221402
	29.695000	-1.240742
	29.700000	-1.176275
	29.705000	-1.156935
	29.710000	-1.227849
	29.715000	-1.260083
	29.720000	-1.185945
	29.725000	-1.163382
	29.730000	-1.234296
	29.735000	-1.260083
	29.740000	-1.185945
	29.745000	-1.163382
	29.750000	-1.227849
	29.755000	-1.256859
	29.760000	-1.185945
	29.765000	-1.163382
	29.770000	-1.234296
	29.775000	-1.260083
	29.780000	-1.179499
	29.785000	-1.160158
	29.790000	-1.224626
	29.795000	-1.260083
	29.800000	-1.182722
	29.805000	-1.156935
	29.810000	-1.227849
	29.815000	-1.253636
	29.820000	-1.176275
	29.825000	-1.153712
	29.830000	-1.221402
	29.835000	-1.250413
	29.840000	-1.182722
	29.845000	-1.153712
	29.850000	-1.224626
	29.855000	-1.247189
	29.860000	-1.173052
	29.865000	-1.150488
	29.870000	-1.221402
	29.875000	-1.247189
	29.880000	-1.176275
	29.885000	-1.147265
	29.890000	-1.221402
	29.895000	-1.240742
	29.900000	-1.176275
	29.905000	-1.144042
	29.910000	-1.218179
	29.915000	-1.243966
	29.920000	-1.176275
	29.925000	-1.137595
	29.930000	-1.211732
	29.935000	-1.240742
	29.940000	-1.173052
	29.945000	-1.147265
	29.950000	-1.214956
	29.955000	-1.240742
	29.960000	-1.179499
	29.965000	-1.147265
	29.970000	-1.218179
	29.975000	-1.243966
	29.980000	-1.179499
	29.985000	-1.150488
	29.990000	-1.218179
	29.995000	-1.250413
	30.000000	-1.179499
	30.005000	-1.150488
	30.010000	-1.221402
	30.015000	-1.250413
	30.020000	-1.185945
	30.025000	-1.153712
	30.030000	-1.224626
	30.035000	-1.253636
	30.040000	-1.185945
	30.045000	-1.156935
	30.050000	-1.224626
	30.055000	-1.256859
	30.060000	-1.189169
	30.065000	-1.153712
	30.070000	-1.231072
	30.075000	-1.263306
	30.080000	-1.189169
	30.085000	-1.160158
	30.090000	-1.231072
	30.095000	-1.263306
	30.100000	-1.198839
	30.105000	-1.156935
	30.110000	-1.234296
	30.115000	-1.260083
	30.120000	-1.189169
	30.125000	-1.163382
	30.130000	-1.234296
	30.135000	-1.266529
	30.140000	-1.192392
	30.145000	-1.160158
	30.150000	-1.231072
	30.155000	-1.260083
	30.160000	-1.195615
	30.165000	-1.153712
	30.170000	-1.231072
	30.175000	-1.269753
	30.180000	-1.192392
	30.185000	-1.163382
	30.190000	-1.231072
	30.195000	-1.260083
	30.200000	-1.192392
	30.205000	-1.163382
	30.210000	-1.237519
	30.215000	-1.263306
	30.220000	-1.195615
	30.225000	-1.166605
	30.230000	-1.227849
	30.235000	-1.266529
	30.240000	-1.202062
	30.245000	-1.160158
	30.250000	-1.234296
	30.255000	-1.266529
	30.260000	-1.195615
	30.265000	-1.160158
	30.270000	-1.231072
	30.275000	-1.263306
	30.280000	-1.192392
	30.285000	-1.163382
	30.290000	-1.234296
	30.295000	-1.266529
	30.300000	-1.192392
	30.305000	-1.160158
	30.310000	-1.227849
	30.315000	-1.269753
	30.320000	-1.195615
	30.325000	-1.166605
	30.330000	-1.234296
	30.335000	-1.266529
	30.340000	-1.198839
	30.345000	-1.166605
	30.350000	-1.234296
	30.355000	-1.266529
	30.360000	-1.202062
	30.365000	-1.163382
	30.370000	-1.227849
	30.375000	-1.269753
	30.380000	-1.205285
	30.385000	-1.163382
	30.390000	-1.224626
	30.395000	-1.263306
	30.400000	-1.202062
	30.405000	-1.163382
	30.410000	-1.237519
	30.415000	-1.263306
	30.420000	-1.205285
	30.425000	-1.169829
	30.430000	-1.234296
	30.435000	-1.272976
	30.440000	-1.198839
	30.445000	-1.169829
	30.450000	-1.237519
	30.455000	-1.263306
	30.460000	-1.202062
	30.465000	-1.160158
	30.470000	-1.234296
	30.475000	-1.266529
	30.480000	-1.195615
	30.485000	-1.160158
	30.490000	-1.234296
	30.495000	-1.263306
	30.500000	-1.198839
	30.505000	-1.163382
	30.510000	-1.237519
	30.515000	-1.266529
	30.520000	-1.198839
	30.525000	-1.163382
	30.530000	-1.234296
	30.535000	-1.272976
	30.540000	-1.205285
	30.545000	-1.166605
	30.550000	-1.234296
	30.555000	-1.266529
	30.560000	-1.205285
	30.565000	-1.166605
	30.570000	-1.227849
	30.575000	-1.272976
	30.580000	-1.198839
	30.585000	-1.160158
	30.590000	-1.237519
	30.595000	-1.272976
	30.600000	-1.205285
	30.605000	-1.156935
	30.610000	-1.234296
	30.615000	-1.269753
	30.620000	-1.205285
	30.625000	-1.166605
	30.630000	-1.231072
	30.635000	-1.272976
	30.640000	-1.205285
	30.645000	-1.166605
	30.650000	-1.231072
	30.655000	-1.269753
	30.660000	-1.189169
	30.665000	-1.163382
	30.670000	-1.231072
	30.675000	-1.266529
	30.680000	-1.205285
	30.685000	-1.166605
	30.690000	-1.231072
	30.695000	-1.272976
	30.700000	-1.205285
	30.705000	-1.163382
	30.710000	-1.231072
	30.715000	-1.266529
	30.720000	-1.205285
	30.725000	-1.163382
	30.730000	-1.231072
	30.735000	-1.269753
	30.740000	-1.198839
	30.745000	-1.160158
	30.750000	-1.227849
	30.755000	-1.266529
	30.760000	-1.205285
	30.765000	-1.166605
	30.770000	-1.231072
	30.775000	-1.276199
	30.780000	-1.202062
	30.785000	-1.169829
	30.790000	-1.234296
	30.795000	-1.272976
	30.800000	-1.202062
	30.805000	-1.160158
	30.810000	-1.231072
	30.815000	-1.272976
	30.820000	-1.208509
	30.825000	-1.166605
	30.830000	-1.221402
	30.835000	-1.272976
	30.840000	-1.198839
	30.845000	-1.169829
	30.850000	-1.227849
	30.855000	-1.272976
	30.860000	-1.198839
	30.865000	-1.166605
	30.870000	-1.234296
	30.875000	-1.269753
	30.880000	-1.205285
	30.885000	-1.163382
	30.890000	-1.234296
	30.895000	-1.269753
	30.900000	-1.211732
	30.905000	-1.166605
	30.910000	-1.231072
	30.915000	-1.276199
	30.920000	-1.211732
	30.925000	-1.169829
	30.930000	-1.234296
	30.935000	-1.282646
	30.940000	-1.211732
	30.945000	-1.169829
	30.950000	-1.237519
	30.955000	-1.276199
	30.960000	-1.211732
	30.965000	-1.173052
	30.970000	-1.237519
	30.975000	-1.279423
	30.980000	-1.218179
	30.985000	-1.169829
	30.990000	-1.234296
	30.995000	-1.285869
	31.000000	-1.218179
	31.005000	-1.176275
	31.010000	-1.234296
	31.015000	-1.279423
	31.020000	-1.218179
	31.025000	-1.176275
	31.030000	-1.243966
	31.035000	-1.279423
	31.040000	-1.218179
	31.045000	-1.173052
	31.050000	-1.237519
	31.055000	-1.289093
	31.060000	-1.224626
	31.065000	-1.173052
	31.070000	-1.237519
	31.075000	-1.282646
	31.080000	-1.224626
	31.085000	-1.176275
	31.090000	-1.237519
	31.095000	-1.285869
	31.100000	-1.218179
	31.105000	-1.176275
	31.110000	-1.237519
	31.115000	-1.279423
	31.120000	-1.214956
	31.125000	-1.176275
	31.130000	-1.237519
	31.135000	-1.272976
	31.140000	-1.218179
	31.145000	-1.169829
	31.150000	-1.231072
	31.155000	-1.279423
	31.160000	-1.214956
	31.165000	-1.166605
	31.170000	-1.231072
	31.175000	-1.272976
	31.180000	-1.208509
